SpectraSuite Data File
++++++++++++++++++++++++++++++++++++
Date: Tue Jan 31 14:28:12 PST 2017
User: UCSD _CER
Dark Spectrum Present: No
Reference Spectrum Present: No
Number of Sampled Component Spectra: 1
Spectrometers: USB4C00073
Integration Time (usec): 180000 (USB4C00073)
Spectra Averaged: 1 (USB4C00073)
Boxcar Smoothing: 0 (USB4C00073)
Correct for Electrical Dark: No (USB4C00073)
Strobe/Lamp Enabled: No (USB4C00073)
Correct for Detector Non-linearity: No (USB4C00073)
Correct for Stray Light: No (USB4C00073)
Number of Pixels in Processed Spectrum: 3648
>>>>>Begin Processed Spectral Data<<<<<
345.37	1275.88
345.58	1275.88
345.80	1275.88
346.01	1314.80
346.22	1271.79
346.43	1847.27
346.65	1703.91
346.86	1884.13
347.07	1927.14
347.28	1789.92
347.50	1726.44
347.71	1730.53
347.92	1638.38
348.13	1751.01
348.35	1529.83
348.56	1812.45
348.77	1726.44
348.98	1791.97
349.20	1820.64
349.41	2033.63
349.62	2021.35
349.83	1855.46
350.05	1740.77
350.26	1890.28
350.47	1976.29
350.68	1955.81
350.90	1837.03
351.11	2152.42
351.32	2037.73
351.53	2029.54
351.75	1810.40
351.96	1847.27
352.17	1880.04
352.38	1908.71
352.60	1804.26
352.81	1851.36
353.02	2029.54
353.23	1802.21
353.44	1890.28
353.66	1988.58
353.87	2054.11
354.08	2090.98
354.29	1994.72
354.51	1980.39
354.72	2050.02
354.93	2080.74
355.14	2068.45
355.35	2105.31
355.57	2357.21
355.78	2242.53
355.99	2277.34
356.20	2140.13
356.42	2033.63
356.63	2138.08
356.84	2111.46
357.05	2312.16
357.26	2576.34
357.48	2459.61
357.69	2529.24
357.90	2635.74
358.11	2508.76
358.32	2447.32
358.54	2500.57
358.75	2236.38
358.96	2316.25
359.17	2099.17
359.38	1841.12
359.60	1959.91
359.81	1814.50
360.02	1828.84
360.23	1794.02
360.44	1765.35
360.66	1873.89
360.87	1720.29
361.08	1755.11
361.29	1787.88
361.50	1822.69
361.72	1767.40
361.93	1845.22
362.14	1992.67
362.35	1705.96
362.56	1849.32
362.77	1738.73
362.99	1853.41
363.20	1763.30
363.41	1857.51
363.62	1710.05
363.83	1869.80
364.05	1861.60
364.26	1665.00
364.47	1783.78
364.68	2004.96
364.89	1773.54
365.10	1769.44
365.32	1822.69
365.53	1722.34
365.74	1763.30
365.95	1832.93
366.16	1693.67
366.37	1773.54
366.59	1818.60
366.80	1796.07
367.01	1621.99
367.22	2013.15
367.43	2136.03
367.64	1755.11
367.86	1763.30
368.07	1880.04
368.28	2004.96
368.49	1720.29
368.70	1869.80
368.91	1824.74
369.12	1736.68
369.34	1656.81
369.55	1742.82
369.76	1853.41
369.97	1781.73
370.18	1808.36
370.39	1775.59
370.60	1673.19
370.82	1730.53
371.03	1806.31
371.24	1787.88
371.45	2007.01
371.66	2158.56
371.87	2295.77
372.08	2566.10
372.30	2623.45
372.51	2973.65
372.72	2955.22
372.93	2725.85
373.14	2668.50
373.35	2271.20
373.56	1880.04
373.78	1796.07
373.99	1964.00
374.20	2111.46
374.41	1861.60
374.62	1843.17
374.83	2021.35
375.04	1779.68
375.25	1875.94
375.47	1818.60
375.68	1890.28
375.89	2189.28
376.10	2125.79
376.31	2222.05
376.52	2072.54
376.73	2058.21
376.94	2047.97
377.15	1984.48
377.37	1988.58
377.58	2078.69
377.79	2033.63
378.00	2099.17
378.21	2099.17
378.42	2025.44
378.63	1837.03
378.84	1961.95
379.05	1918.95
379.27	1886.18
379.48	1898.47
379.69	1757.16
379.90	2078.69
380.11	1824.74
380.32	2021.35
380.53	2095.07
380.74	2158.56
380.95	2011.11
381.16	1886.18
381.37	1867.75
381.59	2029.54
381.80	2021.35
382.01	1849.32
382.22	1769.44
382.43	1906.66
382.64	1902.56
382.85	1771.49
383.06	1794.02
383.27	1927.14
383.48	1853.41
383.69	1978.34
383.91	2074.59
384.12	2691.03
384.33	2910.16
384.54	3086.29
384.75	3151.82
384.96	3289.04
385.17	2834.39
385.38	2408.41
385.59	2029.54
385.80	2047.97
386.01	2072.54
386.22	1939.43
386.43	2009.06
386.64	2344.92
386.86	2088.93
387.07	2226.14
387.28	1992.67
387.49	1898.47
387.70	2062.30
387.91	1974.24
388.12	1890.28
388.33	2142.18
388.54	2017.25
388.75	2232.29
388.96	2281.44
389.17	2093.02
389.38	2054.11
389.59	1998.82
389.80	1865.70
390.01	1882.08
390.22	1751.01
390.43	1906.66
390.64	1812.45
390.86	1933.28
391.07	2062.30
391.28	2009.06
391.49	2004.96
391.70	2017.25
391.91	2283.49
392.12	2549.72
392.33	2764.76
392.54	2916.31
392.75	2971.60
392.96	2707.41
393.17	2381.79
393.38	2500.57
393.59	2385.88
393.80	2154.46
394.01	2213.85
394.22	2326.49
394.43	2435.03
394.64	1972.19
394.85	2062.30
395.06	1923.04
395.27	1898.47
395.48	1808.36
395.69	1865.70
395.90	2050.02
396.11	2152.42
396.32	2308.06
396.53	2455.51
396.74	2322.40
396.95	2297.82
397.16	2140.13
397.37	1888.23
397.58	2033.63
397.79	1882.08
398.00	1884.13
398.21	1857.51
398.42	2043.87
398.63	2222.05
398.84	2072.54
399.05	2041.82
399.26	2033.63
399.47	2019.30
399.68	1712.10
399.89	1839.08
400.10	1873.89
400.31	2478.04
400.52	3430.35
400.73	3729.35
400.94	4122.56
401.15	4556.73
401.36	3930.05
401.57	3196.88
401.78	2787.29
401.99	2260.96
402.20	1857.51
402.41	1939.43
402.62	2127.84
402.83	2070.50
403.04	2170.85
403.25	2359.26
403.46	2557.91
403.67	2684.89
403.88	2471.90
404.09	2301.92
404.30	2140.13
404.51	2019.30
404.72	1908.71
404.93	2000.87
405.14	1945.57
405.35	1830.88
405.56	1853.41
405.77	1826.79
405.98	2013.15
406.19	2258.91
406.40	2719.70
406.61	3026.90
406.82	3166.16
407.03	3538.89
407.24	3213.26
407.45	3057.62
407.66	2973.65
407.87	2684.89
408.08	2361.31
408.29	2357.21
408.49	2170.85
408.70	1988.58
408.91	1877.99
409.12	1984.48
409.33	1984.48
409.54	2523.10
409.75	2361.31
409.96	2519.00
410.17	2672.60
410.38	2521.05
410.59	2250.72
410.80	2123.74
411.01	1986.53
411.22	1871.84
411.43	1949.67
411.64	1787.88
411.85	1824.74
412.06	1837.03
412.27	1865.70
412.47	2150.37
412.68	2191.33
412.89	2357.21
413.10	2160.61
413.31	1990.63
413.52	2172.89
413.73	2213.85
413.94	1849.32
414.15	1894.37
414.36	1855.46
414.57	1804.26
414.78	1763.30
414.99	1990.63
415.19	2093.02
415.40	2131.94
415.61	2213.85
415.82	2052.06
416.03	2119.65
416.24	2045.92
416.45	1837.03
416.66	1886.18
416.87	1814.50
417.08	2066.40
417.29	1972.19
417.50	2074.59
417.70	2101.22
417.91	2115.55
418.12	1945.57
418.33	2017.25
418.54	2082.78
418.75	2119.65
418.96	2140.13
419.17	2152.42
419.38	2357.21
419.59	2385.88
419.79	2418.65
420.00	2170.85
420.21	2455.51
420.42	2070.50
420.63	1908.71
420.84	1939.43
421.05	1890.28
421.26	1914.85
421.47	1880.04
421.67	2121.70
421.88	2742.23
422.09	3235.79
422.30	3651.53
422.51	3663.82
422.72	3925.96
422.93	3252.17
423.14	2697.17
423.35	2299.87
423.55	2076.64
423.76	2064.35
423.97	1970.15
424.18	1738.73
424.39	1892.32
424.60	1890.28
424.81	1822.69
425.02	2045.92
425.22	2011.11
425.43	2033.63
425.64	2787.29
425.85	4122.56
426.06	4659.13
426.27	5025.72
426.48	4863.93
426.68	4349.89
426.89	3999.68
427.10	3946.44
427.31	3647.43
427.52	3405.77
427.73	3377.10
427.94	2873.30
428.14	2764.76
428.35	2406.36
428.56	2416.60
428.77	2201.57
428.98	2045.92
429.19	2043.87
429.40	2070.50
429.60	2095.07
429.81	2254.81
430.02	2234.33
430.23	2176.99
430.44	2160.61
430.65	2136.03
430.85	2099.17
431.06	2013.15
431.27	1925.09
431.48	1982.43
431.69	2013.15
431.90	2107.36
432.10	3215.31
432.31	5920.68
432.52	7399.31
432.73	7876.49
432.94	8503.17
433.15	7235.47
433.35	5105.59
433.56	4966.32
433.77	9283.44
433.98	27444.83
434.19	37021.13
434.40	41948.54
434.60	42818.93
434.81	38577.59
435.02	22828.71
435.23	15972.11
435.44	12926.78
435.64	7206.80
435.85	4061.12
436.06	3151.82
436.27	5113.78
436.48	6422.43
436.68	6967.19
436.89	8071.04
437.10	9187.19
437.31	8650.62
437.52	8152.96
437.73	7931.78
437.93	7321.49
438.14	4827.06
438.35	3639.24
438.56	3301.33
438.77	2869.20
438.97	3065.81
439.18	8038.28
439.39	12248.90
439.60	13752.11
439.80	14692.13
440.01	13598.51
440.22	9615.21
440.43	6530.97
440.64	5463.98
440.84	4327.36
441.05	3033.04
441.26	3000.27
441.47	2977.75
441.68	8808.31
441.88	14473.00
442.09	18581.22
442.30	23103.14
442.51	24534.67
442.71	19871.44
442.92	15927.05
443.13	12341.06
443.34	8394.62
443.55	6297.50
443.75	4437.95
443.96	3086.29
444.17	2265.05
444.38	2205.66
444.58	1902.56
444.79	2033.63
445.00	1961.95
445.21	2168.80
445.41	2236.38
445.62	2152.42
445.83	2353.12
446.04	2330.59
446.24	1996.77
446.45	1882.08
446.66	2019.30
446.87	2125.79
447.07	2131.94
447.28	2760.66
447.49	2942.93
447.70	3194.83
447.90	3209.17
448.11	3125.20
448.32	2637.78
448.53	2623.45
448.73	2332.64
448.94	2152.42
449.15	2127.84
449.36	1998.82
449.56	1939.43
449.77	1896.42
449.98	1722.34
450.19	1923.04
450.39	1923.04
450.60	2039.78
450.81	1961.95
451.02	1943.52
451.22	2115.55
451.43	1853.41
451.64	1900.52
451.84	1832.93
452.05	2019.30
452.26	1900.52
452.47	1787.88
452.67	1800.16
452.88	2070.50
453.09	1890.28
453.30	1910.75
453.50	2437.08
453.71	4050.88
453.92	4237.25
454.12	4818.87
454.33	4519.87
454.54	4173.76
454.75	2865.11
454.95	2566.10
455.16	2582.49
455.37	2371.55
455.57	2308.06
455.78	2068.45
455.99	2011.11
456.19	2023.39
456.40	1867.75
456.61	1941.47
456.82	2029.54
457.02	3385.29
457.23	4341.69
457.44	4933.56
457.64	4925.36
457.85	5136.31
458.06	5097.39
458.26	6025.12
458.47	5894.05
458.68	6313.89
458.89	5973.92
459.09	4732.86
459.30	3569.61
459.51	3119.06
459.71	2762.71
459.92	3459.02
460.13	6969.24
460.33	8540.03
460.54	8497.02
460.75	8906.62
460.95	8181.64
461.16	4937.65
461.37	3901.38
461.57	3645.38
461.78	3487.69
461.99	2992.08
462.19	2777.05
462.40	2058.21
462.61	2316.25
462.81	2119.65
463.02	2142.18
463.23	2308.06
463.43	2367.45
463.64	2242.53
463.85	2695.13
464.05	1964.00
464.26	2263.01
464.47	2234.33
464.67	2236.38
464.88	3373.00
465.09	4683.70
465.29	5093.30
465.50	5613.48
465.71	5593.00
465.91	3958.72
466.12	3139.54
466.33	2791.38
466.53	2635.74
466.74	2707.41
466.94	2445.27
467.15	2131.94
467.36	2119.65
467.56	1855.46
467.77	1955.81
467.98	1912.80
468.18	1904.61
468.39	1818.60
468.60	2103.26
468.80	1837.03
469.01	1861.60
469.21	1961.95
469.42	1978.34
469.63	1869.80
469.83	1828.84
470.04	1992.67
470.25	2129.89
470.45	2000.87
470.66	1847.27
470.86	1929.19
471.07	1918.95
471.28	1931.23
471.48	2076.64
471.69	2738.13
471.90	4956.08
472.10	5310.38
472.31	5808.04
472.51	6836.12
472.72	11564.88
472.93	13682.48
473.13	14982.94
473.34	15785.74
473.54	14642.98
473.75	8839.03
473.96	6385.57
474.16	5187.50
474.37	4634.55
474.57	4335.55
474.78	3973.06
474.99	3289.04
475.19	2588.63
475.40	2389.98
475.60	4057.03
475.81	5519.28
476.02	5896.10
476.22	6385.57
476.43	6125.47
476.63	4216.77
476.84	3330.00
477.05	2801.62
477.25	2682.84
477.46	2996.18
477.66	2650.07
477.87	2398.17
478.08	2168.80
478.28	2123.74
478.49	1898.47
478.69	1890.28
478.90	1916.90
479.10	2037.73
479.31	2213.85
479.52	4534.20
479.72	17645.30
479.93	27313.76
480.13	32169.49
480.34	33990.14
480.54	32155.16
480.75	18544.36
480.96	11659.09
481.16	8710.01
481.37	7753.61
481.57	7141.27
481.78	6995.86
481.98	6784.92
482.19	4880.31
482.40	3647.43
482.60	2514.91
482.81	2250.72
483.01	1972.19
483.22	2072.54
483.42	2054.11
483.63	2306.01
483.83	4515.77
484.04	7233.43
484.24	8781.69
484.45	9275.25
484.66	9135.99
484.86	6975.38
485.07	4593.59
485.27	3665.86
485.48	3110.86
485.68	3239.89
485.89	3157.97
486.09	3272.65
486.30	3010.51
486.50	2662.36
486.71	2496.47
486.91	4554.68
487.12	13612.85
487.33	19926.74
487.53	23121.57
487.74	24112.78
487.94	22654.63
488.15	13907.76
488.35	9279.35
488.56	7253.91
488.76	6322.08
488.97	5535.66
489.17	5207.98
489.38	5097.39
489.58	4642.75
489.79	3831.75
489.99	3180.50
490.20	2660.31
490.40	2516.95
490.61	2346.97
490.81	2023.39
491.02	1912.80
491.22	2023.39
491.43	2043.87
491.63	1927.14
491.84	1902.56
492.04	1689.57
492.25	2437.08
492.45	3817.41
492.66	4941.75
492.86	5492.65
493.07	5767.08
493.27	5676.97
493.48	3663.82
493.68	3188.69
493.89	2627.54
494.09	2555.86
494.30	2351.07
494.50	2553.82
494.71	2361.31
494.91	2205.66
495.12	2086.88
495.32	2236.38
495.53	2942.93
495.73	3852.23
495.94	4726.71
496.14	5103.54
496.35	5789.61
496.55	4939.70
496.76	4270.01
496.96	3831.75
497.17	3422.16
497.37	2977.75
497.58	2551.77
497.78	2361.31
497.98	2340.83
498.19	2242.53
498.39	2140.13
498.60	2035.68
498.80	1873.89
499.01	2047.97
499.21	1828.84
499.42	1806.31
499.62	1937.38
499.83	2848.72
500.03	5355.44
500.24	7419.79
500.44	8988.53
500.64	9936.74
500.85	9779.05
501.05	7710.60
501.26	6360.99
501.46	5765.03
501.67	4714.42
501.87	3764.17
502.08	3315.66
502.28	3131.34
502.48	2930.64
502.69	2746.33
502.89	2246.62
503.10	2095.07
503.30	2138.08
503.51	2078.69
503.71	1783.78
503.92	1910.75
504.12	1939.43
504.32	1865.70
504.53	1834.98
504.73	1929.19
504.94	1927.14
505.14	2992.08
505.35	5289.90
505.55	6907.80
505.75	7917.45
505.96	8501.12
506.16	7636.88
506.37	5107.63
506.57	3909.57
506.78	3323.85
506.98	3026.90
507.18	2621.40
507.39	2465.75
507.59	2547.67
507.80	2467.80
508.00	2217.95
508.20	2144.22
508.41	2035.68
508.61	2000.87
508.82	1935.33
509.02	1894.37
509.22	1724.39
509.43	1773.54
509.63	1708.01
509.84	1787.88
510.04	1736.68
510.24	1920.99
510.45	1851.36
510.65	1712.10
510.86	1787.88
511.06	1771.49
511.26	1828.84
511.47	1914.85
511.67	1726.44
511.88	1841.12
512.08	1931.23
512.28	1667.05
512.49	1855.46
512.69	1832.93
512.90	1894.37
513.10	1900.52
513.30	2357.21
513.51	3344.33
513.71	4407.23
513.91	4995.00
514.12	5394.35
514.32	5207.98
514.53	4286.40
514.73	3477.45
514.93	2930.64
515.14	2645.98
515.34	2475.99
515.54	2324.44
515.75	2342.88
515.95	2353.12
516.15	2267.10
516.36	2039.78
516.56	2009.06
516.77	1708.01
516.97	1984.48
517.17	1904.61
517.38	1976.29
517.58	2066.40
517.78	1894.37
517.99	1945.57
518.19	1789.92
518.39	1949.67
518.60	1808.36
518.80	1804.26
519.00	1886.18
519.21	1783.78
519.41	2009.06
519.61	1798.12
519.82	1767.40
520.02	1775.59
520.22	1816.55
520.43	1798.12
520.63	1816.55
520.83	1763.30
521.04	1665.00
521.24	1861.60
521.44	1736.68
521.65	1763.30
521.85	1804.26
522.05	1748.97
522.26	1796.07
522.46	2015.20
522.66	1974.24
522.87	1708.01
523.07	1910.75
523.27	1814.50
523.48	1847.27
523.68	1814.50
523.88	1718.25
524.09	1935.33
524.29	1923.04
524.49	1587.18
524.70	1888.23
524.90	1978.34
525.10	1873.89
525.31	1650.66
525.51	1716.20
525.71	1939.43
525.91	1900.52
526.12	1726.44
526.32	1648.61
526.52	1738.73
526.73	1738.73
526.93	1824.74
527.13	1685.48
527.34	1746.92
527.54	1826.79
527.74	1783.78
527.94	1877.99
528.15	1828.84
528.35	2027.49
528.55	2031.58
528.76	2037.73
528.96	1665.00
529.16	1988.58
529.36	1904.61
529.57	1783.78
529.77	1978.34
529.97	1812.45
530.18	1847.27
530.38	1849.32
530.58	1839.08
530.78	1734.63
530.99	1798.12
531.19	1873.89
531.39	1697.77
531.60	1841.12
531.80	1767.40
532.00	1906.66
532.20	1849.32
532.41	1712.10
532.61	1712.10
532.81	1830.88
533.01	1748.97
533.22	1867.75
533.42	1796.07
533.62	1658.85
533.82	1929.19
534.03	1718.25
534.23	1863.65
534.43	1748.97
534.63	1777.64
534.84	1873.89
535.04	1841.12
535.24	1765.35
535.44	2039.78
535.65	1751.01
535.85	1673.19
536.05	1742.82
536.25	1755.11
536.46	1720.29
536.66	1923.04
536.86	1861.60
537.06	1877.99
537.27	2009.06
537.47	1896.42
537.67	1777.64
537.87	1908.71
538.08	1787.88
538.28	1779.68
538.48	1679.33
538.68	1746.92
538.88	1894.37
539.09	1742.82
539.29	1837.03
539.49	1896.42
539.69	1828.84
539.90	1882.08
540.10	1812.45
540.30	2037.73
540.50	1687.53
540.70	1724.39
540.91	1751.01
541.11	1816.55
541.31	1941.47
541.51	1867.75
541.72	1857.51
541.92	1759.21
542.12	1794.02
542.32	1724.39
542.52	1734.63
542.73	1718.25
542.93	1888.23
543.13	1763.30
543.33	1814.50
543.53	1837.03
543.74	1806.31
543.94	1714.15
544.14	1865.70
544.34	1918.95
544.54	1880.04
544.75	1853.41
544.95	1918.95
545.15	1853.41
545.35	2045.92
545.55	1812.45
545.75	1814.50
545.96	2021.35
546.16	1705.96
546.36	1779.68
546.56	1771.49
546.76	1841.12
546.97	1984.48
547.17	1796.07
547.37	1861.60
547.57	1767.40
547.77	1865.70
547.97	1847.27
548.18	1812.45
548.38	1791.97
548.58	1927.14
548.78	1777.64
548.98	1816.55
549.18	1894.37
549.39	1972.19
549.59	1920.99
549.79	1867.75
549.99	1906.66
550.19	1814.50
550.39	1820.64
550.60	1845.22
550.80	1800.16
551.00	1857.51
551.20	1804.26
551.40	1703.91
551.60	1841.12
551.80	1890.28
552.01	1951.71
552.21	1828.84
552.41	1832.93
552.61	1964.00
552.81	1777.64
553.01	1703.91
553.21	1773.54
553.42	1660.90
553.62	1740.77
553.82	1712.10
554.02	1927.14
554.22	1871.84
554.42	1751.01
554.62	1849.32
554.83	1972.19
555.03	2062.30
555.23	1832.93
555.43	2009.06
555.63	1837.03
555.83	1830.88
556.03	1775.59
556.23	1644.52
556.44	1828.84
556.64	1906.66
556.84	1615.85
557.04	1830.88
557.24	1794.02
557.44	1837.03
557.64	1845.22
557.84	1718.25
558.04	1734.63
558.25	1959.91
558.45	1697.77
558.65	1820.64
558.85	1781.73
559.05	1595.37
559.25	1834.98
559.45	1890.28
559.65	2050.02
559.85	2238.43
560.05	1877.99
560.26	1892.32
560.46	1871.84
560.66	1736.68
560.86	1748.97
561.06	1644.52
561.26	1908.71
561.46	1961.95
561.66	1738.73
561.86	1902.56
562.06	1734.63
562.26	1736.68
562.47	1810.40
562.67	1652.71
562.87	1830.88
563.07	1652.71
563.27	1839.08
563.47	1800.16
563.67	1728.49
563.87	1791.97
564.07	1708.01
564.27	1816.55
564.47	1877.99
564.67	1875.94
564.87	1718.25
565.08	1871.84
565.28	1826.79
565.48	1837.03
565.68	1810.40
565.88	1880.04
566.08	1968.10
566.28	1837.03
566.48	1646.57
566.68	1761.25
566.88	1759.21
567.08	1916.90
567.28	1820.64
567.48	1867.75
567.68	1877.99
567.88	1677.29
568.08	1847.27
568.28	1920.99
568.48	1810.40
568.68	1886.18
568.89	1781.73
569.09	1744.87
569.29	1890.28
569.49	1910.75
569.69	1699.81
569.89	1701.86
570.09	1613.80
570.29	1660.90
570.49	1638.38
570.69	1820.64
570.89	1828.84
571.09	2060.26
571.29	1640.42
571.49	2002.91
571.69	1906.66
571.89	1886.18
572.09	1710.05
572.29	1751.01
572.49	1882.08
572.69	1898.47
572.89	1771.49
573.09	1644.52
573.29	1697.77
573.49	1775.59
573.69	1818.60
573.89	1937.38
574.09	1796.07
574.29	1906.66
574.49	1718.25
574.69	1773.54
574.89	1746.92
575.09	1746.92
575.29	1724.39
575.49	1861.60
575.69	1843.17
575.89	1695.72
576.09	1925.09
576.29	1818.60
576.49	1757.16
576.69	1785.83
576.89	1703.91
577.09	1759.21
577.29	1726.44
577.49	1912.80
577.69	1681.38
577.89	1814.50
578.09	1865.70
578.29	1634.28
578.49	1802.21
578.69	1738.73
578.89	1873.89
579.09	1798.12
579.29	1742.82
579.49	1947.62
579.69	1734.63
579.89	1902.56
580.09	1667.05
580.29	1656.81
580.49	1695.72
580.69	1671.14
580.89	1765.35
581.09	1820.64
581.29	1736.68
581.49	1775.59
581.69	1761.25
581.89	1761.25
582.09	1685.48
582.28	1734.63
582.48	1935.33
582.68	1920.99
582.88	1904.61
583.08	1796.07
583.28	1718.25
583.48	1804.26
583.68	1714.15
583.88	1794.02
584.08	1759.21
584.28	1808.36
584.48	1976.29
584.68	1818.60
584.88	1767.40
585.08	1820.64
585.28	1861.60
585.48	1898.47
585.68	1810.40
585.87	1865.70
586.07	1877.99
586.27	1755.11
586.47	1914.85
586.67	1810.40
586.87	1724.39
587.07	1822.69
587.27	1705.96
587.47	1830.88
587.67	2019.30
587.87	2127.84
588.07	1900.52
588.27	1751.01
588.46	1912.80
588.66	1882.08
588.86	1798.12
589.06	1943.52
589.26	1845.22
589.46	1769.44
589.66	1689.57
589.86	1781.73
590.06	1742.82
590.26	1843.17
590.46	1781.73
590.66	1886.18
590.85	1736.68
591.05	1877.99
591.25	1734.63
591.45	1714.15
591.65	1849.32
591.85	1767.40
592.05	1769.44
592.25	1910.75
592.45	1902.56
592.64	1779.68
592.84	1884.13
593.04	1748.97
593.24	2031.58
593.44	1810.40
593.64	1869.80
593.84	1869.80
594.04	1718.25
594.24	1976.29
594.43	1763.30
594.63	1810.40
594.83	1923.04
595.03	1851.36
595.23	1738.73
595.43	1525.74
595.63	1695.72
595.83	1837.03
596.02	1658.85
596.22	1757.16
596.42	1755.11
596.62	1826.79
596.82	1710.05
597.02	1888.23
597.22	1843.17
597.41	1767.40
597.61	1699.81
597.81	1863.65
598.01	1904.61
598.21	1755.11
598.41	1718.25
598.61	1726.44
598.80	1841.12
599.00	1769.44
599.20	1908.71
599.40	1753.06
599.60	1806.31
599.80	1837.03
599.99	1929.19
600.19	1837.03
600.39	1771.49
600.59	1886.18
600.79	1781.73
600.99	1849.32
601.19	1927.14
601.38	1976.29
601.58	1855.46
601.78	1693.67
601.98	1822.69
602.18	1871.84
602.37	2078.69
602.57	1898.47
602.77	1982.43
602.97	1974.24
603.17	2121.70
603.37	1992.67
603.56	1990.63
603.76	1964.00
603.96	1939.43
604.16	2037.73
604.36	1988.58
604.56	1957.86
604.75	1832.93
604.95	1841.12
605.15	1970.15
605.35	1902.56
605.55	1820.64
605.74	1863.65
605.94	1839.08
606.14	1927.14
606.34	1898.47
606.54	1830.88
606.73	1775.59
606.93	1910.75
607.13	1755.11
607.33	1851.36
607.53	1861.60
607.72	1841.12
607.92	1918.95
608.12	1863.65
608.32	1808.36
608.51	1888.23
608.71	1665.00
608.91	1898.47
609.11	1845.22
609.31	1771.49
609.50	1980.39
609.70	2021.35
609.90	1931.23
610.10	2023.39
610.29	2238.43
610.49	2729.94
610.69	3143.63
610.89	3352.52
611.09	3624.90
611.28	3674.06
611.48	3033.04
611.68	2936.79
611.88	2678.74
612.07	2545.63
612.27	2602.97
612.47	2222.05
612.67	2267.10
612.86	2295.77
613.06	2066.40
613.26	1869.80
613.46	1925.09
613.65	1888.23
613.85	2138.08
614.05	1875.94
614.25	1935.33
614.44	1816.55
614.64	1873.89
614.84	1791.97
615.04	1824.74
615.23	1804.26
615.43	1867.75
615.63	1865.70
615.83	1726.44
616.02	1904.61
616.22	2420.70
616.42	2385.88
616.62	2721.75
616.81	2850.77
617.01	2756.57
617.21	2539.48
617.41	2377.69
617.60	2410.46
617.80	2295.77
618.00	2279.39
618.19	2082.78
618.39	2115.55
618.59	2019.30
618.79	1865.70
618.98	1673.19
619.18	1816.55
619.38	2017.25
619.57	1783.78
619.77	1812.45
619.97	1890.28
620.17	1787.88
620.36	1701.86
620.56	1914.85
620.76	1685.48
620.95	1671.14
621.15	1802.21
621.35	1804.26
621.54	1769.44
621.74	1732.58
621.94	1791.97
622.14	1734.63
622.33	1673.19
622.53	1771.49
622.73	1726.44
622.92	1656.81
623.12	1943.52
623.32	2238.43
623.51	2260.96
623.71	2172.89
623.91	2521.05
624.10	2093.02
624.30	2176.99
624.50	2017.25
624.69	1933.28
624.89	2459.61
625.09	1910.75
625.29	1855.46
625.48	1808.36
625.68	1927.14
625.88	1935.33
626.07	1824.74
626.27	1716.20
626.47	1714.15
626.66	1636.33
626.86	1755.11
627.06	1808.36
627.25	1845.22
627.45	1920.99
627.64	1769.44
627.84	1976.29
628.04	1771.49
628.23	1980.39
628.43	1708.01
628.63	1847.27
628.82	1753.06
629.02	2017.25
629.22	1974.24
629.41	1894.37
629.61	1822.69
629.81	1984.48
630.00	1626.09
630.20	1734.63
630.40	1822.69
630.59	1884.13
630.79	1847.27
630.98	1791.97
631.18	1806.31
631.38	1884.13
631.57	1894.37
631.77	1728.49
631.97	1791.97
632.16	1843.17
632.36	1890.28
632.56	1898.47
632.75	1816.55
632.95	1863.65
633.14	1703.91
633.34	1892.32
633.54	1646.57
633.73	1718.25
633.93	1757.16
634.12	1710.05
634.32	2095.07
634.52	1882.08
634.71	1767.40
634.91	1804.26
635.11	1679.33
635.30	1802.21
635.50	1839.08
635.69	1687.53
635.89	1937.38
636.09	1816.55
636.28	1736.68
636.48	1757.16
636.67	1888.23
636.87	1918.95
637.07	1869.80
637.26	1679.33
637.46	1828.84
637.65	1888.23
637.85	1882.08
638.04	1855.46
638.24	1755.11
638.44	1880.04
638.63	1804.26
638.83	1824.74
639.02	1935.33
639.22	1955.81
639.42	1974.24
639.61	1898.47
639.81	1873.89
640.00	1904.61
640.20	1953.76
640.39	1890.28
640.59	2086.88
640.79	1947.62
640.98	1935.33
641.18	1865.70
641.37	1900.52
641.57	1949.67
641.76	1808.36
641.96	1755.11
642.15	1757.16
642.35	1734.63
642.55	1871.84
642.74	1693.67
642.94	1869.80
643.13	1974.24
643.33	1882.08
643.52	1812.45
643.72	1773.54
643.91	1824.74
644.11	1779.68
644.31	1736.68
644.50	1777.64
644.70	1900.52
644.89	1828.84
645.09	1861.60
645.28	1722.34
645.48	1806.31
645.67	1796.07
645.87	1630.18
646.06	1820.64
646.26	1826.79
646.45	1578.98
646.65	1665.00
646.84	2052.06
647.04	1761.25
647.24	1902.56
647.43	2070.50
647.63	2115.55
647.82	2234.33
648.02	2093.02
648.21	1992.67
648.41	2144.22
648.60	1943.52
648.80	2050.02
648.99	1880.04
649.19	1853.41
649.38	1777.64
649.58	1880.04
649.77	1964.00
649.97	1996.77
650.16	1828.84
650.36	1677.29
650.55	1939.43
650.75	1871.84
650.94	2002.91
651.14	1839.08
651.33	1822.69
651.53	1927.14
651.72	1701.86
651.92	1849.32
652.11	1652.71
652.31	1882.08
652.50	1843.17
652.70	1820.64
652.89	1759.21
653.09	1945.57
653.28	1796.07
653.48	1607.66
653.67	1701.86
653.87	2131.94
654.06	1785.83
654.25	1912.80
654.45	1802.21
654.64	1791.97
654.84	1757.16
655.03	1589.22
655.23	1906.66
655.42	1869.80
655.62	2023.39
655.81	1873.89
656.01	1779.68
656.20	1953.76
656.40	1968.10
656.59	1830.88
656.79	1925.09
656.98	1796.07
657.17	1865.70
657.37	1847.27
657.56	1802.21
657.76	1873.89
657.95	1947.62
658.15	1525.74
658.34	1855.46
658.54	1826.79
658.73	1697.77
658.92	1773.54
659.12	1796.07
659.31	1871.84
659.51	1689.57
659.70	1908.71
659.90	1791.97
660.09	1900.52
660.29	1828.84
660.48	1755.11
660.67	1984.48
660.87	1767.40
661.06	1888.23
661.26	1853.41
661.45	1859.56
661.65	1873.89
661.84	1738.73
662.03	1763.30
662.23	1730.53
662.42	2025.44
662.62	1996.77
662.81	2492.38
663.00	3221.45
663.20	4691.90
663.39	6166.43
663.59	7075.73
663.78	7352.21
663.97	7520.14
664.17	6907.80
664.36	5371.82
664.56	5203.89
664.75	4923.32
664.94	4556.73
665.14	4007.87
665.33	3721.16
665.53	3327.95
665.72	2987.99
665.91	2914.26
666.11	2496.47
666.30	2256.86
666.50	2158.56
666.69	2154.46
666.88	2009.06
667.08	2256.86
667.27	2705.37
667.47	3151.82
667.66	3452.88
667.85	3635.14
668.05	3887.04
668.24	3532.75
668.43	3129.30
668.63	2983.89
668.82	2959.31
669.02	2770.90
669.21	2662.36
669.40	2406.36
669.60	2615.26
669.79	2148.32
669.98	2326.49
670.18	1906.66
670.37	1808.36
670.56	1841.12
670.76	1894.37
670.95	1781.73
671.15	1837.03
671.34	1908.71
671.53	1767.40
671.73	1787.88
671.92	1763.30
672.11	1736.68
672.31	1759.21
672.50	1832.93
672.69	1595.37
672.89	1540.07
673.08	1734.63
673.27	1884.13
673.47	1855.46
673.66	1892.32
673.85	1777.64
674.05	1832.93
674.24	1920.99
674.43	1945.57
674.63	2230.24
674.82	2480.09
675.01	1947.62
675.21	2287.58
675.40	2043.87
675.59	2105.31
675.79	2217.95
675.98	1939.43
676.17	2121.70
676.37	1957.86
676.56	1939.43
676.75	1863.65
676.95	1869.80
677.14	1796.07
677.33	1972.19
677.52	1726.44
677.72	1777.64
677.91	1843.17
678.10	1730.53
678.30	1693.67
678.49	1714.15
678.68	1988.58
678.88	1673.19
679.07	1910.75
679.26	1812.45
679.45	1974.24
679.65	1902.56
679.84	1726.44
680.03	1681.38
680.23	1855.46
680.42	2103.26
680.61	1759.21
680.81	1806.31
681.00	1753.06
681.19	1880.04
681.38	1861.60
681.58	1951.71
681.77	1734.63
681.96	1894.37
682.15	1759.21
682.35	1824.74
682.54	1918.95
682.73	1775.59
682.93	1751.01
683.12	1693.67
683.31	1896.42
683.50	2088.93
683.70	1730.53
683.89	1800.16
684.08	1656.81
684.27	1976.29
684.47	1740.77
684.66	1865.70
684.85	1984.48
685.04	2021.35
685.24	1918.95
685.43	2062.30
685.62	1974.24
685.81	2205.66
686.01	2199.52
686.20	2172.89
686.39	2050.02
686.58	2301.92
686.78	2156.51
686.97	2222.05
687.16	2129.89
687.35	1998.82
687.55	2164.70
687.74	2066.40
687.93	2043.87
688.12	2185.18
688.32	2185.18
688.51	1988.58
688.70	2025.44
688.89	1931.23
689.08	1927.14
689.28	1841.12
689.47	1945.57
689.66	1966.05
689.85	1986.53
690.05	1775.59
690.24	1753.06
690.43	1859.56
690.62	1794.02
690.81	1763.30
691.01	1822.69
691.20	1699.81
691.39	1730.53
691.58	1947.62
691.77	1910.75
691.97	1802.21
692.16	1886.18
692.35	1867.75
692.54	1769.44
692.73	1898.47
692.93	1896.42
693.12	2002.91
693.31	1951.71
693.50	1886.18
693.69	1900.52
693.89	1964.00
694.08	2027.49
694.27	1968.10
694.46	1804.26
694.65	1933.28
694.85	1859.56
695.04	1914.85
695.23	2187.23
695.42	3164.11
695.61	3921.86
695.80	4421.56
696.00	4908.98
696.19	5142.45
696.38	4362.17
696.57	3815.37
696.76	3729.35
696.95	3493.83
697.15	3479.50
697.34	3307.47
697.53	2867.16
697.72	2883.54
697.91	2473.95
698.10	2387.93
698.30	2154.46
698.49	2093.02
698.68	1898.47
698.87	1806.31
699.06	1820.64
699.25	1834.98
699.45	1884.13
699.64	1904.61
699.83	1894.37
700.02	1628.14
700.21	1800.16
700.40	1812.45
700.59	1832.93
700.79	1775.59
700.98	1787.88
701.17	1738.73
701.36	1771.49
701.55	1738.73
701.74	1908.71
701.93	1697.77
702.12	1953.76
702.32	1888.23
702.51	1972.19
702.70	2011.11
702.89	1912.80
703.08	1794.02
703.27	2002.91
703.46	1943.52
703.65	1898.47
703.85	1732.58
704.04	1689.57
704.23	1970.15
704.42	1763.30
704.61	1832.93
704.80	1867.75
704.99	1667.05
705.18	1861.60
705.37	2002.91
705.57	2621.40
705.76	3495.88
705.95	3903.43
706.14	4405.18
706.33	4605.88
706.52	4413.37
706.71	3553.23
706.90	3409.87
707.09	3307.47
707.28	3160.02
707.47	2865.11
707.67	2869.20
707.86	2516.95
708.05	2633.69
708.24	2342.88
708.43	2197.47
708.62	1959.91
708.81	1855.46
709.00	1751.01
709.19	1777.64
709.38	1839.08
709.57	1685.48
709.76	1865.70
709.96	1849.32
710.15	1898.47
710.34	1820.64
710.53	1849.32
710.72	1849.32
710.91	1877.99
711.10	1832.93
711.29	2000.87
711.48	1841.12
711.67	1742.82
711.86	1826.79
712.05	1722.34
712.24	1789.92
712.43	1859.56
712.62	1906.66
712.81	1861.60
713.00	1851.36
713.19	1722.34
713.39	1859.56
713.58	1804.26
713.77	1992.67
713.96	2084.83
714.15	2136.03
714.34	1992.67
714.53	1955.81
714.72	2164.70
714.91	1943.52
715.10	1986.53
715.29	1847.27
715.48	2115.55
715.67	2009.06
715.86	1908.71
716.05	1910.75
716.24	1890.28
716.43	1837.03
716.62	1736.68
716.81	1656.81
717.00	1783.78
717.19	1953.76
717.38	1816.55
717.57	1767.40
717.76	1681.38
717.95	1845.22
718.14	1787.88
718.33	1761.25
718.52	1632.23
718.71	1601.51
718.90	1640.42
719.09	1744.87
719.28	1822.69
719.47	1951.71
719.66	1849.32
719.85	1941.47
720.04	1810.40
720.23	1802.21
720.42	1791.97
720.61	1873.89
720.80	1652.71
720.99	1828.84
721.18	1763.30
721.37	1794.02
721.56	1777.64
721.75	1939.43
721.94	1722.34
722.13	1787.88
722.32	1882.08
722.51	1910.75
722.70	1935.33
722.89	1941.47
723.08	1890.28
723.27	1882.08
723.46	1943.52
723.65	1779.68
723.84	1742.82
724.03	1970.15
724.22	1730.53
724.41	1877.99
724.60	1796.07
724.79	1828.84
724.98	1970.15
725.16	1814.50
725.35	1898.47
725.54	1695.72
725.73	1914.85
725.92	1859.56
726.11	2000.87
726.30	2369.50
726.49	2252.77
726.68	2377.69
726.87	2498.52
727.06	2576.34
727.25	2258.91
727.44	2357.21
727.63	2203.61
727.82	2070.50
728.01	2207.71
728.20	2220.00
728.38	2176.99
728.57	2039.78
728.76	1984.48
728.95	2004.96
729.14	1783.78
729.33	1734.63
729.52	1660.90
729.71	1759.21
729.90	1669.09
730.09	1775.59
730.28	1845.22
730.47	1839.08
730.66	1972.19
730.84	1837.03
731.03	1892.32
731.22	1937.38
731.41	1865.70
731.60	1923.04
731.79	1716.20
731.98	1787.88
732.17	1884.13
732.36	1927.14
732.55	1744.87
732.73	1748.97
732.92	1853.41
733.11	1861.60
733.30	1763.30
733.49	1693.67
733.68	1877.99
733.87	1880.04
734.06	1755.11
734.25	1730.53
734.43	1834.98
734.62	1923.04
734.81	1920.99
735.00	1880.04
735.19	1849.32
735.38	1978.34
735.57	1816.55
735.76	1935.33
735.94	1947.62
736.13	2181.09
736.32	2095.07
736.51	2109.41
736.70	2349.02
736.89	2414.56
737.08	2781.14
737.27	4310.97
737.45	5406.64
737.64	6055.84
737.83	6842.26
738.02	7104.40
738.21	6500.25
738.40	5218.22
738.59	5007.28
738.77	4741.05
738.96	4429.76
739.15	3995.59
739.34	3946.44
739.53	3712.97
739.72	3553.23
739.90	3293.13
740.09	2715.61
740.28	2451.42
740.47	2263.01
740.66	2166.75
740.85	1834.98
741.03	2002.91
741.22	1789.92
741.41	1867.75
741.60	1712.10
741.79	1880.04
741.98	1933.28
742.16	2082.78
742.35	1918.95
742.54	1877.99
742.73	2111.46
742.92	1908.71
743.10	1800.16
743.29	1880.04
743.48	2125.79
743.67	1871.84
743.86	1703.91
744.05	1839.08
744.23	1796.07
744.42	1820.64
744.61	1837.03
744.80	1689.57
744.99	1759.21
745.17	1751.01
745.36	1816.55
745.55	1947.62
745.74	1787.88
745.93	1820.64
746.11	1855.46
746.30	1800.16
746.49	1953.76
746.68	1757.16
746.86	1873.89
747.05	1880.04
747.24	1929.19
747.43	1925.09
747.62	1763.30
747.80	1812.45
747.99	1947.62
748.18	1933.28
748.37	1916.90
748.56	1959.91
748.74	1998.82
748.93	2283.49
749.12	4038.59
749.31	8005.51
749.49	10508.13
749.68	12461.89
749.87	14106.41
750.06	14692.13
750.24	13580.08
750.43	13154.10
750.62	13899.56
750.81	14026.54
750.99	14204.71
751.18	13621.04
751.37	11310.93
751.56	10020.71
751.74	9633.64
751.93	8644.48
752.12	7303.06
752.31	6229.92
752.49	5316.53
752.68	4888.50
752.87	4192.19
753.06	3590.09
753.24	3084.24
753.43	2869.20
753.62	2404.32
753.81	2183.13
753.99	2242.53
754.18	1955.81
754.37	1853.41
754.55	1941.47
754.74	2099.17
754.93	1718.25
755.12	1791.97
755.30	1820.64
755.49	1886.18
755.68	1898.47
755.86	1908.71
756.05	1824.74
756.24	1968.10
756.43	1791.97
756.61	1720.29
756.80	1869.80
756.99	2050.02
757.17	1865.70
757.36	1755.11
757.55	1855.46
757.74	1890.28
757.92	1925.09
758.11	1886.18
758.30	1914.85
758.48	1980.39
758.67	1968.10
758.86	2074.59
759.04	1920.99
759.23	1949.67
759.42	2037.73
759.60	1931.23
759.79	1951.71
759.98	1920.99
760.16	1847.27
760.35	1796.07
760.54	1816.55
760.73	1910.75
760.91	1714.15
761.10	1968.10
761.29	1900.52
761.47	1824.74
761.66	2111.46
761.85	1890.28
762.03	2295.77
762.22	4110.27
762.41	9658.22
762.59	13979.43
762.78	16609.03
762.97	19844.82
763.15	20657.86
763.34	17272.57
763.52	13336.37
763.71	12744.51
763.90	11362.13
764.08	10860.38
764.27	10200.93
764.46	9410.42
764.64	8222.59
764.83	7714.70
765.02	6858.65
765.20	5842.85
765.39	4691.90
765.58	3631.05
765.76	3174.35
765.95	2631.64
766.13	2244.57
766.32	2136.03
766.51	2047.97
766.69	2463.71
766.88	2004.96
767.07	1845.22
767.25	1738.73
767.44	1976.29
767.62	1949.67
767.81	1791.97
768.00	1861.60
768.18	1927.14
768.37	1730.53
768.56	1730.53
768.74	1843.17
768.93	1738.73
769.11	1845.22
769.30	1830.88
769.49	1775.59
769.67	1859.56
769.86	1783.78
770.04	1777.64
770.23	1853.41
770.42	1918.95
770.60	1888.23
770.79	1667.05
770.97	1982.43
771.16	2535.39
771.35	3831.75
771.53	4757.43
771.72	5400.49
771.90	6047.65
772.09	6320.03
772.27	5457.84
772.46	4505.53
772.65	4372.41
772.83	4126.66
773.02	3958.72
773.20	3573.71
773.39	3667.91
773.58	3491.79
773.76	2967.51
773.95	3069.91
774.13	2754.52
774.32	2521.05
774.50	2207.71
774.69	2133.98
774.87	2015.20
775.06	2152.42
775.25	1884.13
775.43	1910.75
775.62	1818.60
775.80	1859.56
775.99	1943.52
776.17	1826.79
776.36	1851.36
776.54	1818.60
776.73	1916.90
776.92	1908.71
777.10	1978.34
777.29	1886.18
777.47	1755.11
777.66	1785.83
777.84	1857.51
778.03	1886.18
778.21	1828.84
778.40	1832.93
778.58	1808.36
778.77	1947.62
778.95	1789.92
779.14	1705.96
779.32	1957.86
779.51	1863.65
779.70	1783.78
779.88	1705.96
780.07	1714.15
780.25	2025.44
780.44	1755.11
780.62	2007.01
780.81	1869.80
780.99	1802.21
781.18	1882.08
781.36	1810.40
781.55	1767.40
781.73	2054.11
781.92	1718.25
782.10	1751.01
782.29	1796.07
782.47	1918.95
782.66	1859.56
782.84	1648.61
783.03	1796.07
783.21	1943.52
783.40	1880.04
783.58	1742.82
783.77	1730.53
783.95	1781.73
784.14	1660.90
784.32	1816.55
784.51	1910.75
784.69	1755.11
784.88	1689.57
785.06	1763.30
785.24	1710.05
785.43	1861.60
785.61	1908.71
785.80	1767.40
785.98	1890.28
786.17	1824.74
786.35	1734.63
786.54	1884.13
786.72	1871.84
786.91	1920.99
787.09	1826.79
787.28	1787.88
787.46	1832.93
787.65	1810.40
787.83	1777.64
788.01	1882.08
788.20	1755.11
788.38	1806.31
788.57	1783.78
788.75	1767.40
788.94	2004.96
789.12	1939.43
789.31	1800.16
789.49	1935.33
789.67	1775.59
789.86	1841.12
790.04	1757.16
790.23	1705.96
790.41	2025.44
790.60	1800.16
790.78	1877.99
790.96	1875.94
791.15	1968.10
791.33	1814.50
791.52	1763.30
791.70	1753.06
791.89	1787.88
792.07	1877.99
792.25	1820.64
792.44	1802.21
792.62	1951.71
792.81	1775.59
792.99	1888.23
793.17	1806.31
793.36	1824.74
793.54	2553.82
793.73	3555.27
793.91	4644.79
794.10	5296.05
794.28	5945.25
794.46	5939.11
794.65	5795.75
794.83	4388.80
795.01	4388.80
795.20	4200.38
795.38	3917.76
795.57	3733.45
795.75	3590.09
795.93	3217.36
796.12	3293.13
796.30	3104.72
796.49	2930.64
796.67	2611.16
796.85	2557.91
797.04	2273.25
797.22	2287.58
797.40	1953.76
797.59	1959.91
797.77	1939.43
797.96	1882.08
798.14	1931.23
798.32	1877.99
798.51	1951.71
798.69	2033.63
798.87	1972.19
799.06	1861.60
799.24	1806.31
799.42	2422.75
799.61	3125.20
799.79	3528.65
799.98	4104.13
800.16	4550.59
800.34	5547.95
800.53	6580.12
800.71	6580.12
800.89	7690.12
801.08	7966.60
801.26	7448.46
801.44	6457.25
801.63	5486.51
801.81	5359.53
801.99	5083.06
802.18	4679.61
802.36	4478.91
802.54	4286.40
802.73	3692.49
802.91	3604.42
803.09	3217.36
803.28	3041.23
803.46	2740.18
803.64	2668.50
803.83	2113.50
804.01	2136.03
804.19	1906.66
804.38	2082.78
804.56	1933.28
804.74	1855.46
804.92	1996.77
805.11	1798.12
805.29	2050.02
805.47	1865.70
805.66	1781.73
805.84	1779.68
806.02	1923.04
806.21	1837.03
806.39	1877.99
806.57	1904.61
806.76	1996.77
806.94	1873.89
807.12	1910.75
807.30	1828.84
807.49	1908.71
807.67	1939.43
807.85	2105.31
808.04	1898.47
808.22	2088.93
808.40	1767.40
808.58	1832.93
808.77	1923.04
808.95	2195.42
809.13	2670.55
809.31	4433.85
809.50	6014.88
809.68	6889.37
809.86	7792.52
810.05	8464.25
810.23	9764.72
810.41	15464.21
810.59	25489.02
810.78	30129.72
810.96	35452.39
811.14	38110.65
811.32	36259.29
811.51	28337.74
811.69	23201.44
811.87	22963.87
812.05	20440.78
812.24	19181.28
812.42	17870.58
812.60	16205.58
812.78	13879.08
812.97	12148.55
813.15	10788.70
813.33	9269.11
813.51	7630.73
813.70	5930.92
813.88	4716.47
814.06	3807.17
814.24	3102.67
814.42	2566.10
814.61	2406.36
814.79	2320.35
814.97	1945.57
815.15	2035.68
815.34	1992.67
815.52	2025.44
815.70	1812.45
815.88	1845.22
816.06	1751.01
816.25	1816.55
816.43	1796.07
816.61	1998.82
816.79	1992.67
816.98	1687.53
817.16	1796.07
817.34	1724.39
817.52	1865.70
817.70	1929.19
817.89	1785.83
818.07	1695.72
818.25	1880.04
818.43	1834.98
818.61	1843.17
818.80	1708.01
818.98	1976.29
819.16	1767.40
819.34	1761.25
819.52	1972.19
819.70	1734.63
819.89	1783.78
820.07	1712.10
820.25	1699.81
820.43	1767.40
820.61	1857.51
820.80	1779.68
820.98	1720.29
821.16	1603.56
821.34	1734.63
821.52	1802.21
821.70	1861.60
821.89	1771.49
822.07	1828.84
822.25	1824.74
822.43	1728.49
822.61	1931.23
822.79	1865.70
822.98	1763.30
823.16	1673.19
823.34	1839.08
823.52	1896.42
823.70	1902.56
823.88	1693.67
824.06	1781.73
824.25	1849.32
824.43	1861.60
824.61	1742.82
824.79	1798.12
824.97	1877.99
825.15	2007.01
825.33	2566.10
825.52	3403.72
825.70	3686.34
825.88	4173.76
826.06	4368.32
826.24	4542.39
826.42	3942.34
826.60	3444.68
826.78	3502.03
826.97	3037.14
827.15	3168.21
827.33	2861.01
827.51	2891.73
827.69	2664.41
827.87	2627.54
828.05	2543.58
828.23	2299.87
828.41	2367.45
828.60	2201.57
828.78	1931.23
828.96	1957.86
829.14	1853.41
829.32	1832.93
829.50	1804.26
829.68	1767.40
829.86	1804.26
830.04	1822.69
830.22	1855.46
830.41	1742.82
830.59	1808.36
830.77	1849.32
830.95	1755.11
831.13	1771.49
831.31	1685.48
831.49	1882.08
831.67	1953.76
831.85	1898.47
832.03	1697.77
832.21	1875.94
832.39	1683.43
832.57	1693.67
832.76	1927.14
832.94	1796.07
833.12	1703.91
833.30	1724.39
833.48	1953.76
833.66	1828.84
833.84	1701.86
834.02	1818.60
834.20	1886.18
834.38	1902.56
834.56	1613.80
834.74	1693.67
834.92	1726.44
835.10	1927.14
835.28	1830.88
835.46	1689.57
835.64	1783.78
835.82	1746.92
836.01	2029.54
836.19	1970.15
836.37	1779.68
836.55	1669.09
836.73	1730.53
836.91	1611.75
837.09	1898.47
837.27	1949.67
837.45	1665.00
837.63	1744.87
837.81	1722.34
837.99	1873.89
838.17	1886.18
838.35	1785.83
838.53	2115.55
838.71	1857.51
838.89	1798.12
839.07	1816.55
839.25	1830.88
839.43	1980.39
839.61	2148.32
839.79	3725.26
839.97	4806.58
840.15	5752.74
840.33	6404.00
840.51	6862.74
840.69	6428.57
840.87	5183.41
841.05	4800.44
841.23	5300.14
841.41	6766.49
841.59	9246.58
841.77	10272.61
841.95	11272.02
842.13	11790.16
842.31	11667.28
842.49	9047.93
842.67	7772.04
842.85	7587.72
843.03	6705.05
843.21	6309.79
843.39	5851.05
843.57	5382.06
843.75	4896.69
843.93	4384.70
844.11	3866.56
844.29	3676.10
844.47	3246.03
844.65	3176.40
844.83	2701.27
845.01	2410.46
845.19	2459.61
845.36	2037.73
845.54	2123.74
845.72	2002.91
845.90	1955.81
846.08	1724.39
846.26	1859.56
846.44	1904.61
846.62	1882.08
846.80	1748.97
846.98	1728.49
847.16	1796.07
847.34	1812.45
847.52	1718.25
847.70	1732.58
847.88	1822.69
848.06	1927.14
848.24	1804.26
848.41	1681.38
848.59	1880.04
848.77	1773.54
848.95	1783.78
849.13	1783.78
849.31	1877.99
849.49	1857.51
849.67	1769.44
849.85	1701.86
850.03	1822.69
850.21	1820.64
850.39	1761.25
850.57	1869.80
850.74	1959.91
850.92	2097.12
851.10	2344.92
851.28	2889.68
851.46	3280.85
851.64	3702.73
851.82	3672.01
852.00	3717.06
852.18	3264.46
852.36	3024.85
852.53	2965.46
852.71	2848.72
852.89	2746.33
853.07	2709.46
853.25	2484.19
853.43	2418.65
853.61	2377.69
853.79	2283.49
853.97	2109.41
854.14	1978.34
854.32	2164.70
854.50	2066.40
854.68	1951.71
854.86	1869.80
855.04	1875.94
855.22	1884.13
855.40	1722.34
855.57	1738.73
855.75	1916.90
855.93	1849.32
856.11	1695.72
856.29	1673.19
856.47	1699.81
856.65	1761.25
856.82	1722.34
857.00	1656.81
857.18	1722.34
857.36	1755.11
857.54	1777.64
857.72	1851.36
857.89	1869.80
858.07	1763.30
858.25	1884.13
858.43	1683.43
858.61	1722.34
858.79	1861.60
858.97	1673.19
859.14	1769.44
859.32	1796.07
859.50	1736.68
859.68	1853.41
859.86	1738.73
860.03	1744.87
860.21	1902.56
860.39	1773.54
860.57	1794.02
860.75	1796.07
860.93	1994.72
861.10	1875.94
861.28	1755.11
861.46	1865.70
861.64	1849.32
861.82	1781.73
861.99	1882.08
862.17	1902.56
862.35	1894.37
862.53	1822.69
862.71	1865.70
862.88	1896.42
863.06	1816.55
863.24	1769.44
863.42	1751.01
863.60	1751.01
863.77	1890.28
863.95	1583.08
864.13	1816.55
864.31	1763.30
864.49	1826.79
864.66	1648.61
864.84	1771.49
865.02	1839.08
865.20	2070.50
865.37	1855.46
865.55	1781.73
865.73	1828.84
865.91	2009.06
866.09	2019.30
866.26	2041.82
866.44	2148.32
866.62	2074.59
866.80	1990.63
866.97	2000.87
867.15	1974.24
867.33	1961.95
867.51	2066.40
867.68	1914.85
867.86	1900.52
868.04	1877.99
868.22	1783.78
868.39	1826.79
868.57	1873.89
868.75	1910.75
868.93	1673.19
869.10	1802.21
869.28	1972.19
869.46	1980.39
869.64	1882.08
869.81	1898.47
869.99	1787.88
870.17	1804.26
870.35	1716.20
870.52	1697.77
870.70	1888.23
870.88	1613.80
871.05	1736.68
871.23	1634.28
871.41	1791.97
871.59	1705.96
871.76	1814.50
871.94	1681.38
872.12	1763.30
872.29	1660.90
872.47	1712.10
872.65	1673.19
872.83	1695.72
873.00	1914.85
873.18	1683.43
873.36	1771.49
873.53	1853.41
873.71	1697.77
873.89	1783.78
874.06	1791.97
874.24	1818.60
874.42	1869.80
874.60	1935.33
874.77	1763.30
874.95	1669.09
875.13	1910.75
875.30	1744.87
875.48	1712.10
875.66	1951.71
875.83	1767.40
876.01	1685.48
876.19	1931.23
876.36	1585.13
876.54	1839.08
876.72	1796.07
876.89	1890.28
877.07	1789.92
877.25	1693.67
877.42	1828.84
877.60	1839.08
877.78	1947.62
877.95	1742.82
878.13	1740.77
878.31	1849.32
878.48	1853.41
878.66	1853.41
878.84	1734.63
879.01	1779.68
879.19	1798.12
879.37	1757.16
879.54	1679.33
879.72	1626.09
879.90	1613.80
880.07	1804.26
880.25	1605.61
880.42	1837.03
880.60	1781.73
880.78	1882.08
880.95	1781.73
881.13	1763.30
881.31	1757.16
881.48	1669.09
881.66	1724.39
881.83	1826.79
882.01	1726.44
882.19	1671.14
882.36	1808.36
882.54	1751.01
882.72	1916.90
882.89	1773.54
883.07	1669.09
883.24	1746.92
883.42	1851.36
883.60	1734.63
883.77	1710.05
883.95	1734.63
884.12	1771.49
884.30	1763.30
884.48	1953.76
884.65	1718.25
884.83	1777.64
885.00	1779.68
885.18	1705.96
885.36	1755.11
885.53	1849.32
885.71	1906.66
885.88	1691.62
886.06	1710.05
886.23	1791.97
886.41	1728.49
886.59	1783.78
886.76	1742.82
886.94	1787.88
887.11	2015.20
887.29	1763.30
887.47	1718.25
887.64	1871.84
887.82	1886.18
887.99	1660.90
888.17	1826.79
888.34	1748.97
888.52	1667.05
888.69	1828.84
888.87	1681.38
889.05	1748.97
889.22	1730.53
889.40	1701.86
889.57	1824.74
889.75	1865.70
889.92	1791.97
890.10	1767.40
890.27	1775.59
890.45	1820.64
890.62	1673.19
890.80	1677.29
890.98	1703.91
891.15	1824.74
891.33	1906.66
891.50	1736.68
891.68	1644.52
891.85	1890.28
892.03	1804.26
892.20	1757.16
892.38	1613.80
892.55	1818.60
892.73	1906.66
892.90	1765.35
893.08	1751.01
893.25	1710.05
893.43	1681.38
893.60	1871.84
893.78	1560.55
893.95	1769.44
894.13	1662.95
894.30	1718.25
894.48	1834.98
894.65	1800.16
894.83	1832.93
895.00	1615.85
895.18	1570.79
895.35	1830.88
895.53	1875.94
895.70	1712.10
895.88	1814.50
896.05	1796.07
896.23	1662.95
896.40	1695.72
896.58	1769.44
896.75	1861.60
896.93	1931.23
897.10	1703.91
897.28	1705.96
897.45	1820.64
897.63	1779.68
897.80	1937.38
897.98	1783.78
898.15	1806.31
898.33	1681.38
898.50	1820.64
898.67	1800.16
898.85	1712.10
899.02	1808.36
899.20	1912.80
899.37	1781.73
899.55	1697.77
899.72	1933.28
899.90	1722.34
900.07	1746.92
900.25	1761.25
900.42	1992.67
900.59	1646.57
900.77	1859.56
900.94	1861.60
901.12	1818.60
901.29	1675.24
901.47	1880.04
901.64	1773.54
901.82	1861.60
901.99	1562.60
902.16	1710.05
902.34	1918.95
902.51	1779.68
902.69	1701.86
902.86	1777.64
903.03	2133.98
903.21	1861.60
903.38	1751.01
903.56	1746.92
903.73	1863.65
903.91	1738.73
904.08	1613.80
904.25	1687.53
904.43	1740.77
904.60	1890.28
904.78	1763.30
904.95	1744.87
905.12	1791.97
905.30	1966.05
905.47	1759.21
905.65	1818.60
905.82	1800.16
905.99	1818.60
906.17	1847.27
906.34	1714.15
906.52	1753.06
906.69	1730.53
906.86	1816.55
907.04	1787.88
907.21	1814.50
907.38	1845.22
907.56	1697.77
907.73	1710.05
907.91	2002.91
908.08	1978.34
908.25	1693.67
908.43	1742.82
908.60	1843.17
908.77	1843.17
908.95	1746.92
909.12	1730.53
909.30	1822.69
909.47	1681.38
909.64	1787.88
909.82	1931.23
909.99	1730.53
910.16	1789.92
910.34	1710.05
910.51	1779.68
910.68	1773.54
910.86	1841.12
911.03	1830.88
911.20	2201.57
911.38	3272.65
911.55	5261.23
911.72	6256.54
911.90	6934.42
912.07	7487.37
912.24	7460.75
912.42	6219.68
912.59	4487.10
912.76	4151.23
912.94	3598.28
913.11	3252.17
913.28	2981.84
913.46	2856.92
913.63	2736.09
913.80	2772.95
913.98	2482.14
914.15	2521.05
914.32	2510.81
914.49	2398.17
914.67	2252.77
914.84	2271.20
915.01	2404.32
915.19	2201.57
915.36	2099.17
915.53	2205.66
915.71	2013.15
915.88	2004.96
916.05	1765.35
916.22	1939.43
916.40	1898.47
916.57	1814.50
916.74	1877.99
916.92	1986.53
917.09	1669.09
917.26	1714.15
917.43	1703.91
917.61	1722.34
917.78	1640.42
917.95	1538.02
918.13	1644.52
918.30	2078.69
918.47	1843.17
918.64	1677.29
918.82	1787.88
918.99	1814.50
919.16	1988.58
919.33	1673.19
919.51	1718.25
919.68	1722.34
919.85	1853.41
920.02	1648.61
920.20	1716.20
920.37	1892.32
920.54	1869.80
920.71	1732.58
920.89	1769.44
921.06	1955.81
921.23	1671.14
921.40	1791.97
921.58	2107.36
921.75	2801.62
921.92	2590.68
922.09	2797.53
922.27	2785.24
922.44	2615.26
922.61	2396.12
922.78	2101.22
922.96	2043.87
923.13	2062.30
923.30	2097.12
923.47	1912.80
923.64	1988.58
923.82	1964.00
923.99	1845.22
924.16	1845.22
924.33	1900.52
924.50	1853.41
924.68	1998.82
924.85	1830.88
925.02	1777.64
925.19	1929.19
925.36	1892.32
925.54	1865.70
925.71	1890.28
925.88	2074.59
926.05	1789.92
926.22	1755.11
926.40	1771.49
926.57	1812.45
926.74	1785.83
926.91	1724.39
927.08	1894.37
927.26	1888.23
927.43	1783.78
927.60	1701.86
927.77	1824.74
927.94	1912.80
928.11	1927.14
928.29	1730.53
928.46	1748.97
928.63	1683.43
928.80	1742.82
928.97	1859.56
929.14	1705.96
929.32	1988.58
929.49	1841.12
929.66	1648.61
929.83	1656.81
930.00	1693.67
930.17	1839.08
930.35	1708.01
930.52	1755.11
930.69	1980.39
930.86	1734.63
931.03	1810.40
931.20	1540.07
931.37	1837.03
931.55	1757.16
931.72	1767.40
931.89	1669.09
932.06	1710.05
932.23	1882.08
932.40	1734.63
932.57	1812.45
932.74	1847.27
932.92	1873.89
933.09	1867.75
933.26	1513.45
933.43	1742.82
933.60	1824.74
933.77	1712.10
933.94	1884.13
934.11	1830.88
934.29	1816.55
934.46	1650.66
934.63	1818.60
934.80	1646.57
934.97	1828.84
935.14	1802.21
935.31	1665.00
935.48	1705.96
935.65	1892.32
935.82	1849.32
936.00	1742.82
936.17	1959.91
936.34	1744.87
936.51	1820.64
936.68	1605.61
936.85	1800.16
937.02	1802.21
937.19	1816.55
937.36	1738.73
937.53	1802.21
937.70	1912.80
937.87	1814.50
938.05	1826.79
938.22	1820.64
938.39	1689.57
938.56	1783.78
938.73	1691.62
938.90	1720.29
939.07	1728.49
939.24	1767.40
939.41	1615.85
939.58	1849.32
939.75	1898.47
939.92	1718.25
940.09	1765.35
940.26	1744.87
940.43	1826.79
940.60	1695.72
940.77	1759.21
940.95	1828.84
941.12	1830.88
941.29	1816.55
941.46	1808.36
941.63	1886.18
941.80	1853.41
941.97	1701.86
942.14	1718.25
942.31	1800.16
942.48	1738.73
942.65	1824.74
942.82	1775.59
942.99	1839.08
943.16	1748.97
943.33	1730.53
943.50	1763.30
943.67	1808.36
943.84	1941.47
944.01	1708.01
944.18	1650.66
944.35	1959.91
944.52	1597.42
944.69	1726.44
944.86	1644.52
945.03	1820.64
945.20	1945.57
945.37	1654.76
945.54	1763.30
945.71	1880.04
945.88	1941.47
946.05	1665.00
946.22	1689.57
946.39	1837.03
946.56	1769.44
946.73	1753.06
946.90	1681.38
947.07	1787.88
947.24	1738.73
947.41	1628.14
947.58	1898.47
947.75	1837.03
947.92	1787.88
948.09	1615.85
948.26	1587.18
948.43	1771.49
948.60	1896.42
948.77	1679.33
948.94	1802.21
949.11	1824.74
949.27	1900.52
949.44	1646.57
949.61	1808.36
949.78	1828.84
949.95	1877.99
950.12	1677.29
950.29	1652.71
950.46	1755.11
950.63	1834.98
950.80	1755.11
950.97	1800.16
951.14	1804.26
951.31	1718.25
951.48	1699.81
951.65	1710.05
951.82	1939.43
951.99	1783.78
952.15	1681.38
952.32	1755.11
952.49	1705.96
952.66	1759.21
952.83	1722.34
953.00	1730.53
953.17	1767.40
953.34	1847.27
953.51	1693.67
953.68	1755.11
953.85	1787.88
954.02	1755.11
954.18	1708.01
954.35	1789.92
954.52	1673.19
954.69	1810.40
954.86	1636.33
955.03	1685.48
955.20	1912.80
955.37	1773.54
955.54	1685.48
955.71	1761.25
955.87	1800.16
956.04	1898.47
956.21	1736.68
956.38	1671.14
956.55	1734.63
956.72	2045.92
956.89	1767.40
957.06	1775.59
957.23	1644.52
957.39	1869.80
957.56	1755.11
957.73	1703.91
957.90	1581.03
958.07	1927.14
958.24	1720.29
958.41	1697.77
958.57	1824.74
958.74	1746.92
958.91	1779.68
959.08	1714.15
959.25	1869.80
959.42	1740.77
959.59	1808.36
959.75	1759.21
959.92	1855.46
960.09	1808.36
960.26	1730.53
960.43	1834.98
960.60	1861.60
960.76	1689.57
960.93	1671.14
961.10	1773.54
961.27	1810.40
961.44	1734.63
961.61	1720.29
961.77	1794.02
961.94	1781.73
962.11	1830.88
962.28	1708.01
962.45	1685.48
962.62	1742.82
962.78	1810.40
962.95	1718.25
963.12	1724.39
963.29	1837.03
963.46	1980.39
963.62	1785.83
963.79	1681.38
963.96	2062.30
964.13	1732.58
964.30	1812.45
964.46	1746.92
964.63	1677.29
964.80	2004.96
964.97	1742.82
965.14	2054.11
965.30	2185.18
965.47	2129.89
965.64	2142.18
965.81	2123.74
965.98	2148.32
966.14	2019.30
966.31	1929.19
966.48	1820.64
966.65	2078.69
966.81	1980.39
966.98	1779.68
967.15	1914.85
967.32	1939.43
967.49	1736.68
967.65	1681.38
967.82	1730.53
967.99	1771.49
968.16	1726.44
968.32	1857.51
968.49	1880.04
968.66	1830.88
968.83	1986.53
968.99	1791.97
969.16	1656.81
969.33	2013.15
969.50	1910.75
969.66	1853.41
969.83	1961.95
970.00	1789.92
970.17	1830.88
970.33	1744.87
970.50	1660.90
970.67	1935.33
970.84	1812.45
971.00	1746.92
971.17	1724.39
971.34	1796.07
971.50	1800.16
971.67	1886.18
971.84	1812.45
972.01	1658.85
972.17	1611.75
972.34	1757.16
972.51	1765.35
972.67	1804.26
972.84	1818.60
973.01	1671.14
973.18	1679.33
973.34	1820.64
973.51	1740.77
973.68	1705.96
973.84	1738.73
974.01	1820.64
974.18	1920.99
974.34	1804.26
974.51	1783.78
974.68	1742.82
974.85	1943.52
975.01	1847.27
975.18	1791.97
975.35	1718.25
975.51	1726.44
975.68	1609.70
975.85	1933.28
976.01	1595.37
976.18	1914.85
976.35	1779.68
976.51	1703.91
976.68	1871.84
976.85	1900.52
977.01	1841.12
977.18	1759.21
977.35	1898.47
977.51	1740.77
977.68	1587.18
977.85	1644.52
978.01	1886.18
978.18	1927.14
978.35	1837.03
978.51	1804.26
978.68	1927.14
978.85	1908.71
979.01	1699.81
979.18	1800.16
979.34	1742.82
979.51	1787.88
979.68	1624.04
979.84	1820.64
980.01	2123.74
980.18	1800.16
980.34	1730.53
980.51	1802.21
980.67	1763.30
980.84	1837.03
981.01	1783.78
981.17	1808.36
981.34	1646.57
981.51	1880.04
981.67	1621.99
981.84	1882.08
982.00	1853.41
982.17	1744.87
982.34	1626.09
982.50	1560.55
982.67	1890.28
982.83	1763.30
983.00	1650.66
983.17	1566.70
983.33	1886.18
983.50	1640.42
983.66	1656.81
983.83	1581.03
984.00	1787.88
984.16	1779.68
984.33	1619.94
984.49	1562.60
984.66	1628.14
984.83	1832.93
984.99	1665.00
985.16	1591.27
985.32	1816.55
985.49	1777.64
985.65	1683.43
985.82	1583.08
985.99	1941.47
986.15	1746.92
986.32	1689.57
986.48	1632.23
986.65	1763.30
986.81	1830.88
986.98	1689.57
987.14	1691.62
987.31	1796.07
987.48	1617.90
987.64	1464.30
987.81	1650.66
987.97	1955.81
988.14	1705.96
988.30	1636.33
988.47	1578.98
988.63	1746.92
988.80	1701.86
988.96	1677.29
989.13	1720.29
989.30	1759.21
989.46	1839.08
989.63	1636.33
989.79	1609.70
989.96	1738.73
990.12	1953.76
990.29	1662.95
990.45	1613.80
990.62	1800.16
990.78	1818.60
990.95	1712.10
991.11	1564.65
991.28	1710.05
991.44	1822.69
991.61	1624.04
991.77	1652.71
991.94	1847.27
992.10	1890.28
992.27	1703.91
992.43	1650.66
992.60	1810.40
992.76	1703.91
992.93	1779.68
993.09	1662.95
993.26	1814.50
993.42	1943.52
993.59	1677.29
993.75	1542.12
993.92	1638.38
994.08	1677.29
994.25	1718.25
994.41	1603.56
994.58	1890.28
994.74	1873.89
994.91	1693.67
995.07	1621.99
995.24	1705.96
995.40	1771.49
995.56	1718.25
995.73	1701.86
995.89	1882.08
996.06	1746.92
996.22	1638.38
996.39	1556.46
996.55	1638.38
996.72	1726.44
996.88	1538.02
997.05	1585.13
997.21	1996.77
997.37	1822.69
997.54	1714.15
997.70	1609.70
997.87	1755.11
998.03	1697.77
998.20	1576.94
998.36	1652.71
998.52	1814.50
998.69	1865.70
998.85	1544.17
999.02	1605.61
999.18	1880.04
999.35	1857.51
999.51	1632.23
999.67	1689.57
999.84	1673.19
1000.00	1929.19
1000.17	1681.38
1000.33	1583.08
1000.49	1718.25
1000.66	1748.97
1000.82	1615.85
1000.99	1734.63
1001.15	1867.75
1001.31	1806.31
1001.48	1603.56
1001.64	1730.53
1001.81	1808.36
1001.97	1935.33
1002.13	1566.70
1002.30	1640.42
1002.46	1906.66
1002.63	1646.57
1002.79	1679.33
1002.95	1656.81
1003.12	1916.90
1003.28	1873.89
1003.45	1601.51
1003.61	1613.80
1003.77	1761.25
1003.94	1628.14
1004.10	1669.09
1004.26	1603.56
1004.43	1818.60
1004.59	1953.76
1004.75	1650.66
1004.92	1624.04
1005.08	1722.34
1005.25	1769.44
1005.41	1619.94
1005.57	1828.84
1005.74	1855.46
1005.90	1742.82
1006.06	1759.21
1006.23	1638.38
1006.39	1816.55
1006.55	2031.58
1006.72	1824.74
1006.88	1603.56
1007.04	1662.95
1007.21	1742.82
1007.37	1689.57
1007.53	1619.94
1007.70	1947.62
1007.86	1855.46
1008.02	1736.68
1008.19	1593.32
1008.35	1761.25
1008.51	1636.33
1008.68	1644.52
1008.84	1513.45
1009.00	1656.81
1009.17	1902.56
1009.33	1730.53
1009.49	1642.47
1009.65	1742.82
1009.82	1746.92
1009.98	1724.39
1010.14	1542.12
1010.31	1818.60
1010.47	1767.40
1010.63	1738.73
1010.80	1718.25
1010.96	1789.92
1011.12	1732.58
1011.28	1656.81
1011.45	1695.72
1011.61	1972.19
1011.77	1685.48
1011.94	1632.23
1012.10	1597.42
1012.26	1665.00
1012.42	1722.34
1012.59	1718.25
1012.75	1650.66
1012.91	1701.86
1013.07	1834.98
1013.24	1576.94
1013.40	1617.90
1013.56	1796.07
1013.72	1771.49
1013.89	1697.77
1014.05	1673.19
1014.21	2000.87
1014.37	1976.29
1014.54	1681.38
1014.70	1599.46
1014.86	1763.30
1015.02	1589.22
1015.19	1578.98
1015.35	1589.22
1015.51	1697.77
1015.67	1736.68
1015.84	1648.61
1016.00	1603.56
1016.16	1873.89
1016.32	1900.52
1016.49	1619.94
1016.65	1558.50
1016.81	1687.53
1016.97	1890.28
1017.14	1693.67
1017.30	1603.56
1017.46	1751.01
1017.62	1765.35
1017.78	1675.24
1017.95	1572.84
1018.11	1898.47
1018.27	1951.71
1018.43	1775.59
1018.59	1656.81
1018.76	1855.46
1018.92	1951.71
1019.08	1632.23
1019.24	1626.09
1019.40	1894.37
1019.57	1806.31
1019.73	1689.57
1019.89	1689.57
1020.05	1763.30
1020.21	1976.29
1020.38	1624.04
1020.54	1718.25
1020.70	1798.12
1020.86	1857.51
1021.02	1634.28
1021.18	1538.02
1021.35	1718.25
1021.51	1744.87
1021.67	1751.01
1021.83	1665.00
1021.99	1693.67
1022.15	1808.36
1022.32	1718.25
1022.48	1654.76
1022.64	1968.10
1022.80	1939.43
1022.96	1695.72
1023.12	1585.13
1023.29	1966.05
1023.45	1837.03
1023.61	1576.94
1023.77	1734.63
1023.93	1751.01
1024.09	1726.44
1024.25	1605.61
1024.42	1566.70
1024.58	1699.81
1024.74	1802.21
1024.90	1695.72
1025.06	1791.97
1025.22	1648.61
1025.38	1902.56
1025.54	1535.98
1025.71	1720.29
1025.87	1771.49
1026.03	1882.08
1026.19	1642.47
1026.35	1775.59
1026.51	1785.83
1026.67	1773.54
1026.83	1599.46
1026.99	1673.19
1027.16	1906.66
1027.32	1837.03
1027.48	1652.71
1027.64	1611.75
1027.80	1832.93
1027.96	1816.55
1028.12	1654.76
1028.28	1671.14
1028.44	1722.34
1028.60	1875.94
1028.77	1607.66
1028.93	1689.57
1029.09	1683.43
1029.25	1665.00
1029.41	1703.91
1029.57	1738.73
1029.73	1787.88
1029.89	1890.28
1030.05	1742.82
1030.21	1695.72
1030.37	1974.24
1030.53	1818.60
1030.69	1660.90
1030.85	1650.66
1031.02	1574.89
1031.18	1703.91
1031.34	1744.87
1031.50	1746.92
1031.66	1656.81
1031.82	1841.12
1031.98	1771.49
1032.14	1710.05
1032.30	1708.01
1032.46	1869.80
1032.62	1763.30
1032.78	1681.38
1032.94	1716.20
1033.10	1736.68
1033.26	1681.38
1033.42	1759.21
1033.58	1982.43
1033.74	1787.88
1033.90	1656.81
1034.06	1853.41
1034.22	1980.39
1034.38	1853.41
1034.54	1601.51
1034.70	1705.96
1034.86	1857.51
>>>>>End Processed Spectral Data<<<<<
