SpectraSuite Data File
++++++++++++++++++++++++++++++++++++
Date: Thu Mar 30 16:05:06 PDT 2017
User: UCSD _CER
Dark Spectrum Present: No
Reference Spectrum Present: No
Number of Sampled Component Spectra: 1
Spectrometers: USB4C00073
Integration Time (usec): 250000 (USB4C00073)
Spectra Averaged: 10 (USB4C00073)
Boxcar Smoothing: 0 (USB4C00073)
Correct for Electrical Dark: No (USB4C00073)
Strobe/Lamp Enabled: No (USB4C00073)
Correct for Detector Non-linearity: No (USB4C00073)
Correct for Stray Light: No (USB4C00073)
Number of Pixels in Processed Spectrum: 3648
>>>>>Begin Processed Spectral Data<<<<<
345.37	1271.99
345.58	1271.99
345.80	1271.99
346.01	1280.59
346.22	1280.39
346.43	1988.17
346.65	1806.72
346.86	2112.07
347.07	2087.70
347.28	1810.61
347.50	1799.35
347.71	1926.32
347.92	1729.92
348.13	1803.03
348.35	1716.20
348.56	1922.63
348.77	1774.16
348.98	1820.03
349.20	1669.50
349.41	1904.41
349.62	1979.57
349.83	1854.03
350.05	1725.21
350.26	1961.95
350.47	2081.35
350.68	1782.14
350.90	1711.69
351.11	2097.12
351.32	2071.93
351.53	1815.73
351.75	1711.69
351.96	1919.56
352.17	1892.73
352.38	1850.54
352.60	1883.52
352.81	1917.92
353.02	2104.70
353.23	1760.23
353.44	1804.47
353.66	1845.63
353.87	1874.92
354.08	1877.17
354.29	1808.97
354.51	1843.99
354.72	1914.03
354.93	1799.14
355.14	1746.71
355.35	1763.10
355.57	2055.96
355.78	1802.83
355.99	1879.22
356.20	1982.02
356.42	1909.53
356.63	1922.43
356.84	1808.56
357.05	2034.04
357.26	2200.75
357.48	1883.72
357.69	1837.44
357.90	1947.00
358.11	1864.68
358.32	1821.26
358.54	1837.64
358.75	1851.16
358.96	1995.75
359.17	1779.07
359.38	1786.44
359.60	1998.41
359.81	1890.68
360.02	1823.72
360.23	1793.00
360.44	1866.11
360.66	2033.43
360.87	1755.72
361.08	1745.69
361.29	1942.09
361.50	1914.44
361.72	1776.00
361.93	1836.82
362.14	1924.89
362.35	1727.05
362.56	1885.56
362.77	1721.93
362.99	2002.09
363.20	1924.27
363.41	1868.16
363.62	1732.79
363.83	1976.09
364.05	2022.78
364.26	1705.55
364.47	1758.59
364.68	2046.94
364.89	1829.86
365.10	1726.85
365.32	1816.96
365.53	1816.55
365.74	1854.85
365.95	1801.60
366.16	1693.67
366.37	1913.21
366.59	1875.94
366.80	1787.88
367.01	1677.70
367.22	2160.81
367.43	2269.35
367.64	1800.98
367.86	1807.95
368.07	1981.82
368.28	2068.04
368.49	1736.06
368.70	1846.04
368.91	1883.52
369.12	1886.59
369.34	1733.61
369.55	1740.36
369.76	1885.77
369.97	1851.98
370.18	1732.58
370.39	1735.65
370.60	1722.14
370.82	1786.85
371.03	1799.35
371.24	1751.83
371.45	1998.20
371.66	1981.00
371.87	1797.09
372.08	1758.59
372.30	1785.21
372.51	2021.75
372.72	1880.44
372.93	1763.71
373.14	2093.23
373.35	1795.25
373.56	1747.53
373.78	1789.31
373.99	1985.51
374.20	2274.47
374.41	1811.63
374.62	1821.05
374.83	2098.76
375.04	1876.14
375.25	1798.94
375.47	1764.73
375.68	1856.89
375.89	2004.35
376.10	1815.73
376.31	1872.05
376.52	1954.17
376.73	1969.53
376.94	1811.02
377.15	1783.37
377.37	1905.02
377.58	1884.13
377.79	1677.08
378.00	1728.69
378.21	1923.45
378.42	1983.66
378.63	1801.60
378.84	1860.17
379.05	2048.99
379.27	1920.99
379.48	1950.08
379.69	1746.71
379.90	2039.16
380.11	1698.59
380.32	1807.13
380.53	1898.47
380.74	2099.78
380.95	1924.27
381.16	1787.06
381.37	1789.31
381.59	2087.29
381.80	1998.00
382.01	1748.76
382.22	1692.24
382.43	1979.77
382.64	1924.89
382.85	1747.74
383.06	1855.66
383.27	1995.95
383.48	1874.51
383.69	1831.50
383.91	1753.47
384.12	1960.93
384.33	1967.89
384.54	1789.92
384.75	1683.84
384.96	2275.09
385.17	1979.98
385.38	1753.68
385.59	1756.75
385.80	1984.28
386.01	2093.23
386.22	1890.07
386.43	1833.14
386.64	2159.79
386.86	1878.40
387.07	1908.09
387.28	1718.25
387.49	1836.82
387.70	2076.03
387.91	1873.89
388.12	1754.49
388.33	1955.40
388.54	1806.31
388.75	1778.25
388.96	1826.38
389.17	1828.22
389.38	1866.93
389.59	1882.08
389.80	1859.56
390.01	1896.83
390.22	1849.52
390.43	1905.63
390.64	1667.66
390.86	1952.94
391.07	2031.18
391.28	1805.08
391.49	1864.88
391.70	1755.52
391.91	1835.39
392.12	1804.67
392.33	1794.64
392.54	1911.78
392.75	1833.55
392.96	1891.50
393.17	1734.63
393.38	2208.94
393.59	2062.51
393.80	1762.69
394.01	1874.51
394.22	2014.18
394.43	2282.26
394.64	1866.52
394.85	2017.45
395.06	1979.36
395.27	1987.55
395.48	1856.28
395.69	1731.76
395.90	1888.23
396.11	1903.38
396.32	1753.27
396.53	1870.61
396.74	1856.48
396.95	2012.74
397.16	1778.46
397.37	1697.15
397.58	2011.11
397.79	1900.11
398.00	1845.02
398.21	1801.80
398.42	1938.61
398.63	2184.77
398.84	1802.62
399.05	1776.00
399.26	2062.10
399.47	1962.36
399.68	1638.78
399.89	1754.49
400.10	1747.53
400.31	1871.84
400.52	1830.68
400.73	1765.76
400.94	1739.54
401.15	1918.13
401.36	1788.08
401.57	1837.03
401.78	2028.92
401.99	2029.54
402.20	1702.89
402.41	1924.07
402.62	2084.42
402.83	1872.46
403.04	1747.94
403.25	1954.58
403.46	1991.04
403.67	2170.64
403.88	1938.40
404.09	1931.03
404.30	2013.56
404.51	1976.70
404.72	1839.08
404.93	1992.67
405.14	1865.29
405.35	1897.65
405.56	1810.40
405.77	1801.80
405.98	1911.98
406.19	1888.64
406.40	1731.35
406.61	1773.75
406.82	1815.73
407.03	2208.53
407.24	1702.68
407.45	1805.49
407.66	1941.47
407.87	1978.95
408.08	1843.99
408.29	1866.93
408.49	1943.93
408.70	1901.54
408.91	1808.97
409.12	1904.00
409.33	1791.56
409.54	2088.52
409.75	1762.28
409.96	1786.24
410.17	2011.92
410.38	1870.82
410.59	1789.52
410.80	1885.16
411.01	1870.61
411.22	1881.47
411.43	1856.48
411.64	1732.99
411.85	1816.96
412.06	1784.19
412.27	1627.73
412.47	1792.38
412.68	1882.90
412.89	1955.61
413.10	1784.60
413.31	1691.42
413.52	2129.27
413.73	2145.66
413.94	1764.73
414.15	1905.63
414.36	1854.03
414.57	1843.38
414.78	1812.04
414.99	2239.66
415.19	2743.66
415.40	2854.66
415.61	3035.09
415.82	2872.69
416.03	2755.34
416.24	2515.32
416.45	2214.47
416.66	2009.88
416.87	1842.76
417.08	2089.54
417.29	1846.65
417.50	1981.41
417.70	2138.08
417.91	2150.98
418.12	2113.50
418.33	2198.49
418.54	2361.10
418.75	2508.56
418.96	2617.30
419.17	2865.93
419.38	3391.23
419.59	3488.51
419.79	3324.06
420.00	3170.05
420.21	3198.31
420.42	2500.77
420.63	2150.57
420.84	2080.33
421.05	1983.66
421.26	1962.16
421.47	1729.30
421.67	2058.82
421.88	1782.14
422.09	1729.51
422.30	1950.08
422.51	1846.65
422.72	2108.18
422.93	1993.49
423.14	1821.26
423.35	1677.08
423.55	1708.21
423.76	1814.09
423.97	1847.06
424.18	1701.25
424.39	1915.06
424.60	2083.81
424.81	1910.55
425.02	2085.24
425.22	2189.48
425.43	2196.04
425.64	2402.88
425.85	2402.88
426.06	2673.21
426.27	2540.10
426.48	2548.08
426.68	2532.93
426.89	2618.53
427.10	2682.02
427.31	2208.53
427.52	1959.91
427.73	2114.94
427.94	2043.67
428.14	1920.18
428.35	1815.52
428.56	2088.93
428.77	2016.23
428.98	1915.47
429.19	2069.06
429.40	2179.24
429.60	2254.61
429.81	2292.09
430.02	2188.87
430.23	2136.44
430.44	2158.15
430.65	1897.44
430.85	1894.78
431.06	1999.02
431.27	1719.68
431.48	1806.31
431.69	1856.28
431.90	1915.67
432.10	1909.12
432.31	1890.07
432.52	1936.56
432.73	2571.43
432.94	2531.08
433.15	2419.68
433.35	2294.54
433.56	2432.58
433.77	2205.46
433.98	2140.33
434.19	2028.72
434.40	2088.52
434.60	2015.61
434.81	1879.63
435.02	1894.99
435.23	1943.93
435.44	1872.66
435.64	1722.34
435.85	1748.35
436.06	1889.05
436.27	1842.76
436.48	1730.94
436.68	1780.71
436.89	2104.90
437.10	1977.31
437.31	1800.16
437.52	1900.92
437.73	1917.92
437.93	1910.14
438.14	1877.58
438.35	1691.83
438.56	1839.08
438.77	1880.65
438.97	1934.10
439.18	1759.00
439.39	2018.48
439.60	1755.11
439.80	1706.16
440.01	1828.22
440.22	1845.02
440.43	1976.70
440.64	1706.98
440.84	1848.91
441.05	1750.19
441.26	2264.85
441.47	1832.11
441.68	1767.19
441.88	1871.84
442.09	1864.47
442.30	1964.21
442.51	1843.17
442.71	1843.58
442.92	1942.70
443.13	1755.11
443.34	1733.40
443.55	1779.07
443.75	1979.98
443.96	1776.82
444.17	1740.77
444.38	2037.32
444.58	1805.49
444.79	1858.53
445.00	1828.63
445.21	1875.12
445.41	1863.65
445.62	1621.38
445.83	1888.43
446.04	1901.74
446.24	1756.54
446.45	1638.58
446.66	1778.25
446.87	1953.97
447.07	1838.05
447.28	1994.31
447.49	1815.32
447.70	1997.79
447.90	2049.20
448.11	1810.61
448.32	1883.11
448.53	2042.44
448.73	2095.07
448.94	1784.40
449.15	1883.31
449.36	1904.00
449.56	1956.01
449.77	1774.56
449.98	1726.23
450.19	1916.90
450.39	1987.35
450.60	2046.13
450.81	1994.11
451.02	2064.35
451.22	2199.11
451.43	1861.40
451.64	1891.91
451.84	1964.21
452.05	2150.57
452.26	1926.32
452.47	1847.47
452.67	1888.23
452.88	2095.28
453.09	1761.05
453.30	1721.73
453.50	2010.70
453.71	2093.43
453.92	1815.73
454.12	1890.48
454.33	1798.32
454.54	1860.17
454.75	1773.75
454.95	1731.15
455.16	1943.93
455.37	1978.75
455.57	1815.32
455.78	1818.60
455.99	1894.58
456.19	1912.19
456.40	1764.73
456.61	1863.86
456.82	1899.29
457.02	1982.43
457.23	1863.86
457.44	1973.63
457.64	1860.58
457.85	1948.44
458.06	1865.90
458.26	1980.18
458.47	1903.59
458.68	2080.74
458.89	1802.01
459.09	1986.94
459.30	2255.02
459.51	1968.30
459.71	1753.47
459.92	1821.05
460.13	1993.49
460.33	2196.04
460.54	1791.56
460.75	1815.52
460.95	1771.70
461.16	1964.00
461.37	1797.30
461.57	1851.57
461.78	1935.94
461.99	1807.33
462.19	2057.18
462.40	1850.34
462.61	2416.81
462.81	2050.63
463.02	1794.64
463.23	1805.28
463.43	2028.72
463.64	1869.18
463.85	2747.35
464.05	1820.64
464.26	2341.24
464.47	2129.68
464.67	2004.96
464.88	1898.06
465.09	1828.63
465.29	1909.53
465.50	1947.00
465.71	1847.68
465.91	1830.68
466.12	1901.95
466.33	1864.47
466.53	1782.35
466.74	2079.30
466.94	1869.80
467.15	1833.14
467.36	1994.93
467.56	1810.40
467.77	1937.17
467.98	1877.37
468.18	1789.72
468.39	1859.15
468.60	2180.47
468.80	1842.76
469.01	1796.07
469.21	1983.25
469.42	2076.23
469.63	1904.00
469.83	1833.55
470.04	2097.12
470.25	2195.83
470.45	1958.88
470.66	1843.58
470.86	1987.55
471.07	1900.51
471.28	1924.07
471.48	1984.69
471.69	1945.78
471.90	2374.41
472.10	1821.46
472.31	1831.91
472.51	1867.13
472.72	1820.64
472.93	1764.73
473.13	1925.50
473.34	1922.84
473.54	1886.38
473.75	1865.29
473.96	2025.24
474.16	1900.11
474.37	2018.07
474.57	1929.19
474.78	1868.16
474.99	2022.37
475.19	2007.01
475.40	1837.23
475.60	1756.34
475.81	2077.87
476.02	1920.59
476.22	1950.90
476.43	2050.22
476.63	1977.11
476.84	2174.94
477.05	1763.71
477.25	1807.74
477.46	2305.60
477.66	1944.96
477.87	1722.96
478.08	1830.47
478.28	2036.50
478.49	1895.80
478.69	1773.34
478.90	1825.35
479.10	1996.97
479.31	2137.06
479.52	1897.65
479.72	1942.29
479.93	2016.43
480.13	1875.94
480.34	1810.40
480.54	1896.83
480.75	1831.70
480.96	2083.60
481.16	1797.50
481.37	1923.66
481.57	2010.49
481.78	1974.65
481.98	2006.60
482.19	1882.90
482.40	2168.18
482.60	2010.08
482.81	1981.00
483.01	1873.69
483.22	2107.97
483.42	2090.36
483.63	1997.18
483.83	1921.61
484.04	1861.60
484.24	2023.39
484.45	1904.00
484.66	1747.94
484.86	1962.36
485.07	1830.47
485.27	1894.78
485.48	1828.22
485.68	2079.71
485.89	1834.98
486.09	1927.14
486.30	1816.14
486.50	1951.10
486.71	1979.36
486.91	2008.85
487.12	2070.29
487.33	2332.84
487.53	2314.41
487.74	2027.49
487.94	2021.75
488.15	2155.49
488.35	2221.02
488.56	2119.03
488.76	2091.80
488.97	2104.08
489.17	2133.57
489.38	1955.20
489.58	1934.10
489.79	2019.09
489.99	2014.18
490.20	1897.44
490.40	1964.62
490.61	2017.66
490.81	1892.12
491.02	1879.01
491.22	1942.70
491.43	2037.52
491.63	1919.15
491.84	2026.87
492.04	1752.04
492.25	2025.03
492.45	1896.83
492.66	1855.66
492.86	1710.05
493.07	1899.08
493.27	2199.93
493.48	1730.12
493.68	1875.12
493.89	1891.30
494.09	2000.25
494.30	1825.56
494.50	2089.34
494.71	2045.10
494.91	1854.23
495.12	1952.33
495.32	2041.82
495.53	2031.99
495.73	1826.17
495.94	1878.81
496.14	1729.30
496.35	2195.63
496.55	1919.36
496.76	1843.58
496.96	1894.17
497.17	1941.88
497.37	2011.72
497.58	1817.37
497.78	1805.69
497.98	1914.44
498.19	1945.57
498.39	1927.14
498.60	1968.51
498.80	1769.44
499.01	2048.79
499.21	1800.37
499.42	1883.11
499.62	1875.53
499.83	2223.07
500.03	1750.81
500.24	1922.02
500.44	2114.12
500.64	2040.60
500.85	1828.63
501.05	1991.44
501.26	1755.11
501.46	2078.69
501.67	1801.60
501.87	1747.12
502.08	1817.98
502.28	1919.77
502.48	1978.34
502.69	2032.81
502.89	1802.62
503.10	1911.57
503.30	1951.51
503.51	1898.26
503.71	1785.01
503.92	2018.27
504.12	1991.85
504.32	1967.89
504.53	2164.91
504.73	2188.46
504.94	2162.65
505.14	2246.83
505.35	2294.54
505.55	2274.88
505.75	2205.25
505.96	2262.19
506.16	2378.92
506.37	2022.98
506.57	1927.96
506.78	2031.79
506.98	2157.54
507.18	1919.97
507.39	1852.39
507.59	1960.93
507.80	1913.42
508.00	2017.25
508.20	2088.52
508.41	1959.09
508.61	2121.49
508.82	2070.29
509.02	1989.19
509.22	1824.33
509.43	1788.90
509.63	1856.48
509.84	1870.82
510.04	1773.13
510.24	2151.60
510.45	2020.94
510.65	1769.85
510.86	1918.95
511.06	1829.86
511.26	2083.19
511.47	2025.85
511.67	1890.89
511.88	2044.08
512.08	2091.18
512.28	1795.25
512.49	1955.61
512.69	1949.26
512.90	1969.33
513.10	1881.47
513.30	1923.45
513.51	1997.38
513.71	2164.91
513.91	1932.05
514.12	1937.38
514.32	2111.25
514.53	2012.13
514.73	2107.36
514.93	2054.93
515.14	2197.68
515.34	2451.21
515.54	2290.45
515.75	2374.21
515.95	2550.95
516.15	2558.53
516.36	2244.98
516.56	2159.58
516.77	1861.40
516.97	2141.36
517.17	1981.61
517.38	2087.70
517.58	2233.51
517.78	2130.91
517.99	2323.01
518.19	2428.28
518.39	2700.66
518.60	2493.20
518.80	2338.78
519.00	2279.39
519.21	2143.20
519.41	2281.64
519.61	1966.25
519.82	2036.70
520.02	2026.47
520.22	2022.78
520.43	1984.28
520.63	1990.83
520.83	1980.59
521.04	1908.91
521.24	2234.74
521.44	2294.13
521.65	2382.61
521.85	2630.62
522.05	2352.71
522.26	2202.18
522.46	2422.13
522.66	2208.32
522.87	1984.89
523.07	2141.56
523.27	1981.00
523.48	2228.60
523.68	2038.75
523.88	2032.61
524.09	2171.87
524.29	2121.70
524.49	1943.52
524.70	2287.79
524.90	2447.94
525.10	2343.49
525.31	2052.06
525.51	1964.00
525.71	2147.30
525.91	2069.47
526.12	1894.99
526.32	1798.32
526.52	1884.75
526.73	1881.47
526.93	1951.30
527.13	1770.47
527.34	1942.70
527.54	1962.36
527.74	1919.56
527.94	1855.87
528.15	1870.41
528.35	2002.50
528.55	2020.73
528.76	1958.88
528.96	1771.90
529.16	2075.62
529.36	2015.00
529.57	1784.60
529.77	2098.14
529.97	1791.15
530.18	1961.54
530.38	1872.66
530.58	2016.02
530.78	1978.95
530.99	1848.29
531.19	1976.90
531.39	1875.12
531.60	1973.63
531.80	1875.53
532.00	2051.86
532.20	1947.00
532.41	1868.36
532.61	1863.45
532.81	1884.13
533.01	1888.02
533.22	1983.66
533.42	1970.15
533.62	1720.29
533.82	2093.23
534.03	1908.30
534.23	1966.87
534.43	1830.06
534.63	1869.59
534.84	1946.39
535.04	1914.03
535.24	1892.73
535.44	2300.48
535.65	1850.34
535.85	1820.23
536.05	1804.87
536.25	1909.94
536.46	1851.57
536.66	2107.56
536.86	2003.53
537.06	2109.41
537.27	2187.03
537.47	2019.09
537.67	1896.42
537.87	2118.21
538.08	1922.43
538.28	1838.87
538.48	1848.50
538.68	1961.54
538.88	2070.70
539.09	1820.44
539.29	1935.74
539.49	2084.63
539.69	1960.11
539.90	1954.38
540.10	1841.33
540.30	2161.22
540.50	1948.85
540.70	1869.59
540.91	2006.60
541.11	2170.44
541.31	2346.56
541.51	2191.94
541.72	2196.86
541.92	2300.69
542.12	2117.60
542.32	2018.48
542.52	1970.76
542.73	1950.08
542.93	2077.66
543.13	1940.66
543.33	2058.82
543.53	2197.88
543.74	2236.79
543.94	2043.87
544.14	2256.86
544.34	2427.66
544.54	2307.04
544.75	2473.54
544.95	2627.13
545.15	2495.65
545.35	2490.13
545.55	2305.60
545.75	2121.90
545.96	2384.04
546.16	1999.84
546.36	2017.45
546.56	2043.26
546.76	2188.25
546.97	2225.32
547.17	1974.24
547.37	2003.73
547.57	1888.64
547.77	2048.17
547.97	1980.80
548.18	1979.16
548.38	2046.94
548.58	2579.42
548.78	2649.66
548.98	3041.23
549.18	3409.66
549.39	3606.68
549.59	3213.67
549.79	2867.98
549.99	2935.76
550.19	2731.79
550.39	2557.09
550.60	2324.44
550.80	2302.74
551.00	2291.88
551.20	2057.80
551.40	1991.65
551.60	2080.12
551.80	2045.92
552.01	2122.72
552.21	2028.72
552.41	2055.34
552.61	2257.68
552.81	2003.32
553.01	1859.76
553.21	2048.79
553.42	1877.78
553.62	1878.60
553.82	1863.24
554.02	2167.98
554.22	2043.46
554.42	1813.68
554.62	1982.64
554.83	2380.35
555.03	2675.47
555.23	2667.48
555.43	3076.05
555.63	3052.29
555.83	2893.78
556.03	2566.72
556.23	2345.54
556.44	2522.89
556.64	2624.27
556.84	2190.71
557.04	2376.05
557.24	2423.98
557.44	2282.67
557.64	2156.92
557.84	2011.11
558.04	2030.36
558.25	2149.34
558.45	1944.14
558.65	2049.81
558.85	2100.19
559.05	1870.21
559.25	2060.87
559.45	2210.58
559.65	2611.16
559.85	3152.44
560.05	2656.83
560.26	2752.88
560.46	2801.83
560.66	2546.44
560.86	2375.03
561.06	2222.66
561.26	2439.54
561.46	2270.99
561.66	2093.64
561.86	2178.22
562.06	2029.54
562.26	2033.02
562.47	2010.70
562.67	1873.89
562.87	2055.34
563.07	1857.30
563.27	2036.91
563.47	2031.59
563.67	2001.48
563.87	2144.02
564.07	2063.33
564.27	2172.28
564.47	2278.98
564.67	2372.78
564.87	2269.97
565.08	2327.31
565.28	2175.76
565.48	2272.02
565.68	2185.59
565.88	2121.70
566.08	2275.70
566.28	2028.92
566.48	1842.76
566.68	1905.02
566.88	1883.11
567.08	2070.09
567.28	1957.04
567.48	1991.85
567.68	2093.64
567.88	1930.21
568.08	2156.10
568.28	2231.88
568.48	2077.87
568.68	2239.25
568.89	2080.33
569.09	1852.18
569.29	2104.08
569.49	2114.53
569.69	1885.97
569.89	1840.30
570.09	1735.24
570.29	1856.69
570.49	1742.00
570.69	1840.10
570.89	2058.82
571.09	2194.40
571.29	1782.35
571.49	2032.81
571.69	1952.94
571.89	1968.71
572.09	1882.90
572.29	1850.13
572.49	2018.68
572.69	2009.47
572.89	1963.39
573.09	1794.23
573.29	2095.07
573.49	2172.49
573.69	2131.94
573.89	2217.34
574.09	1992.67
574.29	2189.28
574.49	1924.07
574.69	1894.99
574.89	1847.27
575.09	1839.49
575.29	1824.54
575.49	1930.62
575.69	1971.17
575.89	1755.72
576.09	1898.88
576.29	1971.37
576.49	1884.95
576.69	1996.97
576.89	1950.28
577.09	2006.60
577.29	1819.62
577.49	2232.90
577.69	1901.95
577.89	2030.97
578.09	1979.98
578.29	1782.96
578.49	1927.55
578.69	1850.75
578.89	2063.94
579.09	1920.59
579.29	1857.92
579.49	2070.29
579.69	1962.98
579.89	2210.17
580.09	1785.21
580.29	1785.21
580.49	1891.09
580.69	1812.25
580.89	1915.47
581.09	1879.22
581.29	1846.45
581.49	1885.77
581.69	1780.30
581.89	1789.11
582.09	1799.55
582.28	1821.46
582.48	2073.57
582.68	2160.61
582.88	2237.41
583.08	2043.87
583.28	2056.16
583.48	2021.35
583.68	1887.41
583.88	1990.42
584.08	1950.49
584.28	1953.15
584.48	2188.25
584.68	2016.43
584.88	1893.35
585.08	2085.86
585.28	2094.46
585.48	2133.78
585.68	2021.35
585.87	2051.25
586.07	2033.84
586.27	1971.17
586.47	2017.66
586.67	1967.07
586.87	1933.08
587.07	1897.85
587.27	1829.04
587.47	2032.61
587.67	2336.32
587.87	2668.09
588.07	2560.58
588.27	2558.94
588.46	2832.34
588.66	2874.53
588.86	2491.76
589.06	2472.31
589.26	2402.47
589.46	2273.25
589.66	2020.73
589.86	1968.92
590.06	2066.20
590.26	2251.54
590.46	2190.71
590.66	2341.24
590.85	2281.85
591.05	2402.88
591.25	2098.76
591.45	2107.16
591.65	2247.44
591.85	2243.14
592.05	2237.82
592.25	2380.56
592.45	2446.50
592.64	2337.55
592.84	2232.08
593.04	2060.05
593.24	2524.94
593.44	2132.55
593.64	2181.91
593.84	2236.18
594.04	2130.71
594.24	2286.15
594.43	1995.34
594.63	2042.03
594.83	2121.49
595.03	2071.93
595.23	1853.62
595.43	1792.59
595.63	1877.99
595.83	2069.68
596.02	1752.86
596.22	1942.70
596.42	2049.20
596.62	2003.53
596.82	1951.71
597.02	2062.51
597.22	2159.99
597.41	2000.87
597.61	1906.86
597.81	2080.94
598.01	2144.43
598.21	2036.30
598.41	2029.13
598.61	1998.61
598.80	2079.71
599.00	2107.56
599.20	2161.02
599.40	2062.71
599.60	2041.62
599.80	2187.23
599.99	2200.75
600.19	2020.53
600.39	2085.04
600.59	2110.02
600.79	2060.67
600.99	2061.89
601.19	2239.86
601.38	2281.23
601.58	2118.42
601.78	1864.88
601.98	2379.74
602.18	3239.07
602.37	3988.01
602.57	4262.23
602.77	4764.60
602.97	4958.34
603.17	4604.86
603.37	4341.90
603.56	4358.08
603.76	4236.63
603.96	4066.24
604.16	3811.47
604.36	3510.01
604.56	3180.91
604.75	2802.85
604.95	2700.45
605.15	2735.88
605.35	2586.38
605.55	2343.08
605.74	2251.13
605.94	2402.27
606.14	2181.50
606.34	2126.82
606.54	2033.02
606.73	1966.25
606.93	2086.27
607.13	1916.69
607.33	1979.36
607.53	2152.21
607.72	2104.90
607.92	2011.51
608.12	2067.83
608.32	1974.65
608.51	2087.90
608.71	1949.67
608.91	2116.37
609.11	2195.42
609.31	2122.11
609.50	2303.56
609.70	2541.53
609.90	2500.98
610.10	2500.16
610.29	2334.07
610.49	2175.35
610.69	2311.75
610.89	2185.39
611.09	2148.11
611.28	2213.04
611.48	2166.75
611.68	2046.54
611.88	1975.06
612.07	1937.79
612.27	2129.89
612.47	1948.85
612.67	2038.34
612.86	2069.68
613.06	1987.55
613.26	1788.90
613.46	2010.70
613.65	2093.64
613.85	2470.87
614.05	2276.11
614.25	2244.98
614.44	2171.46
614.64	2168.18
614.84	2131.12
615.04	2086.47
615.23	2125.18
615.43	2229.42
615.63	2181.70
615.83	2001.68
616.02	1994.31
616.22	2358.44
616.42	2273.45
616.62	2327.93
616.81	2424.18
617.01	2452.65
617.21	2326.29
617.41	2141.15
617.60	2176.38
617.80	2233.31
618.00	2192.15
618.19	2093.84
618.39	2089.34
618.59	2049.81
618.79	1978.95
618.98	1757.98
619.18	1910.96
619.38	2222.87
619.57	1910.55
619.77	1870.82
619.97	1872.46
620.17	1929.60
620.36	1941.68
620.56	2294.34
620.76	2103.47
620.95	2167.98
621.15	2237.61
621.35	2112.89
621.54	2139.92
621.74	2170.23
621.94	2001.07
622.14	1933.28
622.33	1853.41
622.53	1965.03
622.73	1955.61
622.92	1778.05
623.12	1923.86
623.32	2166.96
623.51	1998.61
623.71	1752.65
623.91	2055.55
624.10	1830.68
624.30	1973.42
624.50	1812.04
624.69	1773.13
624.89	2424.39
625.09	1888.02
625.29	1714.35
625.48	1740.57
625.68	1948.44
625.88	2018.48
626.07	1932.05
626.27	1785.21
626.47	1825.97
626.66	1735.45
626.86	1849.52
627.06	1860.17
627.25	1905.23
627.45	2110.43
627.64	1891.71
627.84	2060.05
628.04	1821.67
628.23	2150.57
628.43	1813.89
628.63	1890.89
628.82	1987.14
629.02	2293.52
629.22	2188.87
629.41	2273.04
629.61	2136.65
629.81	2422.54
630.00	2150.78
630.20	2122.92
630.40	2303.15
630.59	2297.41
630.79	2138.28
630.98	2073.77
631.18	2061.89
631.38	2047.56
631.57	2113.91
631.77	1837.03
631.97	1984.69
632.16	1995.34
632.36	1935.54
632.56	1905.02
632.75	1926.52
632.95	2039.57
633.14	1751.01
633.34	2050.63
633.54	1681.79
633.73	1850.13
633.93	1815.52
634.12	1723.57
634.32	2236.79
634.52	1869.59
634.71	1768.42
634.91	1930.01
635.11	1760.84
635.30	1826.58
635.50	1935.74
635.69	1823.92
635.89	2211.40
636.09	2129.27
636.28	1879.22
636.48	1926.52
636.67	2104.29
636.87	2078.48
637.07	2028.72
637.26	1900.52
637.46	2051.25
637.65	2166.34
637.85	2054.73
638.04	1974.24
638.24	2006.60
638.44	2092.61
638.63	1969.74
638.83	1931.85
639.02	2043.46
639.22	2020.73
639.42	1900.11
639.61	1915.47
639.81	1928.16
640.00	1908.50
640.20	1990.01
640.39	2033.02
640.59	2493.20
640.79	2488.69
640.98	2559.76
641.18	2575.12
641.37	2657.85
641.57	2439.13
641.76	2359.46
641.96	2110.43
642.15	2283.49
642.35	2148.73
642.55	2161.63
642.74	1964.82
642.94	2159.17
643.13	2185.80
643.33	1921.20
643.52	1876.35
643.72	1847.88
643.91	1925.09
644.11	1821.26
644.31	1787.67
644.50	1817.98
644.70	2039.98
644.89	1875.53
645.09	1977.52
645.28	1926.52
645.48	1982.64
645.67	1795.45
645.87	1717.22
646.06	1896.21
646.26	1987.35
646.45	1708.83
646.65	1730.53
646.84	2165.32
647.04	1879.83
647.24	1759.00
647.43	1920.38
647.63	1954.58
647.82	2081.15
648.02	1760.64
648.21	1838.67
648.41	2092.61
648.60	1844.61
648.80	2014.18
648.99	1919.56
649.19	1853.62
649.38	1723.37
649.58	1889.66
649.77	1927.75
649.97	2044.28
650.16	1953.35
650.36	1688.76
650.55	2014.18
650.75	1967.48
650.94	2101.01
651.14	1865.90
651.33	1898.88
651.53	2114.32
651.72	1810.81
651.92	1884.54
652.11	1704.11
652.31	1984.48
652.50	1941.68
652.70	1926.52
652.89	1821.87
653.09	2138.69
653.28	1925.71
653.48	1733.81
653.67	1757.57
653.87	2322.40
654.06	1975.68
654.25	2078.69
654.45	1833.96
654.64	1907.89
654.84	1876.76
655.03	1673.80
655.23	1988.78
655.42	1999.43
655.62	2116.17
655.81	1916.49
656.01	1780.30
656.20	2000.46
656.40	2103.67
656.59	1898.67
656.79	2031.58
656.98	1942.09
657.17	2011.51
657.37	1929.19
657.56	1827.61
657.76	1944.55
657.95	2014.59
658.15	1577.55
658.34	1865.49
658.54	1905.84
658.73	1768.83
658.92	1838.67
659.12	1942.70
659.31	2049.81
659.51	1868.57
659.70	2060.46
659.90	1978.95
660.09	2138.69
660.29	2009.47
660.48	1882.08
660.67	2076.23
660.87	1887.00
661.06	1980.80
661.26	2039.16
661.45	2017.04
661.65	1981.82
661.84	1869.59
662.03	1867.54
662.23	1847.27
662.42	2167.57
662.62	1757.98
662.81	1790.54
663.00	1865.29
663.20	1920.18
663.39	1944.55
663.59	1973.42
663.78	1860.78
663.97	1848.09
664.17	2018.48
664.36	1741.59
664.56	1785.62
664.75	2015.00
664.94	1978.34
665.14	1963.18
665.33	1899.70
665.53	2019.09
665.72	1980.59
665.91	2103.67
666.11	1986.53
666.30	2003.94
666.50	1922.84
666.69	1982.23
666.88	1912.19
667.08	1963.39
667.27	1907.89
667.47	1921.61
667.66	1883.11
667.85	2026.26
668.05	1941.88
668.24	1850.54
668.43	2008.24
668.63	1843.17
668.82	2053.09
669.02	1995.75
669.21	1902.77
669.40	1806.10
669.60	2188.46
669.79	1764.73
669.98	2343.08
670.18	1817.78
670.37	1795.25
670.56	1868.98
670.76	1955.20
670.95	1925.30
671.15	2064.97
671.34	2012.13
671.53	1966.87
671.73	1893.14
671.92	1891.71
672.11	1806.72
672.31	1872.66
672.50	1954.99
672.69	1781.12
672.89	1693.26
673.08	1835.59
673.27	2039.57
673.47	1937.58
673.66	1934.31
673.85	1806.72
674.05	2061.49
674.24	2418.04
674.43	2506.10
674.63	2932.49
674.82	3306.45
675.01	2823.12
675.21	2929.41
675.40	2673.83
675.59	2571.84
675.79	2793.43
675.98	2438.72
676.17	2553.00
676.37	2418.86
676.56	2247.85
676.75	2212.63
676.95	2101.22
677.14	2011.92
677.33	2150.57
677.52	1842.15
677.72	1876.96
677.91	1978.95
678.10	1768.42
678.30	1788.29
678.49	1792.38
678.68	2176.38
678.88	1704.32
679.07	1994.72
679.26	1883.31
679.45	2128.45
679.65	2061.69
679.84	1687.94
680.03	1725.00
680.23	1873.89
680.42	2220.82
680.61	1767.81
680.81	1848.91
681.00	1923.45
681.19	1952.53
681.38	1986.32
681.58	1964.00
681.77	1869.59
681.96	2055.75
682.15	1895.40
682.35	1977.72
682.54	2007.42
682.73	1812.04
682.93	1822.69
683.12	1817.78
683.31	2010.29
683.50	2271.20
683.70	1829.86
683.89	1925.71
684.08	1803.65
684.27	2050.63
684.47	1739.14
684.66	1923.25
684.85	2189.07
685.04	2094.87
685.24	1822.69
685.43	1924.07
685.62	1712.72
685.81	1999.02
686.01	2136.85
686.20	2252.77
686.39	2324.03
686.58	2871.46
686.78	2632.66
686.97	2606.86
687.16	2515.52
687.35	2414.15
687.55	2315.02
687.74	2319.53
687.93	2173.10
688.12	2265.67
688.32	2248.87
688.51	2022.98
688.70	2159.79
688.89	1955.20
689.08	1848.50
689.28	1905.23
689.47	2000.87
689.66	1980.80
689.85	2002.71
690.05	1873.89
690.24	1860.78
690.43	1939.02
690.62	1940.45
690.81	1829.45
691.01	1917.92
691.20	1880.65
691.39	1789.31
691.58	1911.37
691.77	2148.73
691.97	1929.39
692.16	1953.56
692.35	1885.97
692.54	1895.40
692.73	2117.39
692.93	2118.01
693.12	2169.00
693.31	2229.62
693.50	2231.06
693.69	2205.25
693.89	2051.25
694.08	2239.86
694.27	2269.15
694.46	1979.57
694.65	2069.27
694.85	2149.34
695.04	2138.49
695.23	2091.39
695.42	2691.44
695.61	3103.49
695.80	3436.70
696.00	3751.67
696.19	3917.76
696.38	3412.94
696.57	3132.98
696.76	3040.00
696.95	2847.91
697.15	2912.01
697.34	2790.15
697.53	2423.77
697.72	2445.48
697.91	2302.53
698.10	2423.98
698.30	2097.12
698.49	2047.97
698.68	2065.38
698.87	1972.19
699.06	1845.42
699.25	1947.21
699.45	2036.30
699.64	1954.58
699.83	2010.90
700.02	1822.28
700.21	1983.87
700.40	1846.04
700.59	1890.28
700.79	1867.75
700.98	1959.91
701.17	1824.94
701.36	1819.42
701.55	1847.47
701.74	2167.37
701.93	2164.09
702.12	2530.27
702.32	2651.51
702.51	2978.57
702.70	3021.16
702.89	2753.29
703.08	2472.92
703.27	2639.63
703.46	2509.38
703.65	2350.04
703.85	2185.80
704.04	2208.32
704.23	2348.61
704.42	2059.44
704.61	2024.62
704.80	2219.59
704.99	1900.11
705.18	2001.07
705.37	1976.70
705.57	2403.91
705.76	3141.79
705.95	3254.63
706.14	3856.33
706.33	4104.13
706.52	4224.14
706.71	3465.57
706.90	3107.79
707.09	3090.59
707.28	2918.15
707.47	2713.56
707.67	2779.30
707.86	2487.26
708.05	2597.85
708.24	2325.67
708.43	2240.48
708.62	2062.10
708.81	1951.10
709.00	1820.85
709.19	1861.19
709.38	2106.13
709.57	1877.37
709.76	2022.57
709.96	1959.70
710.15	2233.51
710.34	2087.90
710.53	2155.28
710.72	2020.73
710.91	2159.58
711.10	2064.35
711.29	2065.38
711.48	1921.20
711.67	1865.49
711.86	2086.06
712.05	1877.37
712.24	1918.54
712.43	2055.75
712.62	2148.11
712.81	1957.24
713.00	2067.63
713.19	1808.36
713.39	2018.68
713.58	1824.74
713.77	1975.88
713.96	2087.70
714.15	2003.94
714.34	1980.80
714.53	1876.96
714.72	2258.70
714.91	1949.05
715.10	2046.33
715.29	1947.41
715.48	2458.79
715.67	2186.62
715.86	2023.39
716.05	1993.08
716.24	1970.97
716.43	1919.15
716.62	1850.75
716.81	1830.27
717.00	1933.49
717.19	2149.14
717.38	1952.12
717.57	1914.24
717.76	1752.86
717.95	2032.81
718.14	1923.25
718.33	1866.11
718.52	1727.87
718.71	1737.09
718.90	1746.71
719.09	1839.49
719.28	1914.24
719.47	2038.14
719.66	2095.48
719.85	2133.57
720.04	2097.73
720.23	2168.59
720.42	2096.10
720.61	2137.46
720.80	1889.05
720.99	2082.58
721.18	1967.89
721.37	1918.33
721.56	1953.35
721.75	2099.78
721.94	1875.53
722.13	1914.65
722.32	1933.49
722.51	2065.58
722.70	1935.74
722.89	1948.85
723.08	1899.08
723.27	2030.77
723.46	1937.58
723.65	1845.63
723.84	1827.40
724.03	2066.40
724.22	1785.01
724.41	1934.92
724.60	1879.01
724.79	2025.24
724.98	1941.68
725.16	1838.05
725.35	1987.14
725.54	1802.01
725.73	1898.67
725.92	1926.73
726.11	2035.07
726.30	2294.95
726.49	2137.06
726.68	2291.68
726.87	2360.90
727.06	2448.55
727.25	2167.98
727.44	2229.21
727.63	2175.15
727.82	2067.83
728.01	2148.73
728.20	2143.81
728.38	2271.40
728.57	2008.03
728.76	2059.03
728.95	2079.30
729.14	1844.20
729.33	1824.33
729.52	1685.07
729.71	1820.64
729.90	1814.09
730.09	1933.90
730.28	1994.93
730.47	2019.09
730.66	2275.29
730.84	2174.33
731.03	2174.94
731.22	2137.46
731.41	2108.18
731.60	2158.15
731.79	1857.51
731.98	1953.76
732.17	2113.91
732.36	2051.25
732.55	1926.73
732.73	1860.17
732.92	2138.90
733.11	1959.50
733.30	1848.29
733.49	1769.65
733.68	2005.58
733.87	1994.72
734.06	1899.70
734.25	2053.29
734.43	2230.85
734.62	2418.45
734.81	2446.30
735.00	2428.07
735.19	2374.01
735.38	2328.95
735.57	2081.35
735.76	2278.77
735.94	2406.77
736.13	3018.71
736.32	3092.23
736.51	3215.72
736.70	3619.99
736.89	3663.20
737.08	3481.34
737.27	3796.73
737.45	4688.62
737.64	4882.77
737.83	5375.30
738.02	5518.05
738.21	5314.89
738.40	4673.67
738.59	4143.45
738.77	3976.95
738.96	3624.70
739.15	3506.33
739.34	3292.72
739.53	3079.94
739.72	3009.49
739.90	2831.93
740.09	2441.59
740.28	2408.21
740.47	2355.78
740.66	2255.22
740.85	1982.02
741.03	2072.54
741.22	1906.66
741.41	1993.29
741.60	1886.38
741.79	2056.37
741.98	2201.36
742.16	2317.89
742.35	2157.94
742.54	2148.93
742.73	2521.87
742.92	2250.92
743.10	2149.55
743.29	2221.23
743.48	2526.99
743.67	2100.19
743.86	1968.92
744.05	1995.13
744.23	1993.49
744.42	1979.77
744.61	2026.67
744.80	1869.39
744.99	1934.31
745.17	1792.38
745.36	1788.90
745.55	1967.07
745.74	1939.63
745.93	1825.97
746.11	1816.96
746.30	1823.92
746.49	2013.15
746.68	1800.98
746.86	1895.19
747.05	1884.95
747.24	1985.10
747.43	2037.52
747.62	1852.80
747.80	1945.37
747.99	2184.57
748.18	2149.96
748.37	2073.77
748.56	2092.00
748.74	2148.73
748.93	2055.96
749.12	2299.46
749.31	2962.18
749.49	3512.88
749.68	3931.28
749.87	4362.99
750.06	4397.40
750.24	4548.33
750.43	4885.84
750.62	5333.93
750.81	5643.79
750.99	6043.97
751.18	6020.41
751.37	5125.66
751.56	4570.45
751.74	4694.35
751.93	4493.86
752.12	3682.66
752.31	3404.34
752.49	3231.08
752.68	3235.59
752.87	2839.71
753.06	2615.67
753.24	2468.42
753.43	2463.50
753.62	2175.15
753.81	2033.22
753.99	2241.30
754.18	2031.79
754.37	1889.46
754.55	2003.94
754.74	2167.57
754.93	1747.33
755.12	1861.40
755.30	1819.01
755.49	2057.80
755.68	1930.21
755.86	1959.91
756.05	1800.16
756.24	2114.94
756.43	1770.88
756.61	1819.83
756.80	1927.55
756.99	2054.11
757.17	1893.96
757.36	1791.36
757.55	1901.95
757.74	2007.42
757.92	1931.03
758.11	1768.63
758.30	1722.34
758.48	1866.72
758.67	1791.97
758.86	1895.40
759.04	1783.37
759.23	1872.46
759.42	1906.86
759.60	1842.56
759.79	1886.18
759.98	1850.75
760.16	1793.41
760.35	1803.65
760.54	1754.09
760.73	1923.04
760.91	1745.69
761.10	1930.01
761.29	1944.75
761.47	1913.62
761.66	2204.02
761.85	1960.11
762.03	2144.43
762.22	2881.49
762.41	5271.88
762.59	7957.79
762.78	9366.79
762.97	11187.23
763.15	11812.07
763.34	10872.26
763.52	8286.90
763.71	7744.60
763.90	7308.79
764.08	6798.03
764.27	6365.50
764.46	5980.89
764.64	5304.44
764.83	4835.87
765.02	4421.97
765.20	3975.72
765.39	3521.28
765.58	2816.57
765.76	2608.70
765.95	2407.59
766.13	2220.20
766.32	2082.99
766.51	2074.59
766.69	2592.52
766.88	2041.82
767.07	1833.96
767.25	1756.34
767.44	2063.74
767.62	2113.50
767.81	1883.31
768.00	1943.11
768.18	1945.16
768.37	1896.01
768.56	1768.22
768.74	1846.65
768.93	1786.24
769.11	2029.33
769.30	1913.62
769.49	1824.33
769.67	1934.51
769.86	1887.82
770.04	1876.14
770.23	1861.40
770.42	2075.41
770.60	1920.59
770.79	1796.48
770.97	1871.02
771.16	2390.18
771.35	3008.67
771.53	3675.08
771.72	4086.93
771.90	4601.58
772.09	4961.82
772.27	4472.76
772.46	3637.60
772.65	3735.70
772.83	3480.32
773.02	3350.48
773.20	3045.33
773.39	3128.07
773.58	2948.87
773.76	2607.68
773.95	2555.05
774.13	2499.14
774.32	2296.59
774.50	2088.72
774.69	2100.81
774.87	1967.28
775.06	2243.34
775.25	1820.44
775.43	1918.54
775.62	1943.52
775.80	1986.73
775.99	1933.28
776.17	1824.33
776.36	1911.98
776.54	2038.34
776.73	1850.95
776.92	1933.08
777.10	2048.58
777.29	1984.89
777.47	1814.50
777.66	1838.67
777.84	1901.95
778.03	1898.47
778.21	1809.59
778.40	1898.06
778.58	1966.25
778.77	2031.79
778.95	1757.36
779.14	1813.89
779.32	2167.16
779.51	2022.78
779.70	1855.66
779.88	1749.58
780.07	1846.65
780.25	2218.97
780.44	1819.21
780.62	2008.24
780.81	1977.31
780.99	1918.54
781.18	1836.62
781.36	1840.10
781.55	1872.05
781.73	2106.75
781.92	1759.61
782.10	1786.65
782.29	1953.97
782.47	2098.76
782.66	1891.09
782.84	1729.92
783.03	1811.43
783.21	2054.93
783.40	1837.03
783.58	1831.50
783.77	1814.30
783.95	1870.21
784.14	1763.71
784.32	1893.96
784.51	2089.34
784.69	1824.74
784.88	1759.21
785.06	1911.37
785.24	1809.99
785.43	2071.93
785.61	1992.47
785.80	1812.25
785.98	2010.08
786.17	1937.99
786.35	1828.84
786.54	2002.30
786.72	2063.53
786.91	2038.34
787.09	1893.14
787.28	1771.08
787.46	1930.01
787.65	2026.06
787.83	1769.24
788.01	1938.20
788.20	1831.09
788.38	1967.28
788.57	1925.91
788.75	1949.26
788.94	2227.58
789.12	2131.94
789.31	1961.95
789.49	2030.36
789.67	1883.93
789.86	2002.30
790.04	1848.50
790.23	1785.42
790.41	2265.67
790.60	1944.96
790.78	1920.38
790.96	1957.45
791.15	2039.57
791.33	1924.89
791.52	1905.63
791.70	1825.56
791.89	1931.64
792.07	2038.55
792.25	1920.38
792.44	1740.36
792.62	2052.88
792.81	1851.98
792.99	1904.00
793.17	1801.60
793.36	1847.47
793.54	2300.48
793.73	2657.44
793.91	3128.27
794.10	3657.88
794.28	4121.54
794.46	4028.76
794.65	3998.45
794.83	3365.02
795.01	3222.48
795.20	3270.40
795.38	3062.33
795.57	2993.31
795.75	2899.31
795.93	2669.73
796.12	2614.03
796.30	2568.56
796.49	2503.03
796.67	2215.29
796.85	2286.56
797.04	2151.60
797.22	2147.09
797.40	1844.20
797.59	1969.74
797.77	1993.90
797.96	1867.95
798.14	1854.23
798.32	1855.25
798.51	1998.41
798.69	2121.70
798.87	1888.84
799.06	1871.43
799.24	1773.95
799.42	2213.04
799.61	2474.56
799.79	2720.93
799.98	3222.48
800.16	3267.94
800.34	3885.61
800.53	4646.23
800.71	4958.95
800.89	5695.20
801.08	5776.50
801.26	5795.96
801.44	4940.11
801.63	4250.15
801.81	4188.51
801.99	3945.82
802.18	3723.00
802.36	3598.28
802.54	3414.37
802.73	3026.49
802.91	2948.26
803.09	2788.31
803.28	2666.86
803.46	2544.60
803.64	2528.42
803.83	2095.48
804.01	2038.55
804.19	1928.37
804.38	2138.69
804.56	2116.78
804.74	1984.28
804.92	2014.59
805.11	1879.63
805.29	2132.14
805.47	1923.86
805.66	1837.23
805.84	1829.04
806.02	2056.57
806.21	1915.26
806.39	2036.91
806.57	2055.96
806.76	2074.59
806.94	1957.86
807.12	1888.02
807.30	1916.28
807.49	2043.87
807.67	2020.94
807.85	2116.37
808.04	2118.21
808.22	2265.05
808.40	1854.03
808.58	1830.47
808.77	2031.79
808.95	2204.43
809.13	2309.49
809.31	3524.55
809.50	4690.26
809.68	5417.08
809.86	5783.67
810.05	6246.71
810.23	6886.09
810.41	8560.92
810.59	13206.33
810.78	15990.34
810.96	18461.82
811.14	20126.21
811.32	19546.84
811.51	15990.74
811.69	12975.93
811.87	12875.99
812.05	11315.23
812.24	10669.92
812.42	9923.02
812.60	8982.80
812.78	7604.93
812.97	6653.85
813.15	6197.77
813.33	5313.25
813.51	4731.83
813.70	3924.11
813.88	3382.43
814.06	2949.48
814.24	2631.84
814.42	2196.24
814.61	2234.13
814.79	2325.47
814.97	1887.61
815.15	1947.21
815.34	2008.03
815.52	2079.92
815.70	1826.38
815.88	1849.52
816.06	1826.58
816.25	1878.60
816.43	1800.78
816.61	2004.14
816.79	2128.86
816.98	1782.96
817.16	1860.37
817.34	1877.37
817.52	2012.33
817.70	2170.85
817.89	1907.48
818.07	1816.55
818.25	1912.60
818.43	1976.29
818.61	1886.79
818.80	1839.28
818.98	2149.96
819.16	1932.87
819.34	1802.42
819.52	2081.97
819.70	1836.00
819.89	1930.42
820.07	1775.38
820.25	1715.17
820.43	1940.66
820.61	2021.96
820.80	1877.58
820.98	1790.33
821.16	1718.86
821.34	1754.09
821.52	1862.22
821.70	1916.08
821.89	1881.26
822.07	1870.82
822.25	1845.02
822.43	1781.32
822.61	2072.95
822.79	1911.57
822.98	1844.81
823.16	1664.59
823.34	1928.16
823.52	2023.60
823.70	1970.15
823.88	1729.10
824.06	1979.77
824.25	1907.07
824.43	2013.97
824.61	1837.23
824.79	1988.99
824.97	2008.44
825.15	2135.21
825.33	2437.08
825.52	2848.11
825.70	3000.07
825.88	3156.12
826.06	3379.35
826.24	3426.66
826.42	3225.76
826.60	2857.74
826.78	2859.37
826.97	2633.07
827.15	2747.55
827.33	2431.55
827.51	2488.08
827.69	2332.64
827.87	2345.54
828.05	2318.30
828.23	2081.56
828.41	2230.24
828.60	2162.65
828.78	1860.58
828.96	2009.06
829.14	1887.20
829.32	1918.74
829.50	1858.12
829.68	1865.09
829.86	1887.00
830.04	1984.28
830.22	1912.19
830.41	1777.02
830.59	1885.56
830.77	2006.80
830.95	1802.42
831.13	1812.86
831.31	1816.75
831.49	2020.94
831.67	1991.44
831.85	1962.98
832.03	1879.01
832.21	1992.26
832.39	1772.11
832.57	1808.36
832.76	2025.24
832.94	1895.80
833.12	1715.58
833.30	1862.83
833.48	2055.75
833.66	1897.85
833.84	1807.13
834.02	1865.70
834.20	2037.52
834.38	1999.64
834.56	1699.40
834.74	1770.67
834.92	1761.87
835.10	2119.03
835.28	1917.92
835.46	1876.55
835.64	1871.43
835.82	1824.74
836.01	2082.99
836.19	1991.24
836.37	1834.16
836.55	1797.09
836.73	1788.49
836.91	1736.88
837.09	1954.79
837.27	2073.98
837.45	1745.48
837.63	1787.67
837.81	1778.25
837.99	1940.66
838.17	1891.09
838.35	1857.92
838.53	2289.83
838.71	2080.74
838.89	1932.26
839.07	1946.59
839.25	2047.35
839.43	2146.89
839.61	2152.42
839.79	3036.93
839.97	3852.23
840.15	4317.53
840.33	4640.08
840.51	5045.79
840.69	4821.12
840.87	4140.79
841.05	3874.76
841.23	3989.24
841.41	4803.10
841.59	6441.48
841.77	7115.05
841.95	7662.48
842.13	8240.41
842.31	7836.35
842.49	6539.16
842.67	5657.10
842.85	5605.29
843.03	4899.97
843.21	4734.29
843.39	4534.20
843.57	4141.40
843.75	3861.85
843.93	3441.20
844.11	3162.27
844.29	3034.68
844.47	2804.08
844.65	2809.20
844.83	2475.18
845.01	2348.00
845.19	2344.11
845.36	2095.89
845.54	2125.38
845.72	2003.73
845.90	2029.13
846.08	1821.05
846.26	1901.54
846.44	1987.76
846.62	1951.92
846.80	1885.56
846.98	1782.76
847.16	1871.64
847.34	1902.36
847.52	1744.87
847.70	1778.66
847.88	1860.17
848.06	2081.35
848.24	1930.82
848.41	1709.23
848.59	2027.08
848.77	1956.01
848.95	1808.97
849.13	1808.97
849.31	1984.89
849.49	1945.57
849.67	1748.76
849.85	1739.54
850.03	1927.75
850.21	1940.25
850.39	1776.82
850.57	1940.04
850.74	2078.89
850.92	2096.51
851.10	2153.64
851.28	2410.25
851.46	2767.22
851.64	3127.04
851.82	2896.24
852.00	2929.21
852.18	2923.68
852.36	2634.71
852.53	2455.92
852.71	2469.24
852.89	2469.85
853.07	2417.22
853.25	2184.98
853.43	2058.21
853.61	2196.45
853.79	2154.26
853.97	1960.73
854.14	1927.55
854.32	2195.42
854.50	2094.66
854.68	1892.12
854.86	1892.32
855.04	1843.99
855.22	1975.27
855.40	1748.76
855.57	1802.01
855.75	1987.76
855.93	1937.38
856.11	1721.11
856.29	1771.49
856.47	1819.83
856.65	1912.60
856.82	1780.91
857.00	1743.64
857.18	1879.22
857.36	1837.44
857.54	1890.07
857.72	1958.88
857.89	1965.64
858.07	1889.46
858.25	1995.34
858.43	1738.32
858.61	1869.39
858.79	1868.98
858.97	1778.66
859.14	1898.06
859.32	1885.97
859.50	1822.69
859.68	1908.30
859.86	1868.16
860.03	1949.26
860.21	1997.59
860.39	1855.87
860.57	1953.35
860.75	1974.45
860.93	2153.23
861.10	2030.97
861.28	1860.78
861.46	1975.68
861.64	2012.95
861.82	1878.81
861.99	1952.33
862.17	2035.89
862.35	2046.74
862.53	1877.17
862.71	1878.19
862.88	1962.57
863.06	1990.42
863.24	1821.46
863.42	1781.94
863.60	1870.00
863.77	1976.09
863.95	1656.60
864.13	1876.55
864.31	1857.51
864.49	1973.63
864.66	1702.48
864.84	1804.06
865.02	1904.20
865.20	2228.39
865.37	1872.25
865.55	1812.45
865.73	1769.24
865.91	2074.18
866.09	2058.41
866.26	2011.72
866.44	2170.85
866.62	2039.37
866.80	1884.13
866.97	1999.23
867.15	1997.18
867.33	2011.51
867.51	2015.41
867.68	1947.62
867.86	1922.63
868.04	1878.81
868.22	1743.85
868.39	1845.42
868.57	1943.32
868.75	2067.63
868.93	1747.53
869.10	1807.95
869.28	2125.79
869.46	2070.91
869.64	1868.36
869.81	1829.45
869.99	1915.67
870.17	1889.05
870.35	1767.81
870.52	1785.62
870.70	2015.82
870.88	1817.16
871.05	1734.22
871.23	1648.00
871.41	1865.70
871.59	1866.11
871.76	1825.76
871.94	1789.92
872.12	1875.53
872.29	1715.58
872.47	1797.50
872.65	1755.52
872.83	1910.75
873.00	2061.49
873.18	1841.12
873.36	1794.84
873.53	1983.66
873.71	1764.33
873.89	1813.07
874.06	1841.53
874.24	1925.09
874.42	2043.67
874.60	1956.42
874.77	1858.33
874.95	1794.02
875.13	2025.44
875.30	1795.86
875.48	1825.97
875.66	2104.90
875.83	1844.40
876.01	1868.98
876.19	1967.89
876.36	1773.75
876.54	1935.74
876.72	1774.77
876.89	1926.93
877.07	2002.09
877.25	1697.36
877.42	1867.34
877.60	1841.12
877.78	2123.33
877.95	1818.19
878.13	1785.21
878.31	1912.19
878.48	1981.61
878.66	1954.99
878.84	1810.81
879.01	1855.25
879.19	1925.30
879.37	1954.58
879.54	1810.40
879.72	1750.81
879.90	1669.50
880.07	1955.20
880.25	1612.16
880.42	1921.81
880.60	1922.63
880.78	1945.57
880.95	1805.28
881.13	1831.29
881.31	1873.48
881.48	1829.86
881.66	1771.49
881.83	1875.73
882.01	1800.57
882.19	1716.40
882.36	1845.22
882.54	1825.56
882.72	1946.59
882.89	1891.50
883.07	1749.37
883.24	1835.39
883.42	1992.47
883.60	1907.27
883.77	1767.60
883.95	1823.92
884.12	2047.76
884.30	1976.09
884.48	2029.33
884.65	1966.25
884.83	2006.19
885.00	2010.70
885.18	1803.85
885.36	1837.64
885.53	1981.00
885.71	2077.66
885.88	1763.92
886.06	1815.73
886.23	1980.39
886.41	1820.03
886.59	1809.79
886.76	1774.36
886.94	1963.59
887.11	2237.61
887.29	1837.85
887.47	1714.56
887.64	2022.98
887.82	2027.08
887.99	1701.04
888.17	1858.12
888.34	1862.63
888.52	1746.92
888.69	1873.89
888.87	1732.38
889.05	1829.25
889.22	1831.91
889.40	1756.13
889.57	1945.37
889.75	2076.03
889.92	1849.11
890.10	1729.92
890.27	1798.73
890.45	1790.74
890.62	1670.53
890.80	1720.91
890.98	1672.37
891.15	2073.77
891.33	1973.22
891.50	1796.27
891.68	1714.56
891.85	1972.60
892.03	1966.87
892.20	1786.65
892.38	1743.23
892.55	1963.39
892.73	1978.75
892.90	1747.94
893.08	1788.49
893.25	1793.41
893.43	1822.69
893.60	1924.89
893.78	1660.49
893.95	1923.45
894.13	1861.19
894.30	1762.28
894.48	1838.26
894.65	1984.89
894.83	1897.24
895.00	1667.66
895.18	1688.76
895.35	1979.16
895.53	1976.49
895.70	1721.93
895.88	1933.08
896.05	1950.49
896.23	1753.68
896.40	1815.11
896.58	1870.21
896.75	1978.34
896.93	2077.46
897.10	1793.00
897.28	1727.67
897.45	1897.44
897.63	1965.03
897.80	1941.27
897.98	1834.78
898.15	1915.47
898.33	1762.07
898.50	1879.01
898.67	1837.23
898.85	1835.39
899.02	1972.60
899.20	1990.42
899.37	1813.48
899.55	1901.13
899.72	2036.91
899.90	1775.38
900.07	1775.79
900.25	1941.68
900.42	2009.26
900.59	1782.14
900.77	1904.41
900.94	1953.56
901.12	1900.11
901.29	1793.41
901.47	1913.83
901.64	1975.06
901.82	1868.98
901.99	1604.58
902.16	1731.56
902.34	2004.35
902.51	1942.91
902.69	1830.27
902.86	1855.66
903.03	2287.38
903.21	1865.49
903.38	1832.11
903.56	1762.28
903.73	2003.73
903.91	1818.19
904.08	1749.99
904.25	1634.89
904.43	1785.42
904.60	1972.60
904.78	1821.05
904.95	1748.56
905.12	1858.33
905.30	2101.83
905.47	1928.37
905.65	1962.36
905.82	1913.21
905.99	2007.21
906.17	1908.91
906.34	1833.96
906.52	1864.68
906.69	2037.32
906.86	1993.90
907.04	1949.46
907.21	2081.15
907.38	2076.23
907.56	1825.56
907.73	1810.61
907.91	2085.04
908.08	2030.77
908.25	1798.32
908.43	1774.97
908.60	1953.35
908.77	1925.30
908.95	1816.96
909.12	1765.55
909.30	1992.06
909.47	1711.28
909.64	1847.27
909.82	1961.75
909.99	1864.68
910.16	1894.78
910.34	1753.27
910.51	1794.23
910.68	1903.59
910.86	1877.58
911.03	1749.37
911.20	1953.97
911.38	2610.96
911.55	3540.32
911.72	3912.64
911.90	4084.67
912.07	4450.65
912.24	4450.44
912.42	3608.32
912.59	2941.70
912.76	2973.65
912.94	2663.59
913.11	2436.67
913.28	2289.83
913.46	2181.50
913.63	2306.42
913.80	2427.87
913.98	2097.32
914.15	2267.92
914.32	2239.25
914.49	2127.63
914.67	1979.16
914.84	2105.52
915.01	2138.90
915.19	2059.64
915.36	1935.54
915.53	2113.30
915.71	2013.97
915.88	1946.59
916.05	1822.28
916.22	2020.32
916.40	1925.91
916.57	1778.46
916.74	1880.24
916.92	2075.00
917.09	1775.38
917.26	1772.31
917.43	1771.70
917.61	1835.59
917.78	1735.45
917.95	1671.76
918.13	1716.20
918.30	2139.92
918.47	1907.27
918.64	1781.53
918.82	1780.71
918.99	1935.54
919.16	2188.05
919.33	1934.31
919.51	1881.67
919.68	1971.17
919.85	2131.53
920.02	1753.68
920.20	1860.37
920.37	2129.27
920.54	2028.10
920.71	1779.68
920.89	1801.80
921.06	2122.31
921.23	1821.05
921.40	1802.42
921.58	2105.72
921.75	2634.10
921.92	2236.38
922.09	2329.97
922.27	2357.21
922.44	2320.76
922.61	2224.30
922.78	2035.07
922.96	1987.35
923.13	1967.69
923.30	2116.99
923.47	1801.80
923.64	1865.29
923.82	1987.76
923.99	1975.88
924.16	1937.79
924.33	1802.62
924.50	1908.71
924.68	2109.41
924.85	1777.84
925.02	1843.17
925.19	2028.51
925.36	1936.35
925.54	1887.20
925.71	1874.30
925.88	2271.61
926.05	1848.50
926.22	1772.11
926.40	1856.28
926.57	1901.54
926.74	1956.22
926.91	1760.43
927.08	1970.15
927.26	2019.50
927.43	1890.89
927.60	1778.46
927.77	1827.61
927.94	2072.13
928.11	2015.61
928.29	1710.67
928.46	1868.98
928.63	1789.72
928.80	1845.42
928.97	1931.23
929.14	1748.76
929.32	2165.73
929.49	1896.62
929.66	1760.02
929.83	1697.15
930.00	1817.98
930.17	1928.57
930.35	1708.83
930.52	1775.79
930.69	2102.44
930.86	1752.65
931.03	1874.71
931.20	1624.86
931.37	2018.07
931.55	1872.25
931.72	1866.93
931.89	1701.04
932.06	1743.85
932.23	2066.61
932.40	1883.72
932.57	1896.01
932.74	2068.45
932.92	2027.49
933.09	1927.14
933.26	1595.98
933.43	1832.73
933.60	1922.43
933.77	1833.55
933.94	1895.60
934.11	1847.06
934.29	1925.50
934.46	1712.31
934.63	1879.22
934.80	1734.83
934.97	1896.21
935.14	1821.26
935.31	1726.44
935.48	1809.18
935.65	1928.98
935.82	1856.69
936.00	1726.03
936.17	2077.46
936.34	1864.88
936.51	1911.37
936.68	1716.40
936.85	1921.61
937.02	1891.50
937.19	1865.70
937.36	1823.51
937.53	1933.08
937.70	1994.52
937.87	1832.93
938.05	1872.25
938.22	1904.61
938.39	1758.80
938.56	1796.07
938.73	1734.42
938.90	1863.86
939.07	1796.48
939.24	1831.70
939.41	1690.80
939.58	1928.98
939.75	1937.58
939.92	1778.66
940.09	1960.73
940.26	1842.76
940.43	1984.28
940.60	1780.09
940.77	1778.87
940.95	1915.26
941.12	1969.94
941.29	1793.00
941.46	1852.39
941.63	2027.69
941.80	2058.21
941.97	1695.72
942.14	1701.86
942.31	1950.49
942.48	1836.82
942.65	1872.25
942.82	1835.59
942.99	1954.17
943.16	1890.48
943.33	1718.66
943.50	1754.49
943.67	1973.01
943.84	2022.57
944.01	1805.28
944.18	1755.52
944.35	2023.80
944.52	1786.03
944.69	1836.82
944.86	1696.33
945.03	1978.75
945.20	2186.41
945.37	1664.79
945.54	1820.03
945.71	2072.13
945.88	2129.48
946.05	1780.71
946.22	1727.46
946.39	2035.48
946.56	1880.65
946.73	1712.10
946.90	1762.69
947.07	1818.60
947.24	1847.06
947.41	1665.82
947.58	1911.16
947.75	1962.36
947.92	1926.93
948.09	1600.69
948.26	1677.90
948.43	1899.49
948.60	2136.44
948.77	1735.24
948.94	1790.54
949.11	1976.90
949.27	1950.90
949.44	1752.24
949.61	1750.81
949.78	1915.06
949.95	2014.59
950.12	1753.06
950.29	1685.27
950.46	1791.77
950.63	2001.68
950.80	1751.63
950.97	1837.64
951.14	1994.11
951.31	1826.17
951.48	1737.50
951.65	1717.63
951.82	2133.98
951.99	1908.50
952.15	1676.67
952.32	1774.97
952.49	1799.55
952.66	1807.95
952.83	1750.81
953.00	1731.35
953.17	1853.41
953.34	1967.89
953.51	1812.25
953.68	1819.62
953.85	1979.57
954.02	1971.78
954.18	1798.32
954.35	1803.03
954.52	1769.85
954.69	1889.66
954.86	1646.16
955.03	1814.50
955.20	1945.57
955.37	1852.80
955.54	1769.85
955.71	1734.02
955.87	1934.31
956.04	2068.45
956.21	1799.14
956.38	1734.63
956.55	1887.82
956.72	2191.74
956.89	1806.92
957.06	1737.50
957.23	1791.56
957.39	2031.79
957.56	1777.02
957.73	1721.52
957.90	1613.18
958.07	2096.92
958.24	1813.27
958.41	1778.87
958.57	1949.05
958.74	1915.26
958.91	1713.33
959.08	1753.06
959.25	1941.68
959.42	1839.08
959.59	1833.14
959.75	1774.36
959.92	2026.67
960.09	2013.77
960.26	1728.08
960.43	1854.03
960.60	1892.53
960.76	1847.68
960.93	1692.85
961.10	1830.27
961.27	1999.02
961.44	1843.99
961.61	1699.81
961.77	1726.85
961.94	1886.59
962.11	1973.01
962.28	1786.03
962.45	1685.89
962.62	1843.38
962.78	2008.03
962.95	1727.05
963.12	1785.42
963.29	1960.73
963.46	2239.04
963.62	1848.91
963.79	1785.42
963.96	2173.71
964.13	1806.72
964.30	1871.23
964.46	1786.03
964.63	1759.21
964.80	2215.29
964.97	1640.22
965.14	1950.28
965.30	2023.39
965.47	2128.25
965.64	2065.17
965.81	1986.94
965.98	2168.39
966.14	1966.05
966.31	1850.75
966.48	1856.69
966.65	2058.00
966.81	1976.09
966.98	1853.21
967.15	1861.40
967.32	1919.36
967.49	1820.64
967.65	1702.07
967.82	1640.22
967.99	1871.43
968.16	1717.63
968.32	1970.35
968.49	1790.33
968.66	1845.22
968.83	2096.30
968.99	1861.19
969.16	1723.16
969.33	2056.98
969.50	1947.41
969.66	1902.56
969.83	1994.93
970.00	1982.02
970.17	1944.75
970.33	1778.87
970.50	1741.39
970.67	2073.98
970.84	2044.49
971.00	1744.66
971.17	1697.36
971.34	1969.74
971.50	1867.13
971.67	1899.08
971.84	1837.44
972.01	1733.40
972.17	1653.73
972.34	1746.30
972.51	1879.63
972.67	2013.56
972.84	1913.62
973.01	1716.81
973.18	1785.01
973.34	1970.15
973.51	1756.34
973.68	1799.35
973.84	1810.20
974.01	1858.33
974.18	2072.13
974.34	1837.03
974.51	1896.01
974.68	1800.98
974.85	2140.74
975.01	1884.54
975.18	1772.72
975.35	1905.43
975.51	1808.77
975.68	1674.83
975.85	1884.75
976.01	1803.24
976.18	2027.49
976.35	1774.36
976.51	1762.07
976.68	2066.40
976.85	1999.64
977.01	1812.04
977.18	1860.78
977.35	1943.11
977.51	1756.13
977.68	1622.40
977.85	1686.50
978.01	2007.83
978.18	1965.03
978.35	1828.43
978.51	1828.02
978.68	2026.67
978.85	2076.64
979.01	1809.59
979.18	1839.28
979.34	1875.94
979.51	1912.80
979.68	1737.70
979.84	1823.10
980.01	2200.54
980.18	1891.30
980.34	1754.09
980.51	1839.28
980.67	1973.63
980.84	1971.58
981.01	1821.67
981.17	1866.11
981.34	1699.81
981.51	1953.76
981.67	1714.76
981.84	1891.71
982.00	1943.52
982.17	1854.85
982.34	1690.39
982.50	1590.86
982.67	2075.00
982.83	1831.50
983.00	1705.34
983.17	1598.44
983.33	2021.75
983.50	1704.11
983.66	1703.71
983.83	1590.25
984.00	1829.66
984.16	1883.11
984.33	1626.50
984.49	1604.17
984.66	1772.11
984.83	1989.40
984.99	1653.33
985.16	1590.04
985.32	1967.48
985.49	1955.20
985.65	1746.30
985.82	1614.21
985.99	2047.76
986.15	1890.48
986.32	1695.51
986.48	1650.46
986.65	1802.62
986.81	1981.20
986.98	1611.14
987.14	1667.87
987.31	1898.47
987.48	1675.85
987.64	1563.42
987.81	1579.60
987.97	2132.75
988.14	1753.68
988.30	1637.56
988.47	1495.22
988.63	1940.25
988.80	1726.64
988.96	1674.62
989.13	1731.35
989.30	1837.44
989.46	1959.50
989.63	1573.04
989.79	1597.83
989.96	1878.40
990.12	2080.33
990.29	1645.54
990.45	1689.78
990.62	1852.59
990.78	2035.27
990.95	1739.54
991.11	1661.72
991.28	1809.99
991.44	1899.49
991.61	1529.83
991.77	1685.89
991.94	1903.59
992.10	1998.00
992.27	1699.61
992.43	1662.75
992.60	1937.38
992.76	1821.87
992.93	1795.04
993.09	1602.13
993.26	2003.12
993.42	2085.86
993.59	1663.57
993.75	1566.70
993.92	1774.77
994.08	1793.41
994.25	1692.44
994.41	1591.68
994.58	1937.58
994.74	2042.03
994.91	1618.92
995.07	1716.20
995.24	1852.39
995.40	1871.02
995.56	1768.01
995.73	1716.20
995.89	2068.65
996.06	1828.43
996.22	1636.12
996.39	1564.65
996.55	1871.23
996.72	1915.87
996.88	1574.07
997.05	1624.65
997.21	2116.37
997.37	1946.59
997.54	1702.27
997.70	1653.94
997.87	1940.04
998.03	1824.94
998.20	1569.77
998.36	1569.56
998.52	1928.98
998.69	1975.06
998.85	1576.73
999.02	1682.20
999.18	1950.90
999.35	1986.12
999.51	1667.66
999.67	1674.62
999.84	1760.23
1000.00	1967.07
1000.17	1749.17
1000.33	1622.40
1000.49	1805.49
1000.66	1849.11
1000.82	1653.73
1000.99	1719.06
1001.15	2023.39
1001.31	1836.62
1001.48	1681.38
1001.64	1722.34
1001.81	1848.70
1001.97	2119.03
1002.13	1647.39
1002.30	1667.05
1002.46	2037.11
1002.63	1842.15
1002.79	1722.96
1002.95	1649.02
1003.12	1995.95
1003.28	1926.93
1003.45	1640.22
1003.61	1591.68
1003.77	1876.35
1003.94	1715.17
1004.10	1685.27
1004.26	1733.81
1004.43	1944.34
1004.59	2089.13
1004.75	1641.45
1004.92	1629.36
1005.08	1817.98
1005.25	1889.46
1005.41	1645.13
1005.57	1733.20
1005.74	2017.45
1005.90	1841.74
1006.06	1765.14
1006.23	1643.49
1006.39	1981.61
1006.55	2223.89
1006.72	1817.98
1006.88	1628.14
1007.04	1781.94
1007.21	1822.49
1007.37	1666.64
1007.53	1666.02
1007.70	2051.86
1007.86	1994.31
1008.02	1715.99
1008.19	1612.57
1008.35	1908.50
1008.51	1781.53
1008.68	1658.04
1008.84	1585.13
1009.00	1764.12
1009.17	2020.12
1009.33	1803.24
1009.49	1710.26
1009.65	1787.47
1009.82	1932.67
1009.98	1697.97
1010.14	1583.49
1010.31	1964.00
1010.47	1915.47
1010.63	1728.08
1010.80	1703.91
1010.96	1959.91
1011.12	1858.74
1011.28	1674.62
1011.45	1640.63
1011.61	2196.86
1011.77	1745.69
1011.94	1628.75
1012.10	1625.88
1012.26	1762.69
1012.42	1791.56
1012.59	1692.03
1012.75	1695.51
1012.91	1837.23
1013.07	1965.85
1013.24	1590.04
1013.40	1631.62
1013.56	1885.56
1013.72	1844.61
1013.89	1702.89
1014.05	1735.86
1014.21	2092.82
1014.37	2160.61
1014.54	1675.85
1014.70	1612.78
1014.86	1846.45
1015.02	1737.70
1015.19	1651.48
1015.35	1594.55
1015.51	1864.06
1015.67	1833.96
1015.84	1636.53
1016.00	1685.27
1016.16	2014.79
1016.32	1974.45
1016.49	1629.16
1016.65	1606.02
1016.81	1851.16
1016.97	1929.60
1017.14	1761.25
1017.30	1641.65
1017.46	1808.77
1017.62	1883.72
1017.78	1705.14
1017.95	1622.81
1018.11	1964.82
1018.27	2143.40
1018.43	1762.89
1018.59	1705.96
1018.76	1972.19
1018.92	2238.23
1019.08	1613.39
1019.24	1661.93
1019.40	2037.73
1019.57	1929.19
1019.73	1739.54
1019.89	1677.70
1020.05	1906.45
1020.21	2120.47
1020.38	1634.69
1020.54	1771.49
1020.70	1940.25
1020.86	1957.45
1021.02	1666.02
1021.18	1631.62
1021.35	1812.25
1021.51	1941.88
1021.67	1779.68
1021.83	1654.55
1021.99	1858.94
1022.15	1901.54
1022.32	1738.73
1022.48	1691.21
1022.64	2045.10
1022.80	2077.66
1022.96	1702.27
1023.12	1606.02
1023.29	1969.74
1023.45	1920.99
1023.61	1641.04
1023.77	1822.28
1023.93	1893.76
1024.09	1766.99
1024.25	1624.45
1024.42	1599.87
1024.58	1804.87
1024.74	1899.29
1024.90	1659.47
1025.06	1720.91
1025.22	1799.75
1025.38	2068.45
1025.54	1595.78
1025.71	1729.30
1025.87	1952.94
1026.03	1948.03
1026.19	1598.03
1026.35	1786.44
1026.51	1941.68
1026.67	1873.69
1026.83	1674.83
1026.99	1746.71
1027.16	1949.87
1027.32	1851.16
1027.48	1674.42
1027.64	1616.46
1027.80	1939.84
1027.96	1889.66
1028.12	1656.40
1028.28	1631.82
1028.44	1906.66
1028.60	2067.83
1028.77	1755.11
1028.93	1681.79
1029.09	1816.55
1029.25	1782.35
1029.41	1701.86
1029.57	1751.01
1029.73	1888.23
1029.89	2045.31
1030.05	1758.80
1030.21	1728.49
1030.37	2143.20
1030.53	1940.25
1030.69	1673.80
1030.85	1614.82
1031.02	1759.21
1031.18	1868.77
1031.34	1671.55
1031.50	1726.85
1031.66	1780.50
1031.82	2067.01
1031.98	1702.68
1032.14	1614.62
1032.30	1775.38
1032.46	2002.71
1032.62	1762.69
1032.78	1610.11
1032.94	1779.28
1033.10	1838.67
1033.26	1718.45
1033.42	1774.97
1033.58	2163.27
1033.74	1808.15
1033.90	1629.16
1034.06	1818.39
1034.22	2136.44
1034.38	2004.96
1034.54	1690.39
1034.70	1704.93
1034.86	2098.76
>>>>>End Processed Spectral Data<<<<<
