SpectraSuite Data File
++++++++++++++++++++++++++++++++++++
Date: Thu Mar 30 16:29:00 PDT 2017
User: UCSD _CER
Dark Spectrum Present: No
Reference Spectrum Present: No
Number of Sampled Component Spectra: 1
Spectrometers: USB4C00073
Integration Time (usec): 250000 (USB4C00073)
Spectra Averaged: 10 (USB4C00073)
Boxcar Smoothing: 0 (USB4C00073)
Correct for Electrical Dark: No (USB4C00073)
Strobe/Lamp Enabled: No (USB4C00073)
Correct for Detector Non-linearity: No (USB4C00073)
Correct for Stray Light: No (USB4C00073)
Number of Pixels in Processed Spectrum: 3648
>>>>>Begin Processed Spectral Data<<<<<
345.37	1267.90
345.58	1267.90
345.80	1267.90
346.01	1261.96
346.22	1283.46
346.43	1967.28
346.65	1785.83
346.86	2108.38
347.07	2099.78
347.28	1800.98
347.50	1816.55
347.71	1917.31
347.92	1744.46
348.13	1821.67
348.35	1705.96
348.56	1936.15
348.77	1769.65
348.98	1821.67
349.20	1665.41
349.41	1930.82
349.62	2017.45
349.83	1869.39
350.05	1748.35
350.26	2000.05
350.47	2110.23
350.68	1776.20
350.90	1721.52
351.11	2128.66
351.32	2065.17
351.53	1846.04
351.75	1747.53
351.96	1973.83
352.17	1936.15
352.38	1858.94
352.60	1887.20
352.81	1975.47
353.02	2158.35
353.23	1809.99
353.44	1840.71
353.66	1880.24
353.87	1917.72
354.08	1923.86
354.29	1849.52
354.51	1861.81
354.72	1889.46
354.93	1814.91
355.14	1747.12
355.35	1765.35
355.57	2058.00
355.78	1834.37
355.99	1886.18
356.20	1928.98
356.42	1898.67
356.63	1913.21
356.84	1846.65
357.05	2072.54
357.26	2217.95
357.48	1952.74
357.69	1870.61
357.90	2006.19
358.11	1890.28
358.32	1848.09
358.54	1880.85
358.75	1892.94
358.96	2048.58
359.17	1799.55
359.38	1817.98
359.60	2090.36
359.81	1928.57
360.02	1822.28
360.23	1785.42
360.44	1837.64
360.66	2058.41
360.87	1766.99
361.08	1768.63
361.29	1967.48
361.50	1939.43
361.72	1801.80
361.93	1841.74
362.14	1923.45
362.35	1746.92
362.56	1914.03
362.77	1725.21
362.99	2015.20
363.20	1943.52
363.41	1883.11
363.62	1703.91
363.83	1982.64
364.05	2062.30
364.26	1696.54
364.47	1782.96
364.68	2030.56
364.89	1827.40
365.10	1736.68
365.32	1809.79
365.53	1804.26
365.74	1852.59
365.95	1800.37
366.16	1737.29
366.37	1923.66
366.59	1887.00
366.80	1804.67
367.01	1694.90
367.22	2170.44
367.43	2311.34
367.64	1806.92
367.86	1835.18
368.07	1975.06
368.28	2058.62
368.49	1742.41
368.70	1842.76
368.91	1877.58
369.12	1890.28
369.34	1706.16
369.55	1731.76
369.76	1890.28
369.97	1866.11
370.18	1739.34
370.39	1738.32
370.60	1777.84
370.82	1793.20
371.03	1825.15
371.24	1750.40
371.45	1991.24
371.66	1995.34
371.87	1840.51
372.08	1804.06
372.30	1811.63
372.51	2066.81
372.72	1934.10
372.93	1830.27
373.14	2161.63
373.35	1865.09
373.56	1771.49
373.78	1835.80
373.99	2018.89
374.20	2312.77
374.41	1811.84
374.62	1811.22
374.83	2118.83
375.04	1888.84
375.25	1827.20
375.47	1779.07
375.68	1879.22
375.89	2010.49
376.10	1825.35
376.31	1908.71
376.52	1964.82
376.73	1949.87
376.94	1836.82
377.15	1789.72
377.37	1913.01
377.58	1899.08
377.79	1704.32
378.00	1778.05
378.21	1962.16
378.42	2005.78
378.63	1867.34
378.84	1908.50
379.05	2064.56
379.27	1946.59
379.48	1950.49
379.69	1785.42
379.90	2097.53
380.11	1710.67
380.32	1855.05
380.53	1957.45
380.74	2102.24
380.95	1959.91
381.16	1829.45
381.37	1832.11
381.59	2122.31
381.80	2048.99
382.01	1773.54
382.22	1722.14
382.43	1980.59
382.64	1936.97
382.85	1761.25
383.06	1891.09
383.27	2064.56
383.48	1912.80
383.69	1881.26
383.91	1803.03
384.12	2041.82
384.33	2089.75
384.54	1927.96
384.75	1831.91
384.96	2436.88
385.17	2143.40
385.38	1886.38
385.59	1887.00
385.80	2074.80
386.01	2166.34
386.22	1941.47
386.43	1883.52
386.64	2266.90
386.86	1969.53
387.07	1991.44
387.28	1800.98
387.49	1937.17
387.70	2145.45
387.91	1943.52
388.12	1830.88
388.33	2054.73
388.54	1912.60
388.75	1837.44
388.96	1883.52
389.17	1889.87
389.38	1900.72
389.59	1882.90
389.80	1875.32
390.01	1936.56
390.22	1887.00
390.43	1939.63
390.64	1729.51
390.86	2001.48
391.07	2053.70
391.28	1853.21
391.49	1865.90
391.70	1780.09
391.91	1862.42
392.12	1862.63
392.33	1830.06
392.54	1962.98
392.75	1939.63
392.96	1932.67
393.17	1800.78
393.38	2209.14
393.59	2055.34
393.80	1754.49
394.01	1836.41
394.22	1942.09
394.43	2201.16
394.64	1788.90
394.85	1969.12
395.06	1954.58
395.27	1987.96
395.48	1831.29
395.69	1741.80
395.90	1934.51
396.11	1947.21
396.32	1787.67
396.53	1919.56
396.74	1922.02
396.95	2079.71
397.16	1791.97
397.37	1755.31
397.58	2032.61
397.79	1920.79
398.00	1877.17
398.21	1813.27
398.42	1964.62
398.63	2188.46
398.84	1810.40
399.05	1814.30
399.26	2096.71
399.47	1971.37
399.68	1640.63
399.89	1756.95
400.10	1796.07
400.31	1894.99
400.52	1862.63
400.73	1854.64
400.94	1791.56
401.15	2020.32
401.36	1850.75
401.57	1899.70
401.78	2104.90
401.99	2055.75
402.20	1763.71
402.41	1963.59
402.62	2134.60
402.83	1927.14
403.04	1802.62
403.25	1961.13
403.46	2013.15
403.67	2169.00
403.88	1908.71
404.09	1902.97
404.30	1930.42
404.51	1904.00
404.72	1814.09
404.93	1950.90
405.14	1872.25
405.35	1943.93
405.56	1841.12
405.77	1791.77
405.98	1951.71
406.19	1923.45
406.40	1819.42
406.61	1882.70
406.82	1927.34
407.03	2311.34
407.24	1807.33
407.45	1916.28
407.66	2036.09
407.87	2080.74
408.08	1913.83
408.29	1933.08
408.49	1996.97
408.70	1943.32
408.91	1859.15
409.12	1901.74
409.33	1816.96
409.54	2095.48
409.75	1789.92
409.96	1850.34
410.17	2061.69
410.38	1919.36
410.59	1796.68
410.80	1954.17
411.01	1920.59
411.22	1891.50
411.43	1884.75
411.64	1779.89
411.85	1835.18
412.06	1819.83
412.27	1674.62
412.47	1809.79
412.68	1937.79
412.89	1979.98
413.10	1799.55
413.31	1745.28
413.52	2194.81
413.73	2194.81
413.94	1795.66
414.15	1937.17
414.36	1876.96
414.57	1843.99
414.78	1766.17
414.99	1954.38
415.19	2284.92
415.40	2301.30
415.61	2347.18
415.82	2223.48
416.03	2312.98
416.24	2200.75
416.45	1941.68
416.66	1880.44
416.87	1816.34
417.08	2056.98
417.29	1825.56
417.50	1893.96
417.70	2059.64
417.91	2064.97
418.12	1976.09
418.33	1966.05
418.54	2139.10
418.75	2272.02
418.96	2283.08
419.17	2362.33
419.38	2742.23
419.59	2718.88
419.79	2547.47
420.00	2439.95
420.21	2700.04
420.42	2212.63
420.63	1984.69
420.84	1978.95
421.05	1955.81
421.26	1910.75
421.47	1782.96
421.67	2091.59
421.88	1871.84
422.09	1844.81
422.30	2054.11
422.51	1898.47
422.72	2225.32
422.93	2074.59
423.14	1890.68
423.35	1776.00
423.55	1755.52
423.76	1838.67
423.97	1849.93
424.18	1720.91
424.39	1933.49
424.60	2069.27
424.81	1862.83
425.02	2039.78
425.22	2120.67
425.43	2138.90
425.64	2284.71
425.85	2240.27
426.06	2545.22
426.27	2408.62
426.48	2238.43
426.68	2227.78
426.89	2355.78
427.10	2448.76
427.31	2089.95
427.52	1938.20
427.73	2149.55
427.94	2062.92
428.14	1988.78
428.35	1897.85
428.56	2130.50
428.77	2090.16
428.98	1902.36
429.19	1954.79
429.40	2015.20
429.60	2051.04
429.81	2103.06
430.02	2001.68
430.23	2016.02
430.44	2085.65
430.65	1848.70
430.85	1888.43
431.06	2011.51
431.27	1754.90
431.48	1862.42
431.69	1869.39
431.90	1969.12
432.10	2006.80
432.31	1975.88
432.52	1982.02
432.73	2506.10
432.94	2427.25
433.15	2259.52
433.35	2085.24
433.56	2301.92
433.77	2146.68
433.98	2511.42
434.19	2612.59
434.40	2869.61
434.60	2847.91
434.81	2734.86
435.02	2460.22
435.23	2291.27
435.44	2167.77
435.64	1922.84
435.85	1879.01
436.06	1945.78
436.27	1967.07
436.48	1859.56
436.68	1913.01
436.89	2302.33
437.10	2247.65
437.31	2050.02
437.52	2109.20
437.73	2130.09
437.93	2113.09
438.14	1989.60
438.35	1789.72
438.56	1916.28
438.77	1956.01
438.97	1969.12
439.18	1881.26
439.39	2250.72
439.60	2026.67
439.80	1999.84
440.01	2092.82
440.22	2024.62
440.43	2118.83
440.64	1833.14
440.84	1928.98
441.05	1837.64
441.26	2306.63
441.47	1901.33
441.68	1923.66
441.88	2245.19
442.09	2343.29
442.30	2542.35
442.51	2487.87
442.71	2403.91
442.92	2358.24
443.13	2104.29
443.34	1996.77
443.55	1987.14
443.75	2099.78
443.96	1832.93
444.17	1799.14
444.38	2068.24
444.58	1819.62
444.79	1895.80
445.00	1866.93
445.21	1916.08
445.41	1908.91
445.62	1663.57
445.83	1909.94
446.04	1931.44
446.24	1768.42
446.45	1658.24
446.66	1811.43
446.87	1990.22
447.07	1878.60
447.28	2070.91
447.49	1904.82
447.70	2121.08
447.90	2111.87
448.11	1908.50
448.32	1976.09
448.53	2121.29
448.73	2149.96
448.94	1880.44
449.15	1999.23
449.36	1938.61
449.56	1994.31
449.77	1838.05
449.98	1775.79
450.19	1914.24
450.39	2005.58
450.60	1982.64
450.81	1977.52
451.02	2055.75
451.22	2208.32
451.43	1850.95
451.64	1876.55
451.84	1941.27
452.05	2147.09
452.26	1911.16
452.47	1850.75
452.67	1878.19
452.88	2143.40
453.09	1816.96
453.30	1799.35
453.50	2047.56
453.71	2241.30
453.92	1987.55
454.12	2127.02
454.33	2039.78
454.54	2084.22
454.75	1868.98
454.95	1836.00
455.16	2006.80
455.37	2047.97
455.57	1912.39
455.78	1859.56
455.99	1935.94
456.19	1940.45
456.40	1801.60
456.61	1872.87
456.82	1948.64
457.02	2089.13
457.23	2068.04
457.44	2206.48
457.64	2074.80
457.85	2191.33
458.06	1997.18
458.26	2142.38
458.47	2072.54
458.68	2206.89
458.89	1911.37
459.09	2087.90
459.30	2266.28
459.51	2045.10
459.71	1810.40
459.92	1885.16
460.13	2133.37
460.33	2384.45
460.54	2018.27
460.75	2031.99
460.95	1994.11
461.16	2096.10
461.37	1892.53
461.57	1934.10
461.78	2017.04
461.99	1846.65
462.19	2099.58
462.40	1817.57
462.61	2212.42
462.81	2098.96
463.02	1803.65
463.23	1827.61
463.43	2027.69
463.64	1875.94
463.85	2734.65
464.05	1808.15
464.26	2329.77
464.47	2115.76
464.67	1986.32
464.88	1966.05
465.09	1991.65
465.29	2133.78
465.50	2184.77
465.71	2069.06
465.91	2033.43
466.12	1976.29
466.33	1931.23
466.53	1871.23
466.74	2130.50
466.94	1965.23
467.15	1884.54
467.36	2053.91
467.56	1828.22
467.77	1975.27
467.98	1897.65
468.18	1825.56
468.39	1906.66
468.60	2202.80
468.80	1885.77
469.01	1793.20
469.21	2004.35
469.42	2068.04
469.63	1865.90
469.83	1809.99
470.04	2071.73
470.25	2192.76
470.45	1925.91
470.66	1824.13
470.86	1988.78
471.07	1897.85
471.28	1944.55
471.48	1980.80
471.69	1977.93
471.90	2560.17
472.10	2098.76
472.31	2113.91
472.51	2127.43
472.72	2162.45
472.93	2103.06
473.13	2308.06
473.34	2320.14
473.54	2240.07
473.75	2061.28
473.96	2137.06
474.16	2010.49
474.37	2053.29
474.57	1933.90
474.78	1853.21
474.99	2026.06
475.19	2008.44
475.40	1840.51
475.60	1873.69
475.81	2329.97
476.02	2201.36
476.22	2208.94
476.43	2297.00
476.63	2076.03
476.84	2186.82
477.05	1789.52
477.25	1890.07
477.46	2360.08
477.66	2007.83
477.87	1804.87
478.08	1862.42
478.28	2061.89
478.49	1918.95
478.69	1795.45
478.90	1837.23
479.10	2018.89
479.31	2109.41
479.52	1896.62
479.72	2202.59
479.93	2468.83
480.13	2481.32
480.34	2496.88
480.54	2608.09
480.75	2288.20
480.96	2321.58
481.16	1981.20
481.37	2072.54
481.57	2180.47
481.78	2084.01
481.98	2127.02
482.19	1987.14
482.40	2230.24
482.60	2019.91
482.81	1915.26
483.01	1826.99
483.22	2047.76
483.42	2038.34
483.63	1945.57
483.83	1960.11
484.04	2026.26
484.24	2203.20
484.45	2097.94
484.66	1965.44
484.86	2152.42
485.07	1912.19
485.27	1969.53
485.48	1835.39
485.68	2150.37
485.89	1902.77
486.09	1957.86
486.30	1885.16
486.50	1986.12
486.71	1971.99
486.91	1957.86
487.12	2303.76
487.33	2873.50
487.53	3027.92
487.74	2920.40
487.94	2783.60
488.15	2565.49
488.35	2344.11
488.56	2141.36
488.76	2077.87
488.97	2097.73
489.17	2168.39
489.38	2030.15
489.58	1982.02
489.79	2119.03
489.99	2067.83
490.20	1930.42
490.40	2017.66
490.61	2037.93
490.81	1895.40
491.02	1921.40
491.22	1948.44
491.43	2010.90
491.63	1957.04
491.84	1997.59
492.04	1773.13
492.25	2031.58
492.45	1936.35
492.66	1908.91
492.86	1813.89
493.07	1992.47
493.27	2278.57
493.48	1814.50
493.68	1890.68
493.89	1939.02
494.09	2064.97
494.30	1830.68
494.50	2134.60
494.71	2001.68
494.91	1789.11
495.12	1868.36
495.32	1937.79
495.53	1954.38
495.73	1884.54
495.94	2053.70
496.14	1978.95
496.35	2409.23
496.55	2103.26
496.76	1995.95
496.96	2019.71
497.17	1993.90
497.37	2047.97
497.58	1860.37
497.78	1779.48
497.98	1934.72
498.19	1939.22
498.39	1895.19
498.60	1940.86
498.80	1749.58
499.01	2046.94
499.21	1804.67
499.42	1910.96
499.62	1913.42
499.83	2234.54
500.03	1814.50
500.24	2038.96
500.44	2252.36
500.64	2238.23
500.85	2051.66
501.05	2110.23
501.26	1877.78
501.46	2213.65
501.67	1930.82
501.87	1828.63
502.08	1872.46
502.28	1933.90
502.48	1960.52
502.69	1997.59
502.89	1752.65
503.10	1859.56
503.30	1922.02
503.51	1917.10
503.71	1805.90
503.92	2008.65
504.12	1927.34
504.32	1866.93
504.53	2065.17
504.73	2047.35
504.94	2005.17
505.14	2085.65
505.35	2108.18
505.55	2089.75
505.75	2051.66
505.96	2151.19
506.16	2349.22
506.37	1977.52
506.57	1884.54
506.78	1961.13
506.98	2118.01
507.18	1822.49
507.39	1862.22
507.59	1952.33
507.80	1902.15
508.00	1970.15
508.20	2062.71
508.41	1911.98
508.61	2129.48
508.82	2069.06
509.02	2011.72
509.22	1839.08
509.43	1837.03
509.63	1885.97
509.84	1896.62
510.04	1773.54
510.24	2126.20
510.45	2052.68
510.65	1806.10
510.86	1910.96
511.06	1806.51
511.26	2045.31
511.47	1973.22
511.67	1826.58
511.88	2018.27
512.08	2101.22
512.28	1784.19
512.49	1993.90
512.69	1962.77
512.90	1977.11
513.10	1802.21
513.30	1934.31
513.51	2039.78
513.71	2202.39
513.91	2028.51
514.12	2056.57
514.32	2157.54
514.53	1952.74
514.73	1992.47
514.93	1892.32
515.14	1973.63
515.34	2138.08
515.54	1929.39
515.75	1981.82
515.95	2057.59
516.15	2147.50
516.36	1954.38
516.56	1982.64
516.77	1702.27
516.97	2013.97
517.17	1874.30
517.38	1971.58
517.58	2133.16
517.78	1907.48
517.99	1951.10
518.19	1919.56
518.39	2132.96
518.60	1928.16
518.80	1856.48
519.00	1986.12
519.21	1935.94
519.41	2147.70
519.61	1859.76
519.82	1942.09
520.02	1968.71
520.22	1946.39
520.43	1894.99
520.63	1916.49
520.83	1856.07
521.04	1756.75
521.24	1943.93
521.44	1867.95
521.65	1824.54
521.85	2029.33
522.05	1839.90
522.26	1862.01
522.46	2162.66
522.66	2028.51
522.87	1865.90
523.07	2011.11
523.27	1901.95
523.48	2114.32
523.68	1940.04
523.88	1909.53
524.09	2078.07
524.29	1985.92
524.49	1725.41
524.70	1997.38
524.90	2122.92
525.10	1996.36
525.31	1778.05
525.51	1795.04
525.71	2032.81
525.91	2013.36
526.12	1871.43
526.32	1783.99
526.52	1901.13
526.73	1851.36
526.93	1944.55
527.13	1762.89
527.34	1922.22
527.54	1924.68
527.74	1860.17
527.94	1794.43
528.15	1798.73
528.35	1944.96
528.55	1989.81
528.76	1957.86
528.96	1734.02
529.16	2045.72
529.36	2020.53
529.57	1797.50
529.77	2071.52
529.97	1839.49
530.18	1968.51
530.38	1861.60
530.58	1981.20
530.78	1961.13
530.99	1861.81
531.19	1944.14
531.39	1854.23
531.60	1917.10
531.80	1881.47
532.00	1999.43
532.20	1977.31
532.41	1871.23
532.61	1864.68
532.81	1868.98
533.01	1882.08
533.22	1993.49
533.42	2013.36
533.62	1727.46
533.82	2125.38
534.03	1915.67
534.23	1970.97
534.43	1826.58
534.63	1896.83
534.84	1990.22
535.04	1978.34
535.24	1933.28
535.44	2320.55
535.65	1904.20
535.85	1871.84
536.05	1865.70
536.25	1969.53
536.46	1831.70
536.66	2047.56
536.86	1935.33
537.06	2050.43
537.27	2122.92
537.47	1999.23
537.67	1871.84
537.87	2145.04
538.08	1916.08
538.28	1829.45
538.48	1797.50
538.68	1952.94
538.88	2018.48
539.09	1786.85
539.29	1890.07
539.49	2074.39
539.69	1999.64
539.90	1954.58
540.10	1811.43
540.30	2126.82
540.50	1873.48
540.70	1794.43
540.91	1922.22
541.11	2039.57
541.31	2150.98
541.51	1974.65
541.72	1973.63
541.92	2005.99
542.12	1870.41
542.32	1883.52
542.52	1858.12
542.73	1883.72
542.93	2044.49
543.13	1908.30
543.33	1967.69
543.53	2056.98
543.74	2023.19
543.94	1894.58
544.14	2009.88
544.34	2124.77
544.54	1961.75
544.75	2003.73
544.95	2131.53
545.15	2064.97
545.35	2173.10
545.55	2007.42
545.75	1882.08
545.96	2256.86
546.16	1819.42
546.36	1918.95
546.56	1925.91
546.76	2063.53
546.97	2173.30
547.17	1909.12
547.37	2011.11
547.57	1910.96
547.77	2039.78
547.97	1955.81
548.18	1987.14
548.38	1944.34
548.58	2122.72
548.78	1873.28
548.98	1962.77
549.18	2070.50
549.39	2213.24
549.59	2008.44
549.79	1970.56
549.99	2182.93
550.19	2087.08
550.39	2025.65
550.60	1928.16
550.80	2000.46
551.00	2040.39
551.20	1905.23
551.40	1896.21
551.60	2029.54
551.80	1990.01
552.01	2031.79
552.21	1934.51
552.41	1977.31
552.61	2190.10
552.81	1984.07
553.01	1843.99
553.21	1993.29
553.42	1862.22
553.62	1866.31
553.82	1826.38
554.02	2112.27
554.22	2048.17
554.42	1815.73
554.62	1977.52
554.83	2198.29
555.03	2188.25
555.23	1957.65
555.43	2201.77
555.63	2078.89
555.83	2055.96
556.03	1971.78
556.23	1807.95
556.44	2015.82
556.64	2130.71
556.84	1708.62
557.04	1895.60
557.24	2006.80
557.44	1978.13
557.64	1961.34
557.84	1825.35
558.04	1936.97
558.25	2055.34
558.45	1857.71
558.65	1943.73
558.85	1939.63
559.05	1717.43
559.25	1858.33
559.45	1982.43
559.65	2239.45
559.85	2647.61
560.05	2024.01
560.26	2049.81
560.46	2050.43
560.66	1946.39
560.86	1931.23
561.06	1845.63
561.26	2145.25
561.46	2045.31
561.66	1903.18
561.86	2012.74
562.06	1860.99
562.26	1950.90
562.47	1949.87
562.67	1795.86
562.87	1993.29
563.07	1799.96
563.27	1912.39
563.47	1950.69
563.67	1883.31
563.87	2017.86
564.07	1866.93
564.27	1927.14
564.47	1993.29
564.67	2015.41
564.87	1893.14
565.08	2004.76
565.28	1894.17
565.48	2028.51
565.68	1973.63
565.88	1991.65
566.08	2179.65
566.28	1966.66
566.48	1797.71
566.68	1901.13
566.88	1934.31
567.08	2082.58
567.28	1921.20
567.48	1918.95
567.68	2028.92
567.88	1782.35
568.08	1943.52
568.28	2053.09
568.48	1915.67
568.68	2086.06
568.89	1935.33
569.09	1751.63
569.29	2064.97
569.49	2067.83
569.69	1828.84
569.89	1833.55
570.09	1746.10
570.29	1868.98
570.49	1779.28
570.69	1835.39
570.89	2040.60
571.09	2198.90
571.29	1761.87
571.49	2063.12
571.69	2001.28
571.89	2025.44
572.09	1857.92
572.29	1892.12
572.49	2055.75
572.69	2033.63
572.89	1942.29
573.09	1699.20
573.29	1953.15
573.49	2004.96
573.69	1937.79
573.89	2021.96
574.09	1884.34
574.29	2113.91
574.49	1897.44
574.69	1883.31
574.89	1826.79
575.09	1847.27
575.29	1838.46
575.49	1922.02
575.69	1977.93
575.89	1799.14
576.09	1952.33
576.29	1954.38
576.49	1862.42
576.69	1927.55
576.89	1893.35
577.09	1927.34
577.29	1797.91
577.49	2193.17
577.69	1842.56
577.89	2010.08
578.09	1949.26
578.29	1767.19
578.49	1944.75
578.69	1864.06
578.89	2057.18
579.09	1958.88
579.29	1823.92
579.49	2017.04
579.69	1920.79
579.89	2165.52
580.09	1748.97
580.29	1746.51
580.49	1888.84
580.69	1815.11
580.89	1878.60
581.09	1885.77
581.29	1884.13
581.49	1935.33
581.69	1836.41
581.89	1823.10
582.09	1832.32
582.28	1838.05
582.48	2011.51
582.68	2071.73
582.88	2107.36
583.08	1939.43
583.28	1909.32
583.48	1961.75
583.68	1845.63
583.88	1947.21
584.08	1951.30
584.28	1927.55
584.48	2217.95
584.68	1994.72
584.88	1898.88
585.08	2079.51
585.28	2064.35
585.48	2128.66
585.68	2002.30
585.87	2056.16
586.07	2017.86
586.27	1945.57
586.47	2016.63
586.67	1947.41
586.87	1975.47
587.07	1925.30
587.27	1829.25
587.47	1973.83
587.67	2166.75
587.87	2340.42
588.07	2056.57
588.27	1982.64
588.46	2140.54
588.66	2163.27
588.86	1997.38
589.06	2051.66
589.26	2130.50
589.46	2087.70
589.66	1866.52
589.86	1830.27
590.06	1935.74
590.26	2051.86
590.46	1948.64
590.66	2038.96
590.85	1982.64
591.05	2089.75
591.25	1895.40
591.45	1939.84
591.65	2063.94
591.85	2009.67
592.05	1934.72
592.25	2062.30
592.45	2105.11
592.64	1942.29
592.84	1983.05
593.04	1871.84
593.24	2322.19
593.44	1911.57
593.64	1985.92
593.84	2021.35
594.04	1920.59
594.24	2180.88
594.43	1880.65
594.63	1956.01
594.83	2086.47
595.03	2067.22
595.23	1845.42
595.43	1785.62
595.63	1857.10
595.83	2056.78
596.02	1712.10
596.22	1918.54
596.42	1957.24
596.62	1945.78
596.82	1852.18
597.02	2007.01
597.22	2111.25
597.41	1995.54
597.61	1887.41
597.81	2004.76
598.01	2051.66
598.21	1920.38
598.41	1872.05
598.61	1850.54
598.80	1981.61
599.00	2007.83
599.20	2069.88
599.40	1907.07
599.60	1923.86
599.80	2096.71
599.99	2094.66
600.19	1937.38
600.39	1976.49
600.59	2046.54
600.79	1982.64
600.99	1947.41
601.19	2194.60
601.38	2210.78
601.58	1994.31
601.78	1738.93
601.98	2063.33
602.18	2147.30
602.37	2341.65
602.57	2224.09
602.77	2366.22
602.97	2329.15
603.17	2394.69
603.37	2219.79
603.56	2330.18
603.76	2298.64
603.96	2216.52
604.16	2197.06
604.36	2285.53
604.56	2230.65
604.75	1960.73
604.95	2058.00
605.15	2240.07
605.35	2163.88
605.55	1982.43
605.74	1927.14
605.94	2155.90
606.14	2027.08
606.34	2013.15
606.54	1958.47
606.73	1928.57
606.93	2058.21
607.13	1873.89
607.33	1959.50
607.53	2138.28
607.72	2094.05
607.92	2001.68
608.12	2028.10
608.32	1949.87
608.51	2040.39
608.71	1856.89
608.91	1967.48
609.11	2054.32
609.31	1930.01
609.50	1993.90
609.70	2165.32
609.90	2098.55
610.10	2070.50
610.29	1931.85
610.49	1875.73
610.69	2089.54
610.89	1985.51
611.09	2024.62
611.28	2074.39
611.48	2117.80
611.68	1947.41
611.88	1897.03
612.07	1880.04
612.27	2050.22
612.47	1882.08
612.67	2015.61
612.86	2045.10
613.06	1977.11
613.26	1779.07
613.46	1886.18
613.65	1947.00
613.85	2327.93
614.05	2071.52
614.25	2039.98
614.44	1933.28
614.64	1970.15
614.84	1870.61
615.04	1868.16
615.23	1865.90
615.43	2041.62
615.63	2022.57
615.83	1826.79
616.02	1799.75
616.22	2037.73
616.42	1856.89
616.62	1841.33
616.81	1925.50
617.01	2025.24
617.21	1975.88
617.41	1886.79
617.60	1927.75
617.80	2012.95
618.00	2041.01
618.19	1987.35
618.39	1968.71
618.59	2011.31
618.79	1944.34
618.98	1739.75
619.18	1930.21
619.38	2213.85
619.57	1938.20
619.77	1907.07
619.97	1892.12
620.17	1842.35
620.36	1822.90
620.56	2047.76
620.76	1803.44
620.95	1802.83
621.15	1889.05
621.35	1832.11
621.54	1912.19
621.74	1967.69
621.94	1868.16
622.14	1821.67
622.33	1771.08
622.53	1929.39
622.73	1895.80
622.92	1815.52
623.12	1924.48
623.32	2161.22
623.51	2037.93
623.71	1819.42
623.91	2042.85
624.10	1843.79
624.30	1949.67
624.50	1826.17
624.69	1811.63
624.89	2442.20
625.09	1872.87
625.29	1740.16
625.48	1806.92
625.68	1978.75
625.88	2082.37
626.07	1952.74
626.27	1830.06
626.47	1867.95
626.66	1719.68
626.86	1914.24
627.06	1891.91
627.25	1951.92
627.45	2146.07
627.64	1925.09
627.84	2083.60
628.04	1875.73
628.23	2203.20
628.43	1842.56
628.63	1835.39
628.82	1881.88
629.02	2182.52
629.22	2031.79
629.41	2104.08
629.61	1995.75
629.81	2186.21
630.00	1848.29
630.20	1845.42
630.40	2015.20
630.59	2010.70
630.79	1929.39
630.98	1907.48
631.18	1938.81
631.38	1945.57
631.57	2033.02
631.77	1766.37
631.97	1954.38
632.16	1982.84
632.36	1935.74
632.56	1934.92
632.75	1974.86
632.95	2036.30
633.14	1794.84
633.34	2086.88
633.54	1757.77
633.73	1899.29
633.93	1863.04
634.12	1775.18
634.32	2256.86
634.52	1936.56
634.71	1799.35
634.91	1971.78
635.11	1802.62
635.30	1861.81
635.50	1965.44
635.69	1833.14
635.89	2185.18
636.09	2079.51
636.28	1822.08
636.48	1851.98
636.67	2043.05
636.87	2024.21
637.07	2002.71
637.26	1856.89
637.46	2004.55
637.65	2102.85
637.85	1981.20
638.04	1901.33
638.24	1929.80
638.44	2012.74
638.63	1932.87
638.83	1910.55
639.02	2011.72
639.22	2023.19
639.42	1920.99
639.61	1941.68
639.81	1970.97
640.00	1960.52
640.20	2012.54
640.39	1991.24
640.59	2270.38
640.79	2189.07
640.98	2139.31
641.18	2095.48
641.37	2124.77
641.57	2045.72
641.76	2028.51
641.96	1830.47
642.15	2025.24
642.35	1971.58
642.55	2035.07
642.74	1875.32
642.94	2079.71
643.13	2157.74
643.33	1936.76
643.52	1904.00
643.72	1905.84
643.91	1951.92
644.11	1900.11
644.31	1869.80
644.50	1897.65
644.70	2118.83
644.89	1947.41
645.09	2013.15
645.28	1984.89
645.48	2010.08
645.67	1844.20
645.87	1758.59
646.06	1919.36
646.26	2011.92
646.45	1750.60
646.65	1734.02
646.84	2199.72
647.04	1907.07
647.24	1831.09
647.43	1973.42
647.63	1972.81
647.82	2155.69
648.02	1826.17
648.21	1874.92
648.41	2158.76
648.60	1895.19
648.80	2067.22
648.99	1969.12
649.19	1891.71
649.38	1760.43
649.58	1953.15
649.77	1973.01
649.97	2120.47
650.16	2012.74
650.36	1733.20
650.55	2039.57
650.75	1980.18
650.94	2157.74
651.14	1935.54
651.33	1958.47
651.53	2192.35
651.72	1889.66
651.92	1915.67
652.11	1756.13
652.31	2034.86
652.50	2034.86
652.70	1964.41
652.89	1816.14
653.09	2145.66
653.28	1929.60
653.48	1731.76
653.67	1796.07
653.87	2374.62
654.06	1982.23
654.25	2091.59
654.45	1847.06
654.64	1933.28
654.84	1920.18
655.03	1722.34
655.23	2061.89
655.42	2043.46
655.62	2187.85
655.81	1984.28
656.01	1866.31
656.20	2072.75
656.40	2179.65
656.59	1977.93
656.79	2068.86
656.98	2003.32
657.17	2071.73
657.37	1959.09
657.56	1883.93
657.76	2010.70
657.95	2092.41
658.15	1662.95
658.34	1956.01
658.54	1944.14
658.73	1804.26
658.92	1893.55
659.12	1946.39
659.31	2046.54
659.51	1848.29
659.70	2002.09
659.90	1931.64
660.09	2081.15
660.29	1971.37
660.48	1869.59
660.67	2110.84
660.87	1894.78
661.06	2008.85
661.26	2033.22
661.45	2010.08
661.65	2024.83
661.84	1908.71
662.03	1850.75
662.23	1876.96
662.42	2216.11
662.62	1854.03
662.81	1848.29
663.00	1898.06
663.20	2001.48
663.39	2071.32
663.59	2137.87
663.78	1976.90
663.97	2005.99
664.17	2175.76
664.36	1858.94
664.56	1926.52
664.75	2082.17
664.94	2060.05
665.14	1992.88
665.33	1929.80
665.53	1989.40
665.72	1994.31
665.91	2109.20
666.11	1959.50
666.30	1969.12
666.50	1969.74
666.69	2008.03
666.88	2017.86
667.08	2085.04
667.27	2045.10
667.47	2095.89
667.66	2007.62
667.85	2195.22
668.05	2074.39
668.24	1928.16
668.43	2143.40
668.63	1984.69
668.82	2142.18
669.02	2053.91
669.21	1980.59
669.40	1848.29
669.60	2228.60
669.79	1793.20
669.98	2394.69
670.18	1848.29
670.37	1779.28
670.56	1908.71
670.76	1962.36
670.95	1920.18
671.15	2068.24
671.34	1948.03
671.53	1918.54
671.73	1877.58
671.92	1871.43
672.11	1810.40
672.31	1878.81
672.50	1957.24
672.69	1802.01
672.89	1702.48
673.08	1873.89
673.27	2029.74
673.47	1975.68
673.66	1968.71
673.85	1837.03
674.05	2004.76
674.24	2126.41
674.43	2073.98
674.63	2329.36
674.82	2618.74
675.01	2087.29
675.21	2349.02
675.40	2173.30
675.59	2110.02
675.79	2353.12
675.98	2089.75
676.17	2185.39
676.37	2121.90
676.56	1982.02
676.75	2014.79
676.95	2004.55
677.14	1945.98
677.33	2089.95
677.52	1825.15
677.72	1878.81
677.91	1979.57
678.10	1778.66
678.30	1827.61
678.49	1791.36
678.68	2211.81
678.88	1727.26
679.07	2050.84
679.26	1854.03
679.45	2174.94
679.65	2066.20
679.84	1748.56
680.03	1766.78
680.23	1908.50
680.42	2264.44
680.61	1785.62
680.81	1842.97
681.00	1945.57
681.19	1975.27
681.38	1996.97
681.58	1979.57
681.77	1881.88
681.96	2033.22
682.15	1872.25
682.35	1937.99
682.54	2009.88
682.73	1813.07
682.93	1818.80
683.12	1816.96
683.31	2011.11
683.50	2268.33
683.70	1844.81
683.89	1943.32
684.08	1846.65
684.27	2055.75
684.47	1782.96
684.66	1951.30
684.85	2173.92
685.04	2123.13
685.24	1873.89
685.43	1940.86
685.62	1769.24
685.81	2010.90
686.01	2069.68
686.20	2049.40
686.39	2041.01
686.58	2527.19
686.78	2301.30
686.97	2255.22
687.16	2306.01
687.35	2170.44
687.55	2042.44
687.74	2068.24
687.93	1970.35
688.12	2030.77
688.32	2052.88
688.51	1837.64
688.70	2038.55
688.89	1856.89
689.08	1774.16
689.28	1846.86
689.47	1951.71
689.66	1952.74
689.85	2006.39
690.05	1865.70
690.24	1856.69
690.43	1953.56
690.62	1964.82
690.81	1855.87
691.01	1953.35
691.20	1890.68
691.39	1854.85
691.58	1968.71
691.77	2159.17
691.97	1966.66
692.16	1948.85
692.35	1888.23
692.54	1872.87
692.73	2030.77
692.93	2003.12
693.12	2058.41
693.31	2091.39
693.50	2077.66
693.69	2095.28
693.89	1956.63
694.08	2194.60
694.27	2150.57
694.46	1875.12
694.65	1981.82
694.85	2079.10
695.04	2081.15
695.23	2208.94
695.42	3360.31
695.61	4477.88
695.80	5228.87
696.00	5967.78
696.19	6255.73
696.38	5487.74
696.57	4626.57
696.76	4470.10
696.95	4094.71
697.15	4040.23
697.34	3777.68
697.53	3316.89
697.72	3156.94
697.91	2879.03
698.10	2822.51
698.30	2328.34
698.49	2210.99
698.68	2133.37
698.87	2001.89
699.06	1868.57
699.25	1933.49
699.45	2115.35
699.64	1972.60
699.83	2032.81
700.02	1807.95
700.21	2016.02
700.40	1894.17
700.59	1871.43
700.79	1904.20
700.98	2004.96
701.17	1846.24
701.36	1874.10
701.55	1849.11
701.74	2093.23
701.93	1911.98
702.12	2097.32
702.32	2046.94
702.51	2297.82
702.70	2292.09
702.89	2160.81
703.08	2008.44
703.27	2245.39
703.46	2137.46
703.65	2020.53
703.85	1866.11
704.04	1954.17
704.23	2130.09
704.42	1880.85
704.61	1898.88
704.80	2137.06
704.99	1880.24
705.18	1991.04
705.37	2029.74
705.57	2935.56
705.76	4090.82
705.95	4498.36
706.14	5341.92
706.33	5854.32
706.52	5687.41
706.71	4487.30
706.90	4124.81
707.09	3971.01
707.28	3735.90
707.47	3383.65
707.67	3320.78
707.86	2993.52
708.05	3016.25
708.24	2666.86
708.43	2440.56
708.62	2217.13
708.81	2031.18
709.00	1914.24
709.19	1904.82
709.38	2088.11
709.57	1845.42
709.76	1983.66
709.96	1912.39
710.15	2145.25
710.34	1950.90
710.53	2047.15
710.72	1939.43
710.91	2091.80
711.10	2014.59
711.29	2024.42
711.48	1879.01
711.67	1812.04
711.86	2013.36
712.05	1799.75
712.24	1843.79
712.43	2015.61
712.62	2105.72
712.81	1958.06
713.00	2041.62
713.19	1799.55
713.39	2013.97
713.58	1905.02
713.77	2139.51
713.96	2286.35
714.15	2267.10
714.34	2265.67
714.53	2141.97
714.72	2435.85
714.91	2057.18
715.10	2132.35
715.29	1962.57
715.48	2466.16
715.67	2164.91
715.86	2053.50
716.05	1989.60
716.24	1958.27
716.43	1923.04
716.62	1835.59
716.81	1789.92
717.00	1911.37
717.19	2154.05
717.38	1935.74
717.57	1906.04
717.76	1765.76
717.95	2015.41
718.14	1921.40
718.33	1843.17
718.52	1736.47
718.71	1747.12
718.90	1786.03
719.09	1857.30
719.28	1914.44
719.47	2046.33
719.66	2007.62
719.85	2032.20
720.04	1912.19
720.23	2023.60
720.42	1877.37
720.61	2020.73
720.80	1820.85
720.99	1995.95
721.18	1890.48
721.37	1828.22
721.56	1889.66
721.75	2038.34
721.94	1821.67
722.13	1899.08
722.32	1915.67
722.51	2037.73
722.70	1924.27
722.89	1972.81
723.08	1925.09
723.27	2063.12
723.46	1959.70
723.65	1914.24
723.84	1870.00
724.03	2124.36
724.22	1789.11
724.41	1935.33
724.60	1918.54
724.79	2045.31
724.98	1990.42
725.16	1916.28
725.35	2013.56
725.54	1810.61
725.73	1936.56
725.92	1944.14
726.11	2107.56
726.30	2548.08
726.49	2516.34
726.68	2750.22
726.87	2915.28
727.06	2981.64
727.25	2509.38
727.44	2569.59
727.63	2483.98
727.82	2395.92
728.01	2348.82
728.20	2365.40
728.38	2442.41
728.57	2189.48
728.76	2141.56
728.95	2198.70
729.14	1920.38
729.33	1884.54
729.52	1759.00
729.71	1867.13
729.90	1845.22
730.09	1925.09
730.28	1951.30
730.47	1920.79
730.66	2146.48
730.84	2042.44
731.03	2039.37
731.22	2058.41
731.41	2017.45
731.60	2083.40
731.79	1814.71
731.98	1922.02
732.17	2063.74
732.36	2012.33
732.55	1881.47
732.73	1859.56
732.92	2130.71
733.11	2021.14
733.30	1903.79
733.49	1822.69
733.68	2044.69
733.87	2024.42
734.06	1882.90
734.25	1905.02
734.43	1971.58
734.62	2126.61
734.81	2080.33
735.00	2023.19
735.19	2035.27
735.38	2115.35
735.57	1891.50
735.76	2051.86
735.94	2112.68
736.13	2423.77
736.32	2318.92
736.51	2325.47
736.70	2581.06
736.89	2661.74
737.08	2904.43
737.27	4350.50
737.45	6377.17
737.64	7190.83
737.83	8281.99
738.02	8836.99
738.21	8357.35
738.40	6727.99
738.59	6069.16
738.77	5642.77
738.96	5297.28
739.15	4995.00
739.34	4637.63
739.53	4285.37
739.72	4102.29
739.90	3731.81
740.09	3071.95
740.28	2804.28
740.47	2636.96
740.66	2378.10
740.85	2077.25
741.03	2087.29
741.22	1954.58
741.41	2008.03
741.60	1867.13
741.79	2040.60
741.98	2137.06
742.16	2258.70
742.35	2038.34
742.54	2003.12
742.73	2323.22
742.92	2053.09
743.10	1937.79
743.29	1990.22
743.48	2364.38
743.67	2005.78
743.86	1882.08
744.05	1901.95
744.23	1954.99
744.42	1938.20
744.61	1993.70
744.80	1908.91
744.99	1959.29
745.17	1810.40
745.36	1848.29
745.55	2072.13
745.74	2027.69
745.93	1951.51
746.11	1954.58
746.30	1942.70
746.49	2135.21
746.68	1931.23
746.86	2042.85
747.05	1996.77
747.24	2099.58
747.43	2128.25
747.62	1866.72
747.80	1951.71
747.99	2205.87
748.18	2176.58
748.37	2119.03
748.56	2110.64
748.74	2250.72
748.93	2268.53
749.12	3408.64
749.31	6975.38
749.49	10097.10
749.68	12161.04
749.87	14078.35
750.06	14961.23
750.24	14131.19
750.43	13523.56
750.62	14744.97
750.81	15214.36
750.99	15874.83
751.18	15401.54
751.37	12872.92
751.56	10833.96
751.74	10510.18
751.93	9416.56
752.12	7836.76
752.31	6768.54
752.49	5884.22
752.68	5394.14
752.87	4523.14
753.06	3922.68
753.24	3437.31
753.43	3179.68
753.62	2572.66
753.81	2353.12
753.99	2423.98
754.18	2204.64
754.37	2014.38
754.55	2062.51
754.74	2273.65
754.93	1826.79
755.12	1941.88
755.30	1887.20
755.49	2127.84
755.68	2026.67
755.86	2031.38
756.05	1868.98
756.24	2198.49
756.43	1834.78
756.61	1844.40
756.80	2010.70
756.99	2145.25
757.17	2000.05
757.36	1847.88
757.55	1971.99
757.74	2070.70
757.92	2012.54
758.11	1848.09
758.30	1803.44
758.48	1957.24
758.67	1876.55
758.86	2045.31
759.04	1883.72
759.23	2020.73
759.42	2085.24
759.60	1973.42
759.79	1998.00
759.98	1962.77
760.16	1911.16
760.35	1921.40
760.54	1864.27
760.73	2018.48
760.91	1860.78
761.10	2002.50
761.29	2001.28
761.47	2003.53
761.66	2290.86
761.85	2066.81
762.03	2357.21
762.22	4225.57
762.41	10330.57
762.59	17488.63
762.78	21185.21
762.97	25835.33
763.15	27811.62
763.34	25000.37
763.52	18380.11
763.71	16856.63
763.90	15445.78
764.08	14323.90
764.27	13162.09
764.46	12094.69
764.64	10545.61
764.83	9469.19
765.02	8290.18
765.20	7107.89
765.39	5809.88
765.58	4404.57
765.76	3637.81
765.95	3034.48
766.13	2615.46
766.32	2327.72
766.51	2225.32
766.69	2728.71
766.88	2125.79
767.07	1936.15
767.25	1830.68
767.44	2101.42
767.62	2187.44
767.81	1904.82
768.00	1991.65
768.18	1991.65
768.37	1899.29
768.56	1807.33
768.74	1880.44
768.93	1781.94
769.11	2030.97
769.30	1954.17
769.49	1867.54
769.67	1934.31
769.86	1903.59
770.04	1916.08
770.23	1917.51
770.42	2128.45
770.60	1964.41
770.79	1847.88
770.97	1994.31
771.16	2840.12
771.35	4465.39
771.53	5949.35
771.72	6850.66
771.90	7997.52
772.09	8500.91
772.27	7461.36
772.46	5775.07
772.65	5751.72
772.83	5297.69
773.02	5056.03
773.20	4596.87
773.39	4481.77
773.58	4141.40
773.76	3599.51
773.95	3430.96
774.13	3232.31
774.32	2850.98
774.50	2468.42
774.69	2358.44
774.87	2180.47
775.06	2378.92
775.25	1959.91
775.43	1968.51
775.62	2015.41
775.80	2056.57
775.99	2011.31
776.17	1904.20
776.36	1977.31
776.54	2121.08
776.73	1924.07
776.92	2042.44
777.10	2095.28
777.29	2027.90
777.47	1870.41
777.66	1886.38
777.84	1975.68
778.03	1943.93
778.21	1866.31
778.40	1924.68
778.58	2015.00
778.77	2068.04
778.95	1782.55
779.14	1849.93
779.32	2173.71
779.51	2059.64
779.70	1903.79
779.88	1792.59
780.07	1877.17
780.25	2277.14
780.44	1892.53
780.62	2022.37
780.81	2010.90
780.99	1975.27
781.18	1863.24
781.36	1869.80
781.55	1886.59
781.73	2123.74
781.92	1803.65
782.10	1783.37
782.29	1993.70
782.47	2114.12
782.66	1927.96
782.84	1792.18
783.03	1851.98
783.21	2115.14
783.40	1906.86
783.58	1878.81
783.77	1882.90
783.95	1909.94
784.14	1825.35
784.32	1918.33
784.51	2075.00
784.69	1860.37
784.88	1756.13
785.06	1888.64
785.24	1787.26
785.43	2058.41
785.61	2011.51
785.80	1815.11
785.98	2014.59
786.17	1949.05
786.35	1845.63
786.54	1992.26
786.72	2069.47
786.91	2072.13
787.09	1918.13
787.28	1809.79
787.46	1969.53
787.65	2097.12
787.83	1838.05
788.01	1968.51
788.20	1828.22
788.38	1971.37
788.57	1906.45
788.75	1949.46
788.94	2217.95
789.12	2140.95
789.31	1953.56
789.49	2028.72
789.67	1911.98
789.86	2019.71
790.04	1846.24
790.23	1782.35
790.41	2265.67
790.60	1978.34
790.78	1929.19
790.96	1936.15
791.15	2073.77
791.33	1940.45
791.52	1938.20
791.70	1858.94
791.89	1985.92
792.07	2086.68
792.25	1968.30
792.44	1817.16
792.62	2122.31
792.81	1906.45
792.99	1984.07
793.17	1921.20
793.36	1995.75
793.54	2671.98
793.73	3828.27
793.91	5309.15
794.10	6314.71
794.28	7308.38
794.46	7495.16
794.65	7287.70
794.83	5746.60
795.01	5302.40
795.20	5241.98
795.38	4814.36
795.57	4585.20
795.75	4426.27
795.93	3988.01
796.12	3767.24
796.30	3578.21
796.49	3361.54
796.67	2935.97
796.85	2857.94
797.04	2620.79
797.22	2469.03
797.40	2111.25
797.59	2209.35
797.77	2165.52
797.96	2049.81
798.14	1996.97
798.32	1996.77
798.51	2157.33
798.69	2308.27
798.87	2034.45
799.06	1993.29
799.24	1966.87
799.42	2593.96
799.61	3430.76
799.79	4086.72
799.98	4871.09
800.16	5292.57
800.34	6719.59
800.53	8329.50
800.71	8874.87
800.89	10224.07
801.08	10564.24
801.26	10465.94
801.44	8784.97
801.63	7278.07
801.81	7065.90
801.99	6448.44
802.18	5987.24
802.36	5680.86
802.54	5196.72
802.73	4544.85
802.91	4222.09
803.09	3828.88
803.28	3542.37
803.46	3216.95
803.64	3070.11
803.83	2463.71
804.01	2298.84
804.19	2120.88
804.38	2264.85
804.56	2186.00
804.74	2057.18
804.92	2088.72
805.11	1937.79
805.29	2198.29
805.47	1938.20
805.66	1907.27
805.84	1898.67
806.02	2151.19
806.21	1981.82
806.39	2103.67
806.57	2148.73
806.76	2136.03
806.94	2014.18
807.12	1998.41
807.30	2004.76
807.49	2150.78
807.67	2112.68
807.85	2201.57
808.04	2224.09
808.22	2361.51
808.40	1884.13
808.58	1886.38
808.77	2079.51
808.95	2357.21
809.13	2827.22
809.31	5163.13
809.50	7591.00
809.68	8983.62
809.86	10253.97
810.05	11274.68
810.23	12829.09
810.41	18907.26
810.59	32669.61
810.78	40960.81
810.96	47587.63
811.14	51873.41
811.32	51290.56
811.51	41337.63
811.69	32553.49
811.87	32079.18
812.05	27943.71
812.24	26165.26
812.42	24037.21
812.60	21250.75
812.78	18080.49
812.97	15387.82
813.15	13535.23
813.33	11481.94
813.51	9683.21
813.70	7692.99
813.88	6114.01
814.06	4785.08
814.24	3771.95
814.42	2969.76
814.61	2777.05
814.79	2691.65
814.97	2162.04
815.15	2171.67
815.34	2185.39
815.52	2239.86
815.70	1984.69
815.88	1983.46
816.06	1949.46
816.25	1970.97
816.43	1900.72
816.61	2051.66
816.79	2193.17
816.98	1802.83
817.16	1869.80
817.34	1831.50
817.52	2011.31
817.70	2159.79
817.89	1872.66
818.07	1817.98
818.25	1934.72
818.43	1966.87
818.61	1903.18
818.80	1843.58
818.98	2152.62
819.16	1970.15
819.34	1769.65
819.52	2109.20
819.70	1820.23
819.89	1907.07
820.07	1760.23
820.25	1751.01
820.43	1946.18
820.61	2036.70
820.80	1885.36
820.98	1798.32
821.16	1731.97
821.34	1773.34
821.52	1867.34
821.70	1925.09
821.89	1924.68
822.07	1924.48
822.25	1863.86
822.43	1838.26
822.61	2119.85
822.79	1968.10
822.98	1854.44
823.16	1708.01
823.34	1990.63
823.52	2048.38
823.70	1979.36
823.88	1734.42
824.06	1984.89
824.25	1921.20
824.43	2002.50
824.61	1781.53
824.79	1905.43
824.97	1978.13
825.15	2155.69
825.33	2751.65
825.52	3771.13
825.70	4297.25
825.88	4696.40
826.06	5216.59
826.24	5281.51
826.42	4798.39
826.60	3985.14
826.78	4011.56
826.97	3603.81
827.15	3693.10
827.33	3252.58
827.51	3287.60
827.69	2987.58
827.87	2890.71
828.05	2774.18
828.23	2444.46
828.41	2597.64
828.60	2473.33
828.78	2097.94
828.96	2172.89
829.14	1990.22
829.32	1994.93
829.50	1938.40
829.68	1902.77
829.86	1892.73
830.04	2027.69
830.22	1963.59
830.41	1793.00
830.59	1911.37
830.77	2035.27
830.95	1845.63
831.13	1828.43
831.31	1843.58
831.49	2015.41
831.67	2030.36
831.85	1998.20
832.03	1870.82
832.21	2029.33
832.39	1761.25
832.57	1788.49
832.76	2020.73
832.94	1898.06
833.12	1717.22
833.30	1874.71
833.48	2087.08
833.66	1974.86
833.84	1809.99
834.02	1890.68
834.20	2032.20
834.38	2006.80
834.56	1734.02
834.74	1770.67
834.92	1744.05
835.10	2147.30
835.28	1911.78
835.46	1878.40
835.64	1887.00
835.82	1847.68
836.01	2102.24
836.19	2024.01
836.37	1868.36
836.55	1789.52
836.73	1821.26
836.91	1787.06
837.09	2020.12
837.27	2119.03
837.45	1746.92
837.63	1786.44
837.81	1792.38
837.99	1930.82
838.17	1875.94
838.35	1832.73
838.53	2233.92
838.71	2066.61
838.89	1864.06
839.07	1897.24
839.25	1984.69
839.43	2136.44
839.61	2444.87
839.79	4068.09
839.97	5907.37
840.15	6958.79
840.33	7877.31
840.51	8453.61
840.69	8204.98
840.87	6706.28
841.05	5971.26
841.23	6475.06
841.41	8244.51
841.59	11715.20
841.77	13278.82
841.95	14593.01
842.13	15636.24
842.31	14967.99
842.49	12023.42
842.67	9990.20
842.85	9812.23
843.03	8502.76
843.21	8052.00
843.39	7327.63
843.57	6638.49
843.75	5919.65
843.93	5110.91
844.11	4513.93
844.29	4162.50
844.47	3792.43
844.65	3658.70
844.83	3151.62
845.01	2836.44
845.19	2689.80
845.36	2362.95
845.54	2241.30
845.72	2118.21
845.90	2073.57
846.08	1868.57
846.26	1941.47
846.44	2007.62
846.62	2056.16
846.80	1921.20
846.98	1818.60
847.16	1874.92
847.34	1963.59
847.52	1799.14
847.70	1819.42
847.88	1900.11
848.06	2084.22
848.24	1955.40
848.41	1750.40
848.59	2042.85
848.77	1949.67
848.95	1829.66
849.13	1830.47
849.31	1994.52
849.49	1936.15
849.67	1779.07
849.85	1764.53
850.03	1958.88
850.21	1919.77
850.39	1824.94
850.57	1952.74
850.74	2137.67
850.92	2275.09
851.10	2625.29
851.28	3326.52
851.46	3887.86
851.64	4465.19
851.82	4427.50
852.00	4481.98
852.18	4131.57
852.36	3620.60
852.53	3395.94
852.71	3277.36
852.89	3208.76
853.07	3098.78
853.25	2781.96
853.43	2631.44
853.61	2641.67
853.79	2521.66
853.97	2281.03
854.14	2195.63
854.32	2414.96
854.50	2293.32
854.68	2033.84
854.86	2009.47
855.04	1921.81
855.22	2062.92
855.40	1775.18
855.57	1843.58
855.75	1986.32
855.93	1982.02
856.11	1699.81
856.29	1770.47
856.47	1839.49
856.65	1953.35
856.82	1791.56
857.00	1721.11
857.18	1862.83
857.36	1815.73
857.54	1884.13
857.72	1962.16
857.89	1978.75
858.07	1896.62
858.25	2021.35
858.43	1740.16
858.61	1881.47
858.79	1888.84
858.97	1777.64
859.14	1920.79
859.32	1875.32
859.50	1868.98
859.68	1912.19
859.86	1828.84
860.03	1924.07
860.21	1984.48
860.39	1815.11
860.57	1921.61
860.75	1956.83
860.93	2134.39
861.10	2000.66
861.28	1817.37
861.46	1961.75
861.64	1964.62
861.82	1824.54
861.99	1942.50
862.17	2031.18
862.35	2040.19
862.53	1888.64
862.71	1890.68
862.88	1935.33
863.06	2003.12
863.24	1861.40
863.42	1796.07
863.60	1894.17
863.77	1985.51
863.95	1691.62
864.13	1877.99
864.31	1859.76
864.49	2000.05
864.66	1729.71
864.84	1850.34
865.02	1922.22
865.20	2255.43
865.37	1887.61
865.55	1832.11
865.73	1871.84
865.91	2200.34
866.09	2246.62
866.26	2244.98
866.44	2397.56
866.62	2305.19
866.80	2110.23
866.97	2132.14
867.15	2137.87
867.33	2182.73
867.51	2144.02
867.68	2064.56
867.86	2045.72
868.04	1974.24
868.22	1794.84
868.39	1897.85
868.57	2016.63
868.75	2133.57
868.93	1783.37
869.10	1862.63
869.28	2167.98
869.46	2106.95
869.64	1887.20
869.81	1853.82
869.99	1950.49
870.17	1933.90
870.35	1819.21
870.52	1784.80
870.70	2035.48
870.88	1821.05
871.05	1742.62
871.23	1641.86
871.41	1888.84
871.59	1884.13
871.76	1866.31
871.94	1796.89
872.12	1896.21
872.29	1750.40
872.47	1816.14
872.65	1763.10
872.83	1916.08
873.00	2091.80
873.18	1832.93
873.36	1781.32
873.53	1973.01
873.71	1743.64
873.89	1783.37
874.06	1842.56
874.24	1947.62
874.42	2016.23
874.60	1947.82
874.77	1895.19
874.95	1812.04
875.13	2037.93
875.30	1803.85
875.48	1819.01
875.66	2091.59
875.83	1803.44
876.01	1838.05
876.19	1959.70
876.36	1720.70
876.54	1910.35
876.72	1773.54
876.89	1911.37
877.07	2000.87
877.25	1679.13
877.42	1878.60
877.60	1832.93
877.78	2133.16
877.95	1811.43
878.13	1814.50
878.31	1929.39
878.48	1983.87
878.66	1978.34
878.84	1795.45
879.01	1851.36
879.19	1928.78
879.37	1975.06
879.54	1835.39
879.72	1755.93
879.90	1689.16
880.07	1986.73
880.25	1604.38
880.42	1944.96
880.60	1902.56
880.78	1970.97
880.95	1841.74
881.13	1841.33
881.31	1884.34
881.48	1813.89
881.66	1786.65
881.83	1915.67
882.01	1799.96
882.19	1701.45
882.36	1883.11
882.54	1810.20
882.72	1973.01
882.89	1872.05
883.07	1771.49
883.24	1821.46
883.42	2011.31
883.60	1923.45
883.77	1752.86
883.95	1823.72
884.12	1992.06
884.30	1912.60
884.48	1966.25
884.65	1856.48
884.83	1924.27
885.00	1930.82
885.18	1744.66
885.36	1806.10
885.53	1953.15
885.71	2054.32
885.88	1734.63
886.06	1833.14
886.23	1963.80
886.41	1824.33
886.59	1810.40
886.76	1800.78
886.94	1950.49
887.11	2255.84
887.29	1848.50
887.47	1712.10
887.64	2046.33
887.82	2043.67
887.99	1696.95
888.17	1869.39
888.34	1878.19
888.52	1758.39
888.69	1880.44
888.87	1768.42
889.05	1849.52
889.22	1853.82
889.40	1792.79
889.57	1968.30
889.75	2082.37
889.92	1826.17
890.10	1759.41
890.27	1843.38
890.45	1812.25
890.62	1693.47
890.80	1745.89
890.98	1727.67
891.15	2080.12
891.33	2005.37
891.50	1790.54
891.68	1698.59
891.85	1973.42
892.03	1967.28
892.20	1816.34
892.38	1757.98
892.55	1979.36
892.73	1978.54
892.90	1753.27
893.08	1784.40
893.25	1790.95
893.43	1819.01
893.60	1949.05
893.78	1672.37
893.95	1938.20
894.13	1882.08
894.30	1776.82
894.48	1832.11
894.65	1991.65
894.83	1908.71
895.00	1697.77
895.18	1685.27
895.35	1976.49
895.53	1975.68
895.70	1746.71
895.88	1926.32
896.05	1963.18
896.23	1718.04
896.40	1778.66
896.58	1862.63
896.75	1981.82
896.93	2063.74
897.10	1797.50
897.28	1715.79
897.45	1885.77
897.63	1949.26
897.80	1934.31
897.98	1846.65
898.15	1916.08
898.33	1788.90
898.50	1889.05
898.67	1846.24
898.85	1850.34
899.02	1949.67
899.20	1999.43
899.37	1827.61
899.55	1887.82
899.72	2075.62
899.90	1782.14
900.07	1809.59
900.25	1923.04
900.42	2008.03
900.59	1777.43
900.77	1920.99
900.94	1964.82
901.12	1922.43
901.29	1782.55
901.47	1929.60
901.64	1963.39
901.82	1888.64
901.99	1658.65
902.16	1794.84
902.34	2026.47
902.51	1933.08
902.69	1800.78
902.86	1845.22
903.03	2338.37
903.21	1907.07
903.38	1855.05
903.56	1800.78
903.73	1986.73
903.91	1849.32
904.08	1738.93
904.25	1662.75
904.43	1788.70
904.60	1984.69
904.78	1831.09
904.95	1735.86
905.12	1837.64
905.30	2107.16
905.47	1908.30
905.65	1928.98
905.82	1876.55
905.99	1952.74
906.17	1831.70
906.34	1765.96
906.52	1792.79
906.69	1941.68
906.86	1936.35
907.04	1870.61
907.21	2000.46
907.38	2014.79
907.56	1813.68
907.73	1803.24
907.91	2063.94
908.08	2050.63
908.25	1771.08
908.43	1755.52
908.60	1962.77
908.77	1921.20
908.95	1822.69
909.12	1776.41
909.30	1982.23
909.47	1731.35
909.64	1860.99
909.82	1982.84
909.99	1877.99
910.16	1916.28
910.34	1797.91
910.51	1829.25
910.68	1937.79
910.86	1928.57
911.03	1916.69
911.20	2502.21
911.38	4257.11
911.55	6710.58
911.72	7891.85
911.90	8734.18
912.07	9543.53
912.24	9340.38
912.42	7191.44
912.59	5235.43
912.76	4925.98
912.94	4157.17
913.11	3718.09
913.28	3391.44
913.46	3176.40
913.63	3186.84
913.80	3232.31
913.98	2835.21
914.15	2904.84
914.32	2870.43
914.49	2678.95
914.67	2532.72
914.84	2654.78
915.01	2700.86
915.19	2530.67
915.36	2341.24
915.53	2436.88
915.71	2265.26
915.88	2119.03
916.05	1973.83
916.22	2118.01
916.40	1968.30
916.57	1815.93
916.74	1948.23
916.92	2106.34
917.09	1784.40
917.26	1766.37
917.43	1763.10
917.61	1872.66
917.78	1722.96
917.95	1671.35
918.13	1744.25
918.30	2162.66
918.47	1909.32
918.64	1791.56
918.82	1791.97
918.99	1882.29
919.16	2136.44
919.33	1869.39
919.51	1813.27
919.68	1923.45
919.85	2062.10
920.02	1739.34
920.20	1854.03
920.37	2118.83
920.54	2017.45
920.71	1761.05
920.89	1803.24
921.06	2133.78
921.23	1828.63
921.40	1882.08
921.58	2409.64
921.75	3163.70
921.92	2898.08
922.09	3091.20
922.27	3112.09
922.44	2995.36
922.61	2698.20
922.78	2305.40
922.96	2238.84
923.13	2162.66
923.30	2301.92
923.47	1962.57
923.64	2013.36
923.82	2160.20
923.99	2112.68
924.16	2040.60
924.33	1907.48
924.50	2017.04
924.68	2201.77
924.85	1849.11
925.02	1905.84
925.19	2108.18
925.36	2007.42
925.54	1963.59
925.71	1926.11
925.88	2333.25
926.05	1908.71
926.22	1770.26
926.40	1866.11
926.57	1915.67
926.74	2008.44
926.91	1800.16
927.08	1993.70
927.26	2001.28
927.43	1872.25
927.60	1785.83
927.77	1827.81
927.94	2126.00
928.11	2035.89
928.29	1729.51
928.46	1865.09
928.63	1788.70
928.80	1858.53
928.97	1936.56
929.14	1775.18
929.32	2175.97
929.49	1896.83
929.66	1780.71
929.83	1709.64
930.00	1833.55
930.17	1924.07
930.35	1702.68
930.52	1797.91
930.69	2092.82
930.86	1785.42
931.03	1869.39
931.20	1666.84
931.37	2042.23
931.55	1891.09
931.72	1871.23
931.89	1677.08
932.06	1772.93
932.23	2062.30
932.40	1872.87
932.57	1885.77
932.74	2029.33
932.92	2051.45
933.09	1909.32
933.26	1588.20
933.43	1827.40
933.60	1901.13
933.77	1821.67
933.94	1856.89
934.11	1863.04
934.29	1898.26
934.46	1735.86
934.63	1871.23
934.80	1794.23
934.97	1941.06
935.14	1880.44
935.31	1755.31
935.48	1849.11
935.65	1949.87
935.82	1896.42
936.00	1744.66
936.17	2106.75
936.34	1866.72
936.51	1922.22
936.68	1686.91
936.85	1926.93
937.02	1889.25
937.19	1886.59
937.36	1830.47
937.53	1927.55
937.70	1992.47
937.87	1821.05
938.05	1882.70
938.22	1902.15
938.39	1757.77
938.56	1827.61
938.73	1763.30
938.90	1863.24
939.07	1803.65
939.24	1847.47
939.41	1692.85
939.58	1927.34
939.75	1926.11
939.92	1753.06
940.09	1974.65
940.26	1858.74
940.43	1965.85
940.60	1809.99
940.77	1784.40
940.95	1914.24
941.12	1970.76
941.29	1791.97
941.46	1843.38
941.63	2025.85
941.80	2080.94
941.97	1718.66
942.14	1710.46
942.31	1959.29
942.48	1870.41
942.65	1880.44
942.82	1829.25
942.99	1956.01
943.16	1875.73
943.33	1735.45
943.50	1786.24
943.67	1984.07
943.84	2029.54
944.01	1819.21
944.18	1736.88
944.35	2064.56
944.52	1793.61
944.69	1826.79
944.86	1695.51
945.03	1959.50
945.20	2167.98
945.37	1650.87
945.54	1802.21
945.71	2065.17
945.88	2094.87
946.05	1746.10
946.22	1756.34
946.39	2035.89
946.56	1873.48
946.73	1690.80
946.90	1752.24
947.07	1821.46
947.24	1868.36
947.41	1673.19
947.58	1896.83
947.75	1933.90
947.92	1912.39
948.09	1594.14
948.26	1677.49
948.43	1901.74
948.60	2106.13
948.77	1761.25
948.94	1766.58
949.11	1964.62
949.27	1936.35
949.44	1745.69
949.61	1731.35
949.78	1948.23
949.95	2037.32
950.12	1745.28
950.29	1689.78
950.46	1822.28
950.63	1984.89
950.80	1753.27
950.97	1811.84
951.14	1990.63
951.31	1847.88
951.48	1753.68
951.65	1724.80
951.82	2121.08
951.99	1905.43
952.15	1695.31
952.32	1800.16
952.49	1821.67
952.66	1794.43
952.83	1757.77
953.00	1746.30
953.17	1853.00
953.34	1980.18
953.51	1826.99
953.68	1794.23
953.85	2011.51
954.02	2033.02
954.18	1817.98
954.35	1804.87
954.52	1780.09
954.69	1893.35
954.86	1658.24
955.03	1823.31
955.20	1947.21
955.37	1883.52
955.54	1800.78
955.71	1743.44
955.87	1946.18
956.04	2085.24
956.21	1801.60
956.38	1746.92
956.55	1902.97
956.72	2237.41
956.89	1828.63
957.06	1741.39
957.23	1811.22
957.39	2027.49
957.56	1783.99
957.73	1709.85
957.90	1645.95
958.07	2112.68
958.24	1839.90
958.41	1782.35
958.57	1962.98
958.74	1878.60
958.91	1740.16
959.08	1752.04
959.25	1949.67
959.42	1864.47
959.59	1844.40
959.75	1781.53
959.92	2035.89
960.09	1999.02
960.26	1751.01
960.43	1842.35
960.60	1899.90
960.76	1846.04
960.93	1703.91
961.10	1840.71
961.27	1997.79
961.44	1847.06
961.61	1719.68
961.77	1743.85
961.94	1888.64
962.11	1995.13
962.28	1784.40
962.45	1707.60
962.62	1864.27
962.78	1999.84
962.95	1729.30
963.12	1786.65
963.29	1968.71
963.46	2249.28
963.62	1839.69
963.79	1769.65
963.96	2195.83
964.13	1836.00
964.30	1859.35
964.46	1791.15
964.63	1804.67
964.80	2318.30
964.97	1863.65
965.14	2189.48
965.30	2360.90
965.47	2455.72
965.64	2410.05
965.81	2313.39
965.98	2468.62
966.14	2143.20
966.31	2000.46
966.48	1978.13
966.65	2229.83
966.81	2123.33
966.98	1916.28
967.15	1947.62
967.32	2038.96
967.49	1937.99
967.65	1753.68
967.82	1754.29
967.99	1958.68
968.16	1791.36
968.32	2018.68
968.49	1845.42
968.66	1927.14
968.83	2172.49
968.99	1914.44
969.16	1778.66
969.33	2111.87
969.50	2003.12
969.66	1921.61
969.83	2025.65
970.00	2000.05
970.17	1960.52
970.33	1804.26
970.50	1720.09
970.67	2094.25
970.84	2073.57
971.00	1721.32
971.17	1712.92
971.34	1958.06
971.50	1885.36
971.67	1890.68
971.84	1841.12
972.01	1761.66
972.17	1673.19
972.34	1748.97
972.51	1868.98
972.67	2011.72
972.84	1907.27
973.01	1738.52
973.18	1746.10
973.34	2011.51
973.51	1768.83
973.68	1802.21
973.84	1813.89
974.01	1830.88
974.18	2100.40
974.34	1854.64
974.51	1857.30
974.68	1786.03
974.85	2146.89
975.01	1895.60
975.18	1791.36
975.35	1874.71
975.51	1826.17
975.68	1659.67
975.85	1921.40
976.01	1824.74
976.18	2011.72
976.35	1777.43
976.51	1751.22
976.68	2087.49
976.85	2034.45
977.01	1790.95
977.18	1861.19
977.35	1977.72
977.51	1769.65
977.68	1652.92
977.85	1746.51
978.01	2049.40
978.18	2005.78
978.35	1876.14
978.51	1885.36
978.68	2040.60
978.85	2113.91
979.01	1809.99
979.18	1861.60
979.34	1900.11
979.51	1923.86
979.68	1779.68
979.84	1836.21
980.01	2214.47
980.18	1903.18
980.34	1752.24
980.51	1867.54
980.67	1986.12
980.84	1999.43
981.01	1829.25
981.17	1877.17
981.34	1703.71
981.51	1978.34
981.67	1752.45
981.84	1904.82
982.00	1958.27
982.17	1886.18
982.34	1641.04
982.50	1577.76
982.67	2082.58
982.83	1828.63
983.00	1681.18
983.17	1613.80
983.33	2032.40
983.50	1703.30
983.66	1711.49
983.83	1594.75
984.00	1825.15
984.16	1880.04
984.33	1618.10
984.49	1609.29
984.66	1753.68
984.83	2000.25
984.99	1669.71
985.16	1591.48
985.32	1964.82
985.49	1979.36
985.65	1744.87
985.82	1628.95
985.99	2096.10
986.15	1895.60
986.32	1709.64
986.48	1664.18
986.65	1839.08
986.81	1960.93
986.98	1637.97
987.14	1699.81
987.31	1887.82
987.48	1689.16
987.64	1552.57
987.81	1611.34
987.97	2136.03
988.14	1791.56
988.30	1637.15
988.47	1517.34
988.63	1933.08
988.80	1751.42
988.96	1683.64
989.13	1734.42
989.30	1864.27
989.46	1999.84
989.63	1602.33
989.79	1609.70
989.96	1870.21
990.12	2056.37
990.29	1659.47
990.45	1717.63
990.62	1897.44
990.78	2022.16
990.95	1763.10
991.11	1643.90
991.28	1817.98
991.44	1920.38
991.61	1554.61
991.77	1705.75
991.94	1908.09
992.10	2030.36
992.27	1714.97
992.43	1668.68
992.60	1939.63
992.76	1830.47
992.93	1802.01
993.09	1611.14
993.26	1986.12
993.42	2114.53
993.59	1632.23
993.75	1571.82
993.92	1796.68
994.08	1799.14
994.25	1728.69
994.41	1618.51
994.58	1976.09
994.74	2070.29
994.91	1590.25
995.07	1704.11
995.24	1879.01
995.40	1863.45
995.56	1763.71
995.73	1724.39
995.89	2106.54
996.06	1836.00
996.22	1630.39
996.39	1567.31
996.55	1872.05
996.72	1938.61
996.88	1561.37
997.05	1624.86
997.21	2134.80
997.37	1950.08
997.54	1703.50
997.70	1661.93
997.87	1905.02
998.03	1854.44
998.20	1542.53
998.36	1612.78
998.52	1947.21
998.69	2022.78
998.85	1547.24
999.02	1681.38
999.18	2005.17
999.35	1987.55
999.51	1672.99
999.67	1672.99
999.84	1772.72
1000.00	1951.10
1000.17	1734.22
1000.33	1614.41
1000.49	1820.23
1000.66	1870.82
1000.82	1658.85
1000.99	1693.06
1001.15	2042.44
1001.31	1834.16
1001.48	1701.86
1001.64	1726.64
1001.81	1841.33
1001.97	2134.39
1002.13	1677.90
1002.30	1665.61
1002.46	2050.63
1002.63	1853.00
1002.79	1728.49
1002.95	1660.08
1003.12	2000.87
1003.28	1924.48
1003.45	1614.21
1003.61	1601.31
1003.77	1871.23
1003.94	1715.38
1004.10	1637.56
1004.26	1721.11
1004.43	1944.75
1004.59	2081.35
1004.75	1643.49
1004.92	1619.53
1005.08	1818.39
1005.25	1901.95
1005.41	1656.19
1005.57	1715.99
1005.74	2003.94
1005.90	1845.42
1006.06	1773.75
1006.23	1634.69
1006.39	1948.23
1006.55	2203.41
1006.72	1785.01
1006.88	1594.34
1007.04	1763.10
1007.21	1828.02
1007.37	1661.11
1007.53	1642.68
1007.70	2070.70
1007.86	1965.23
1008.02	1709.44
1008.19	1616.26
1008.35	1881.26
1008.51	1756.75
1008.68	1671.35
1008.84	1593.11
1009.00	1793.00
1009.17	1987.96
1009.33	1781.32
1009.49	1721.52
1009.65	1760.64
1009.82	1911.37
1009.98	1723.98
1010.14	1587.79
1010.31	1978.75
1010.47	1952.53
1010.63	1709.23
1010.80	1709.44
1010.96	1934.10
1011.12	1841.12
1011.28	1641.65
1011.45	1649.02
1011.61	2198.70
1011.77	1746.51
1011.94	1643.09
1012.10	1586.97
1012.26	1771.49
1012.42	1795.04
1012.59	1691.62
1012.75	1709.44
1012.91	1868.16
1013.07	1986.12
1013.24	1605.61
1013.40	1644.72
1013.56	1894.99
1013.72	1867.75
1013.89	1727.26
1014.05	1738.93
1014.21	2105.11
1014.37	2203.82
1014.54	1679.74
1014.70	1587.59
1014.86	1856.28
1015.02	1746.51
1015.19	1659.26
1015.35	1609.70
1015.51	1864.06
1015.67	1815.93
1015.84	1664.79
1016.00	1642.88
1016.16	2021.75
1016.32	1974.04
1016.49	1636.53
1016.65	1637.56
1016.81	1851.16
1016.97	1934.51
1017.14	1761.46
1017.30	1637.76
1017.46	1813.27
1017.62	1896.83
1017.78	1726.23
1017.95	1619.74
1018.11	1981.00
1018.27	2176.79
1018.43	1776.00
1018.59	1724.80
1018.76	1962.36
1018.92	2220.61
1019.08	1625.68
1019.24	1663.57
1019.40	2051.66
1019.57	1885.77
1019.73	1743.23
1019.89	1657.01
1020.05	1901.54
1020.21	2135.21
1020.38	1636.94
1020.54	1779.89
1020.70	1971.17
1020.86	1962.98
1021.02	1660.49
1021.18	1648.41
1021.35	1794.84
1021.51	1942.70
1021.67	1793.82
1021.83	1670.32
1021.99	1866.31
1022.15	1910.75
1022.32	1725.00
1022.48	1707.60
1022.64	2058.21
1022.80	2096.51
1022.96	1703.91
1023.12	1569.15
1023.29	1985.92
1023.45	1927.34
1023.61	1651.69
1023.77	1804.06
1023.93	1924.68
1024.09	1787.06
1024.25	1638.58
1024.42	1611.55
1024.58	1837.44
1024.74	1920.79
1024.90	1652.71
1025.06	1732.17
1025.22	1811.22
1025.38	2085.86
1025.54	1611.55
1025.71	1746.92
1025.87	1949.46
1026.03	1936.76
1026.19	1621.58
1026.35	1792.79
1026.51	1944.96
1026.67	1877.99
1026.83	1698.38
1026.99	1773.34
1027.16	1934.31
1027.32	1844.20
1027.48	1680.56
1027.64	1628.75
1027.80	1975.27
1027.96	1877.37
1028.12	1696.33
1028.28	1602.74
1028.44	1935.54
1028.60	2062.10
1028.77	1757.77
1028.93	1713.13
1029.09	1827.40
1029.25	1755.72
1029.41	1718.66
1029.57	1750.40
1029.73	1923.25
1029.89	2084.01
1030.05	1771.29
1030.21	1721.11
1030.37	2178.01
1030.53	1951.71
1030.69	1682.00
1030.85	1600.28
1031.02	1767.19
1031.18	1872.05
1031.34	1663.57
1031.50	1718.25
1031.66	1796.68
1031.82	2061.69
1031.98	1695.10
1032.14	1626.91
1032.30	1752.04
1032.46	1994.72
1032.62	1793.20
1032.78	1613.18
1032.94	1804.06
1033.10	1837.85
1033.26	1729.30
1033.42	1765.14
1033.58	2154.46
1033.74	1813.68
1033.90	1670.53
1034.06	1819.62
1034.22	2163.68
1034.38	2022.37
1034.54	1694.28
1034.70	1715.17
1034.86	2097.12
>>>>>End Processed Spectral Data<<<<<
