SpectraSuite Data File
++++++++++++++++++++++++++++++++++++
Date: Thu Mar 30 16:00:13 PDT 2017
User: UCSD _CER
Dark Spectrum Present: No
Reference Spectrum Present: No
Number of Sampled Component Spectra: 1
Spectrometers: USB4C00073
Integration Time (usec): 250000 (USB4C00073)
Spectra Averaged: 10 (USB4C00073)
Boxcar Smoothing: 0 (USB4C00073)
Correct for Electrical Dark: No (USB4C00073)
Strobe/Lamp Enabled: No (USB4C00073)
Correct for Detector Non-linearity: No (USB4C00073)
Correct for Stray Light: No (USB4C00073)
Number of Pixels in Processed Spectrum: 3648
>>>>>Begin Processed Spectral Data<<<<<
345.37	1277.93
345.58	1277.93
345.80	1277.93
346.01	1272.20
346.22	1285.51
346.43	1977.72
346.65	1779.28
346.86	2120.67
347.07	2083.19
347.28	1786.65
347.50	1810.40
347.71	1897.24
347.92	1701.04
348.13	1804.67
348.35	1715.99
348.56	1906.04
348.77	1790.33
348.98	1811.43
349.20	1679.54
349.41	1916.28
349.62	1988.17
349.83	1866.31
350.05	1723.57
350.26	1949.87
350.47	2071.11
350.68	1796.07
350.90	1730.53
351.11	2114.53
351.32	2099.17
351.53	1822.69
351.75	1762.89
351.96	1964.82
352.17	1893.35
352.38	1865.49
352.60	1884.34
352.81	1947.00
353.02	2174.33
353.23	1802.62
353.44	1827.81
353.66	1862.83
353.87	1869.80
354.08	1919.36
354.29	1826.99
354.51	1839.90
354.72	1888.84
354.93	1778.05
355.14	1748.76
355.35	1758.80
355.57	2014.59
355.78	1813.48
355.99	1897.03
356.20	1937.17
356.42	1913.01
356.63	1906.86
356.84	1853.21
357.05	2026.87
357.26	2198.90
357.48	1915.06
357.69	1898.26
357.90	2008.85
358.11	1900.72
358.32	1823.51
358.54	1891.91
358.75	1905.63
358.96	2042.03
359.17	1796.27
359.38	1808.97
359.60	2008.24
359.81	1897.03
360.02	1822.90
360.23	1778.25
360.44	1831.91
360.66	2053.09
360.87	1740.36
361.08	1734.63
361.29	1958.27
361.50	1939.43
361.72	1803.85
361.93	1858.94
362.14	1910.35
362.35	1738.73
362.56	1891.71
362.77	1710.26
362.99	1992.47
363.20	1907.89
363.41	1863.24
363.62	1712.51
363.83	1983.25
364.05	2036.70
364.26	1716.40
364.47	1759.61
364.68	2037.93
364.89	1809.79
365.10	1734.63
365.32	1798.73
365.53	1814.71
365.74	1854.85
365.95	1799.96
366.16	1688.14
366.37	1885.97
366.59	1856.69
366.80	1822.28
367.01	1678.92
367.22	2174.94
367.43	2271.20
367.64	1801.39
367.86	1797.30
368.07	1982.64
368.28	2055.34
368.49	1738.52
368.70	1837.64
368.91	1873.89
369.12	1911.16
369.34	1717.02
369.55	1742.41
369.76	1919.15
369.97	1869.59
370.18	1752.45
370.39	1755.31
370.60	1717.63
370.82	1774.36
371.03	1804.67
371.24	1738.52
371.45	2022.98
371.66	1968.71
371.87	1819.42
372.08	1819.01
372.30	1828.22
372.51	2031.18
372.72	1954.17
372.93	1822.08
373.14	2120.88
373.35	1834.57
373.56	1745.28
373.78	1836.62
373.99	2018.48
374.20	2294.95
374.41	1793.82
374.62	1813.07
374.83	2110.43
375.04	1882.29
375.25	1831.50
375.47	1773.34
375.68	1876.14
375.89	2034.66
376.10	1801.60
376.31	1912.60
376.52	1990.42
376.73	1977.11
376.94	1817.78
377.15	1807.33
377.37	1904.61
377.58	1870.00
377.79	1728.08
378.00	1739.14
378.21	1961.75
378.42	2005.37
378.63	1850.54
378.84	1893.96
379.05	2052.88
379.27	1938.20
379.48	1948.44
379.69	1781.73
379.90	2071.11
380.11	1711.08
380.32	1838.67
380.53	1913.21
380.74	2101.42
380.95	1969.94
381.16	1825.97
381.37	1808.77
381.59	2125.59
381.80	2081.15
382.01	1817.16
382.22	1725.21
382.43	2028.31
382.64	1949.67
382.85	1785.21
383.06	1881.26
383.27	2023.60
383.48	1909.94
383.69	1893.55
383.91	1812.45
384.12	2056.16
384.33	2091.59
384.54	1951.51
384.75	1813.48
384.96	2402.88
385.17	2145.66
385.38	1894.78
385.59	1863.04
385.80	2054.93
386.01	2163.68
386.22	1934.31
386.43	1884.13
386.64	2267.72
386.86	1946.80
387.07	1989.40
387.28	1798.32
387.49	1957.86
387.70	2146.07
387.91	1940.66
388.12	1810.81
388.33	2035.89
388.54	1904.00
388.75	1805.69
388.96	1886.18
389.17	1867.54
389.38	1923.25
389.59	1911.78
389.80	1846.45
390.01	1923.45
390.22	1887.20
390.43	1926.93
390.64	1724.80
390.86	2018.89
391.07	2072.75
391.28	1840.30
391.49	1853.41
391.70	1761.25
391.91	1868.16
392.12	1832.11
392.33	1837.23
392.54	1960.11
392.75	1932.46
392.96	1910.14
393.17	1805.49
393.38	2241.09
393.59	2063.12
393.80	1748.97
394.01	1850.95
394.22	1947.62
394.43	2207.71
394.64	1801.60
394.85	1947.41
395.06	1951.10
395.27	1959.50
395.48	1821.26
395.69	1740.16
395.90	1890.89
396.11	1928.57
396.32	1789.72
396.53	1934.92
396.74	1898.26
396.95	2045.10
397.16	1780.30
397.37	1730.74
397.58	2021.75
397.79	1916.08
398.00	1856.28
398.21	1811.43
398.42	1960.11
398.63	2188.05
398.84	1796.89
399.05	1805.08
399.26	2102.04
399.47	1995.34
399.68	1659.67
399.89	1767.81
400.10	1783.17
400.31	1877.58
400.52	1846.24
400.73	1840.10
400.94	1783.17
401.15	2026.47
401.36	1862.83
401.57	1922.22
401.78	2111.87
401.99	2062.92
402.20	1739.14
402.41	1951.71
402.62	2110.64
402.83	1921.20
403.04	1813.27
403.25	1998.20
403.46	1987.76
403.67	2149.75
403.88	1884.13
404.09	1896.42
404.30	1923.66
404.51	1912.60
404.72	1813.89
404.93	1958.06
405.14	1889.66
405.35	1930.62
405.56	1836.62
405.77	1805.28
405.98	1961.34
406.19	1918.95
406.40	1807.74
406.61	1841.53
406.82	1919.77
407.03	2284.92
407.24	1793.00
407.45	1927.55
407.66	2016.02
407.87	2066.40
408.08	1932.67
408.29	1915.47
408.49	2018.68
408.70	1918.54
408.91	1843.99
409.12	1935.74
409.33	1813.89
409.54	2078.28
409.75	1807.33
409.96	1841.74
410.17	2047.56
410.38	1929.60
410.59	1823.72
410.80	1919.36
411.01	1927.14
411.22	1919.97
411.43	1867.75
411.64	1776.41
411.85	1808.77
412.06	1778.46
412.27	1684.45
412.47	1786.85
412.68	1927.55
412.89	2024.42
413.10	1815.52
413.31	1740.36
413.52	2181.70
413.73	2173.51
413.94	1787.67
414.15	1933.49
414.36	1863.04
414.57	1812.86
414.78	1757.57
414.99	1924.27
415.19	2275.29
415.40	2295.98
415.61	2351.89
415.82	2207.71
416.03	2305.40
416.24	2174.74
416.45	1965.44
416.66	1865.09
416.87	1808.56
417.08	2003.94
417.29	1808.15
417.50	1915.06
417.70	2075.41
417.91	2058.41
418.12	1944.96
418.33	1953.35
418.54	2103.88
418.75	2253.18
418.96	2273.65
419.17	2331.20
419.38	2754.72
419.59	2701.89
419.79	2497.91
420.00	2426.43
420.21	2707.62
420.42	2217.75
420.63	1956.83
420.84	1984.89
421.05	1955.40
421.26	1946.80
421.47	1771.08
421.67	2089.34
421.88	1860.58
422.09	1829.45
422.30	2048.99
422.51	1915.26
422.72	2209.35
422.93	2077.66
423.14	1880.65
423.35	1765.35
423.55	1777.23
423.76	1850.54
423.97	1865.49
424.18	1713.54
424.39	1918.74
424.60	2081.56
424.81	1860.78
425.02	2063.33
425.22	2110.64
425.43	2128.45
425.64	2281.03
425.85	2237.00
426.06	2560.78
426.27	2356.19
426.48	2274.47
426.68	2230.65
426.89	2345.54
427.10	2399.60
427.31	2063.12
427.52	1917.31
427.73	2135.42
427.94	2057.18
428.14	1961.13
428.35	1851.36
428.56	2128.45
428.77	2067.42
428.98	1927.55
429.19	1937.17
429.40	1998.41
429.60	2059.03
429.81	2088.11
430.02	2030.15
430.23	2006.80
430.44	2086.88
430.65	1868.16
430.85	1867.95
431.06	2000.46
431.27	1745.69
431.48	1820.85
431.69	1871.64
431.90	1941.27
432.10	1977.72
432.31	1974.65
432.52	1970.97
432.73	2477.63
432.94	2422.34
433.15	2264.23
433.35	2097.32
433.56	2300.07
433.77	2152.82
433.98	2521.05
434.19	2646.59
434.40	2847.09
434.60	2843.81
434.81	2724.41
435.02	2471.69
435.23	2274.47
435.44	2169.82
435.64	1930.21
435.85	1899.29
436.06	1932.05
436.27	1943.11
436.48	1860.17
436.68	1943.32
436.89	2303.76
437.10	2239.86
437.31	2027.90
437.52	2115.76
437.73	2132.55
437.93	2116.78
438.14	1991.04
438.35	1778.05
438.56	1897.85
438.77	1937.17
438.97	1979.16
439.18	1831.70
439.39	2241.30
439.60	2015.41
439.80	1990.83
440.01	2081.56
440.22	2011.31
440.43	2097.32
440.64	1800.98
440.84	1914.65
441.05	1831.29
441.26	2282.05
441.47	1884.13
441.68	1950.69
441.88	2235.97
442.09	2288.81
442.30	2530.88
442.51	2497.91
442.71	2392.23
442.92	2374.82
443.13	2099.58
443.34	1992.06
443.55	1984.07
443.75	2075.21
443.96	1830.47
444.17	1816.55
444.38	2089.34
444.58	1804.47
444.79	1883.52
445.00	1853.41
445.21	1907.68
445.41	1909.32
445.62	1650.25
445.83	1896.83
446.04	1967.48
446.24	1783.37
446.45	1670.32
446.66	1836.41
446.87	1953.76
447.07	1889.05
447.28	1999.02
447.49	1905.43
447.70	2099.37
447.90	2106.13
448.11	1901.74
448.32	1947.21
448.53	2145.45
448.73	2118.01
448.94	1885.97
449.15	1959.09
449.36	1924.27
449.56	1975.47
449.77	1802.01
449.98	1740.98
450.19	1901.13
450.39	1967.69
450.60	2001.68
450.81	1991.65
451.02	2023.60
451.22	2189.07
451.43	1864.47
451.64	1865.70
451.84	1944.96
452.05	2139.72
452.26	1915.06
452.47	1852.59
452.67	1895.80
452.88	2103.88
453.09	1800.37
453.30	1754.29
453.50	2022.78
453.71	2220.82
453.92	1975.68
454.12	2128.45
454.33	2045.31
454.54	2072.95
454.75	1849.93
454.95	1839.90
455.16	2014.18
455.37	2066.81
455.57	1873.07
455.78	1852.39
455.99	1924.07
456.19	1962.36
456.40	1776.20
456.61	1885.97
456.82	1918.74
457.02	2082.78
457.23	2054.11
457.44	2199.11
457.64	2061.69
457.85	2188.87
458.06	1999.43
458.26	2142.79
458.47	2047.76
458.68	2157.74
458.89	1927.55
459.09	2091.59
459.30	2290.04
459.51	2005.78
459.71	1802.42
459.92	1872.25
460.13	2170.23
460.33	2395.71
460.54	2018.07
460.75	2039.57
460.95	1978.75
461.16	2076.23
461.37	1912.60
461.57	1932.05
461.78	1988.37
461.99	1863.65
462.19	2075.00
462.40	1821.46
462.61	2219.59
462.81	2075.00
463.02	1777.64
463.23	1829.25
463.43	2019.91
463.64	1890.07
463.85	2729.33
464.05	1807.74
464.26	2344.51
464.47	2094.25
464.67	1996.36
464.88	1927.55
465.09	1966.46
465.29	2114.73
465.50	2144.63
465.71	2065.99
465.91	1992.47
466.12	2000.66
466.33	1923.45
466.53	1851.16
466.74	2102.65
466.94	1926.11
467.15	1901.74
467.36	2017.86
467.56	1853.82
467.77	1954.79
467.98	1867.34
468.18	1821.87
468.39	1879.42
468.60	2192.15
468.80	1855.66
469.01	1807.74
469.21	1975.68
469.42	2064.35
469.63	1883.72
469.83	1825.97
470.04	2059.44
470.25	2178.22
470.45	1902.97
470.66	1826.58
470.86	2021.75
471.07	1903.59
471.28	1942.91
471.48	1988.78
471.69	1958.68
471.90	2528.83
472.10	2034.45
472.31	2110.23
472.51	2114.32
472.72	2194.81
472.93	2113.71
473.13	2280.00
473.34	2281.23
473.54	2249.08
473.75	2098.55
473.96	2156.31
474.16	2001.68
474.37	2035.68
474.57	1940.04
474.78	1848.91
474.99	2003.73
475.19	1978.54
475.40	1837.03
475.60	1851.16
475.81	2306.63
476.02	2169.21
476.22	2145.86
476.43	2242.53
476.63	2063.12
476.84	2183.75
477.05	1771.49
477.25	1864.06
477.46	2338.17
477.66	1987.55
477.87	1766.78
478.08	1867.54
478.28	2061.89
478.49	1890.07
478.69	1805.90
478.90	1844.81
479.10	2011.31
479.31	2128.25
479.52	1899.29
479.72	2216.93
479.93	2490.53
480.13	2492.17
480.34	2454.49
480.54	2605.84
480.75	2250.92
480.96	2324.44
481.16	1951.71
481.37	2082.99
481.57	2139.51
481.78	2127.43
481.98	2124.56
482.19	1993.70
482.40	2200.54
482.60	2022.37
482.81	1950.49
483.01	1825.15
483.22	2063.74
483.42	2033.63
483.63	1927.55
483.83	1949.26
484.04	2001.48
484.24	2196.04
484.45	2099.37
484.66	1923.25
484.86	2131.73
485.07	1915.67
485.27	1931.03
485.48	1861.19
485.68	2115.35
485.89	1878.19
486.09	1963.39
486.30	1883.11
486.50	2007.01
486.71	1953.35
486.91	1933.08
487.12	2288.61
487.33	2802.44
487.53	2972.63
487.74	2872.07
487.94	2748.17
488.15	2512.04
488.35	2325.88
488.56	2111.05
488.76	2041.62
488.97	2084.22
489.17	2134.39
489.38	2015.61
489.58	1968.71
489.79	2103.06
489.99	2050.43
490.20	1934.10
490.40	1978.13
490.61	2005.37
490.81	1891.71
491.02	1904.00
491.22	1949.26
491.43	2020.32
491.63	1946.39
491.84	1985.51
492.04	1770.26
492.25	2016.02
492.45	1922.02
492.66	1931.85
492.86	1813.27
493.07	1986.12
493.27	2291.88
493.48	1790.95
493.68	1897.44
493.89	1956.22
494.09	2071.52
494.30	1848.70
494.50	2104.90
494.71	2017.45
494.91	1773.34
495.12	1842.15
495.32	1971.58
495.53	1974.45
495.73	1845.22
495.94	2050.43
496.14	1956.42
496.35	2425.82
496.55	2099.17
496.76	1956.42
496.96	1984.69
497.17	2008.24
497.37	2042.23
497.58	1881.47
497.78	1813.89
497.98	1949.05
498.19	1930.82
498.39	1887.82
498.60	1900.11
498.80	1738.32
499.01	2006.60
499.21	1794.43
499.42	1894.58
499.62	1894.17
499.83	2214.47
500.03	1792.18
500.24	2018.27
500.44	2235.36
500.64	2233.72
500.85	2020.53
501.05	2121.08
501.26	1853.41
501.46	2197.68
501.67	1895.80
501.87	1826.58
502.08	1858.53
502.28	1907.07
502.48	1947.82
502.69	2013.77
502.89	1767.60
503.10	1864.68
503.30	1867.34
503.51	1939.02
503.71	1800.98
503.92	2019.50
504.12	1963.39
504.32	1854.85
504.53	2041.01
504.73	2036.91
504.94	2001.28
505.14	2072.13
505.35	2109.00
505.55	2112.89
505.75	2049.40
505.96	2132.14
506.16	2352.91
506.37	1965.03
506.57	1890.48
506.78	1971.78
506.98	2092.82
507.18	1818.19
507.39	1849.32
507.59	1915.06
507.80	1903.79
508.00	1977.11
508.20	2039.78
508.41	1937.38
508.61	2098.96
508.82	2035.07
509.02	2018.27
509.22	1813.48
509.43	1849.73
509.63	1868.57
509.84	1901.54
510.04	1776.82
510.24	2107.36
510.45	2052.88
510.65	1797.09
510.86	1914.03
511.06	1806.92
511.26	2016.63
511.47	1959.91
511.67	1835.80
511.88	1999.23
512.08	2082.58
512.28	1783.17
512.49	1972.81
512.69	1967.48
512.90	1962.77
513.10	1847.47
513.30	1901.95
513.51	2038.55
513.71	2187.03
513.91	2031.79
514.12	2039.78
514.32	2119.24
514.53	1955.20
514.73	2000.87
514.93	1887.61
515.14	1961.95
515.34	2123.13
515.54	1910.75
515.75	1946.39
515.95	2072.75
516.15	2107.16
516.36	1960.11
516.56	1971.99
516.77	1724.80
516.97	2004.76
517.17	1874.92
517.38	1946.80
517.58	2139.10
517.78	1900.31
517.99	1931.44
518.19	1926.73
518.39	2120.06
518.60	1924.68
518.80	1855.87
519.00	1978.95
519.21	1928.78
519.41	2173.92
519.61	1842.35
519.82	1962.77
520.02	1928.37
520.22	1946.39
520.43	1886.38
520.63	1859.15
520.83	1858.53
521.04	1748.76
521.24	1904.20
521.44	1840.30
521.65	1839.90
521.85	2015.41
522.05	1793.00
522.26	1853.21
522.46	2180.88
522.66	2020.53
522.87	1843.17
523.07	2016.23
523.27	1862.42
523.48	2116.58
523.68	1927.14
523.88	1888.64
524.09	2080.74
524.29	1971.99
524.49	1735.24
524.70	1969.53
524.90	2104.29
525.10	2000.46
525.31	1779.28
525.51	1777.43
525.71	2042.23
525.91	1983.87
526.12	1861.19
526.32	1794.43
526.52	1872.66
526.73	1858.33
526.93	1934.72
527.13	1742.00
527.34	1929.19
527.54	1941.47
527.74	1854.64
527.94	1760.84
528.15	1822.08
528.35	1931.85
528.55	1967.48
528.76	1930.01
528.96	1751.63
529.16	2044.69
529.36	1994.11
529.57	1795.66
529.77	2077.46
529.97	1789.11
530.18	1960.52
530.38	1880.65
530.58	2006.60
530.78	1949.26
530.99	1839.69
531.19	1963.39
531.39	1854.44
531.60	1919.36
531.80	1876.96
532.00	2002.71
532.20	1955.61
532.41	1851.98
532.61	1861.81
532.81	1899.70
533.01	1898.47
533.22	1984.07
533.42	2026.47
533.62	1750.81
533.82	2119.85
534.03	1911.78
534.23	1925.91
534.43	1811.22
534.63	1868.77
534.84	1964.21
535.04	1947.62
535.24	1939.02
535.44	2284.51
535.65	1891.50
535.85	1881.67
536.05	1851.98
536.25	1961.34
536.46	1844.40
536.66	2062.51
536.86	1938.81
537.06	2035.48
537.27	2081.76
537.47	1999.02
537.67	1850.75
537.87	2123.95
538.08	1902.56
538.28	1793.41
538.48	1809.18
538.68	1959.91
538.88	2024.01
539.09	1782.96
539.29	1897.65
539.49	2043.87
539.69	1979.16
539.90	1958.68
540.10	1795.04
540.30	2128.25
540.50	1885.36
540.70	1778.66
540.91	1899.70
541.11	2036.91
541.31	2169.00
541.51	1939.63
541.72	1978.75
541.92	1986.73
542.12	1888.84
542.32	1891.50
542.52	1861.19
542.73	1880.44
542.93	2013.56
543.13	1879.22
543.33	1977.93
543.53	2066.81
543.74	2015.20
543.94	1882.49
544.14	2022.16
544.34	2102.44
544.54	1969.33
544.75	2027.69
544.95	2149.14
545.15	2069.06
545.35	2187.85
545.55	2020.94
545.75	1878.40
545.96	2250.92
546.16	1838.46
546.36	1900.11
546.56	1932.67
546.76	2096.71
546.97	2154.67
547.17	1923.04
547.37	1970.35
547.57	1901.54
547.77	2048.38
547.97	1953.15
548.18	1947.21
548.38	1942.29
548.58	2107.56
548.78	1862.01
548.98	1940.25
549.18	2084.22
549.39	2185.80
549.59	2011.31
549.79	1950.28
549.99	2176.58
550.19	2077.25
550.39	2033.02
550.60	1920.99
550.80	1984.69
551.00	2022.16
551.20	1866.11
551.40	1883.72
551.60	2010.29
551.80	1998.20
552.01	2014.18
552.21	1923.66
552.41	1944.75
552.61	2174.74
552.81	1958.47
553.01	1808.97
553.21	2005.58
553.42	1835.18
553.62	1850.34
553.82	1836.21
554.02	2146.07
554.22	2043.26
554.42	1812.86
554.62	1969.74
554.83	2148.52
555.03	2196.86
555.23	1966.87
555.43	2193.99
555.63	2078.48
555.83	2048.58
556.03	1998.20
556.23	1824.54
556.44	2028.31
556.64	2133.57
556.84	1711.08
557.04	1889.05
557.24	1987.76
557.44	1982.43
557.64	1959.09
557.84	1837.85
558.04	1894.99
558.25	2028.92
558.45	1839.90
558.65	1944.75
558.85	1950.28
559.05	1740.57
559.25	1858.33
559.45	1965.03
559.65	2244.37
559.85	2607.27
560.05	1971.37
560.26	2052.68
560.46	2038.96
560.66	1953.97
560.86	1916.08
561.06	1880.65
561.26	2167.16
561.46	2048.38
561.66	1885.36
561.86	2006.80
562.06	1845.83
562.26	1910.75
562.47	1939.02
562.67	1820.03
562.87	2018.68
563.07	1761.66
563.27	1923.86
563.47	1928.37
563.67	1870.61
563.87	2035.68
564.07	1870.41
564.27	1915.47
564.47	1973.42
564.67	2035.68
564.87	1874.30
565.08	2003.73
565.28	1897.24
565.48	2023.39
565.68	1992.67
565.88	2001.48
566.08	2208.94
566.28	1944.96
566.48	1803.44
566.68	1908.71
566.88	1947.41
567.08	2047.35
567.28	1919.56
567.48	1893.96
567.68	2026.87
567.88	1771.70
568.08	1946.39
568.28	2049.81
568.48	1925.30
568.68	2062.92
568.89	1929.39
569.09	1762.69
569.29	2044.28
569.49	2028.31
569.69	1825.35
569.89	1836.00
570.09	1734.63
570.29	1846.04
570.49	1752.86
570.69	1851.57
570.89	2057.80
571.09	2201.57
571.29	1787.88
571.49	2044.08
571.69	2002.30
571.89	2012.95
572.09	1881.06
572.29	1873.89
572.49	2055.75
572.69	2013.77
572.89	1962.77
573.09	1689.78
573.29	1939.43
573.49	1987.35
573.69	1932.46
573.89	2034.66
574.09	1882.90
574.29	2130.50
574.49	1867.95
574.69	1885.77
574.89	1796.07
575.09	1826.79
575.29	1860.37
575.49	1906.45
575.69	2012.95
575.89	1824.13
576.09	1945.78
576.29	1970.35
576.49	1818.19
576.69	1927.75
576.89	1868.36
577.09	1931.85
577.29	1778.25
577.49	2186.62
577.69	1851.98
577.89	2008.03
578.09	1963.18
578.29	1789.31
578.49	1918.74
578.69	1859.56
578.89	2076.23
579.09	1937.58
579.29	1834.16
579.49	2029.74
579.69	1928.57
579.89	2182.52
580.09	1727.46
580.29	1774.97
580.49	1870.61
580.69	1809.18
580.89	1890.48
581.09	1877.37
581.29	1876.76
581.49	1926.32
581.69	1814.50
581.89	1851.57
582.09	1830.88
582.28	1839.28
582.48	1993.29
582.68	2075.82
582.88	2115.14
583.08	1939.22
583.28	1930.82
583.48	1923.04
583.68	1853.41
583.88	1936.15
584.08	1938.40
584.28	1898.47
584.48	2186.41
584.68	1997.38
584.88	1922.84
585.08	2056.37
585.28	2060.05
585.48	2109.20
585.68	1974.24
585.87	2022.78
586.07	2005.17
586.27	1963.59
586.47	2019.71
586.67	1947.00
586.87	1976.70
587.07	1921.81
587.27	1828.02
587.47	1987.35
587.67	2185.18
587.87	2330.18
588.07	2053.50
588.27	1960.73
588.46	2155.90
588.66	2159.38
588.86	1996.97
589.06	2068.86
589.26	2121.49
589.46	2057.18
589.66	1852.59
589.86	1835.39
590.06	1921.61
590.26	2063.53
590.46	1946.80
590.66	2039.78
590.85	1943.52
591.05	2108.38
591.25	1909.12
591.45	1954.99
591.65	2042.85
591.85	1991.65
592.05	1949.87
592.25	2052.27
592.45	2113.50
592.64	1961.34
592.84	1977.31
593.04	1850.13
593.24	2270.17
593.44	1906.04
593.64	1975.68
593.84	2006.60
594.04	1902.97
594.24	2126.41
594.43	1846.65
594.63	1932.67
594.83	2065.38
595.03	2034.86
595.23	1840.51
595.43	1768.22
595.63	1857.30
595.83	2074.80
596.02	1709.03
596.22	1941.27
596.42	1933.69
596.62	1917.31
596.82	1875.73
597.02	1988.99
597.22	2107.16
597.41	1970.97
597.61	1882.49
597.81	2012.54
598.01	2031.79
598.21	1908.50
598.41	1866.31
598.61	1834.78
598.80	1948.03
599.00	1973.83
599.20	2097.94
599.40	1881.06
599.60	1906.25
599.80	2064.76
599.99	2093.84
600.19	1909.12
600.39	1979.57
600.59	2033.02
600.79	1981.00
600.99	1997.79
601.19	2211.60
601.38	2238.63
601.58	1990.63
601.78	1729.30
601.98	2041.21
602.18	2130.09
602.37	2350.86
602.57	2207.71
602.77	2351.27
602.97	2324.65
603.17	2348.20
603.37	2220.00
603.56	2329.56
603.76	2260.34
603.96	2200.54
604.16	2206.89
604.36	2269.56
604.56	2192.56
604.75	1930.42
604.95	2020.94
605.15	2210.99
605.35	2167.37
605.55	1958.06
605.74	1929.60
605.94	2157.33
606.14	1974.04
606.34	2000.05
606.54	1954.99
606.73	1927.75
606.93	2058.62
607.13	1871.23
607.33	1963.18
607.53	2141.56
607.72	2072.95
607.92	2018.27
608.12	2021.14
608.32	1945.16
608.51	2029.54
608.71	1855.25
608.91	1950.90
609.11	2048.38
609.31	1905.02
609.50	1981.00
609.70	2148.73
609.90	2096.92
610.10	2073.57
610.29	1945.37
610.49	1888.02
610.69	2060.05
610.89	2015.41
611.09	1970.15
611.28	2088.52
611.48	2090.57
611.68	1946.80
611.88	1882.49
612.07	1835.18
612.27	2072.54
612.47	1884.13
612.67	1952.94
612.86	2032.20
613.06	1941.68
613.26	1761.66
613.46	1892.73
613.65	1925.91
613.85	2316.46
614.05	2029.95
614.25	2015.82
614.44	1904.41
614.64	1937.17
614.84	1899.49
615.04	1839.90
615.23	1863.45
615.43	2020.94
615.63	2017.66
615.83	1855.05
616.02	1793.61
616.22	2048.17
616.42	1811.02
616.62	1859.15
616.81	1934.31
617.01	2019.71
617.21	1980.80
617.41	1852.80
617.60	1936.35
617.80	2015.00
618.00	2025.44
618.19	1970.76
618.39	1969.53
618.59	1991.44
618.79	1924.68
618.98	1739.54
619.18	1906.66
619.38	2211.60
619.57	1908.91
619.77	1917.92
619.97	1879.42
620.17	1843.99
620.36	1791.97
620.56	2035.48
620.76	1793.82
620.95	1813.68
621.15	1907.27
621.35	1805.28
621.54	1871.84
621.74	1943.11
621.94	1858.94
622.14	1813.48
622.33	1756.75
622.53	1927.96
622.73	1904.41
622.92	1755.31
623.12	1926.73
623.32	2189.48
623.51	2017.45
623.71	1778.25
623.91	2048.17
624.10	1842.76
624.30	1964.00
624.50	1802.01
624.69	1827.61
624.89	2434.22
625.09	1892.12
625.29	1701.86
625.48	1800.16
625.68	1941.68
625.88	2080.74
626.07	1964.62
626.27	1835.39
626.47	1885.77
626.66	1764.12
626.86	1903.18
627.06	1880.65
627.25	1925.71
627.45	2118.62
627.64	1926.73
627.84	2091.80
628.04	1838.87
628.23	2185.80
628.43	1819.42
628.63	1822.90
628.82	1897.24
629.02	2188.25
629.22	2029.74
629.41	2102.44
629.61	1953.15
629.81	2209.55
630.00	1904.82
630.20	1815.73
630.40	1985.71
630.59	2025.85
630.79	1908.50
630.98	1910.35
631.18	1922.63
631.38	1934.31
631.57	2079.51
631.77	1778.25
631.97	1957.45
632.16	1957.04
632.36	1929.80
632.56	1944.34
632.75	1948.03
632.95	2039.16
633.14	1788.70
633.34	2083.60
633.54	1725.82
633.73	1870.21
633.93	1875.73
634.12	1733.40
634.32	2266.90
634.52	1938.40
634.71	1812.25
634.91	1950.49
635.11	1771.90
635.30	1840.10
635.50	1957.86
635.69	1814.71
635.89	2173.51
636.09	2060.87
636.28	1829.86
636.48	1836.00
636.67	2034.45
636.87	2011.72
637.07	1982.84
637.26	1861.19
637.46	1968.10
637.65	2087.08
637.85	1968.51
638.04	1889.87
638.24	1908.71
638.44	2002.71
638.63	1941.68
638.83	1904.20
639.02	2015.82
639.22	2018.89
639.42	1911.98
639.61	1936.76
639.81	1949.67
640.00	1943.73
640.20	2011.11
640.39	2012.95
640.59	2267.51
640.79	2147.09
640.98	2140.13
641.18	2072.75
641.37	2106.13
641.57	2016.23
641.76	2020.32
641.96	1828.22
642.15	2031.59
642.35	1933.28
642.55	1969.33
642.74	1845.42
642.94	2082.78
643.13	2161.43
643.33	1937.79
643.52	1907.89
643.72	1904.82
643.91	1980.59
644.11	1874.30
644.31	1854.85
644.50	1872.46
644.70	2135.21
644.89	1915.87
645.09	2015.20
645.28	1962.57
645.48	2008.24
645.67	1862.01
645.87	1755.72
646.06	1908.30
646.26	2006.39
646.45	1743.85
646.65	1729.92
646.84	2190.51
647.04	1882.49
647.24	1826.79
647.43	1976.29
647.63	1981.82
647.82	2158.35
648.02	1807.95
648.21	1862.22
648.41	2117.19
648.60	1914.44
648.80	2042.85
648.99	1952.74
649.19	1879.63
649.38	1767.60
649.58	1956.01
649.77	1970.15
649.97	2096.30
650.16	2025.44
650.36	1726.64
650.55	2038.14
650.75	2010.90
650.94	2156.51
651.14	1943.52
651.33	1989.81
651.53	2179.24
651.72	1872.66
651.92	1949.05
652.11	1757.36
652.31	2032.40
652.50	2012.54
652.70	1969.53
652.89	1826.79
653.09	2157.94
653.28	1957.86
653.48	1739.34
653.67	1768.22
653.87	2337.76
654.06	1982.23
654.25	2064.56
654.45	1874.51
654.64	1887.41
654.84	1918.33
655.03	1712.10
655.23	2037.52
655.42	2043.87
655.62	2169.00
655.81	1959.91
656.01	1857.30
656.20	2055.75
656.40	2146.68
656.59	1937.17
656.79	2096.92
656.98	1975.88
657.17	2057.80
657.37	1953.35
657.56	1879.22
657.76	2001.28
657.95	2104.49
658.15	1636.74
658.34	1925.09
658.54	1927.96
658.73	1803.03
658.92	1893.35
659.12	1954.58
659.31	2025.44
659.51	1852.18
659.70	1976.70
659.90	1942.70
660.09	2094.46
660.29	1954.38
660.48	1829.04
660.67	2089.13
660.87	1913.83
661.06	2002.50
661.26	2029.33
661.45	2002.71
661.65	2024.83
661.84	1881.26
662.03	1853.82
662.23	1892.12
662.42	2216.93
662.62	1797.30
662.81	1849.93
663.00	1874.10
663.20	2029.33
663.39	2059.23
663.59	2101.01
663.78	2002.09
663.97	2003.94
664.17	2148.52
664.36	1848.70
664.56	1887.82
664.75	2102.44
664.94	2057.39
665.14	1987.76
665.33	1963.39
665.53	2025.85
665.72	1967.69
665.91	2099.37
666.11	1968.71
666.30	1966.25
666.50	1959.91
666.69	2057.80
666.88	2011.92
667.08	2081.97
667.27	2052.88
667.47	2112.68
667.66	2031.38
667.85	2172.08
668.05	2054.93
668.24	1964.21
668.43	2143.81
668.63	1958.27
668.82	2150.16
669.02	2036.09
669.21	1966.46
669.40	1800.78
669.60	2199.11
669.79	1802.42
669.98	2409.23
670.18	1823.92
670.37	1789.72
670.56	1893.96
670.76	1963.80
670.95	1938.20
671.15	2016.43
671.34	1956.22
671.53	1928.98
671.73	1880.44
671.92	1843.17
672.11	1794.23
672.31	1841.94
672.50	1983.25
672.69	1791.77
672.89	1686.71
673.08	1877.37
673.27	2020.73
673.47	1966.05
673.66	1958.27
673.85	1816.14
674.05	2008.85
674.24	2118.62
674.43	2056.16
674.63	2326.70
674.82	2627.54
675.01	2101.83
675.21	2330.18
675.40	2177.20
675.59	2096.71
675.79	2371.96
675.98	2072.75
676.17	2168.18
676.37	2127.84
676.56	2009.26
676.75	2005.78
676.95	1989.19
677.14	1937.17
677.33	2079.92
677.52	1839.49
677.72	1879.63
677.91	1984.48
678.10	1769.85
678.30	1823.10
678.49	1786.65
678.68	2212.63
678.88	1731.97
679.07	2016.63
679.26	1862.63
679.45	2170.85
679.65	2061.89
679.84	1721.52
680.03	1738.93
680.23	1890.48
680.42	2234.13
680.61	1781.73
680.81	1834.16
681.00	1926.52
681.19	1952.33
681.38	2000.87
681.58	1970.15
681.77	1871.43
681.96	2030.15
682.15	1847.27
682.35	1943.32
682.54	1989.60
682.73	1777.23
682.93	1814.91
683.12	1845.63
683.31	1994.93
683.50	2270.17
683.70	1836.82
683.89	1936.35
684.08	1824.74
684.27	2043.87
684.47	1750.60
684.66	1917.92
684.85	2186.62
685.04	2071.52
685.24	1859.35
685.43	1941.88
685.62	1744.25
685.81	2001.68
686.01	2063.74
686.20	2028.31
686.39	2046.13
686.58	2501.80
686.78	2266.69
686.97	2240.27
687.16	2276.73
687.35	2182.11
687.55	2045.51
687.74	2068.65
687.93	1956.22
688.12	2021.14
688.32	2010.08
688.51	1868.36
688.70	2020.53
688.89	1853.82
689.08	1784.19
689.28	1846.65
689.47	1970.56
689.66	1943.93
689.85	1998.20
690.05	1838.87
690.24	1855.05
690.43	1934.92
690.62	1950.28
690.81	1854.85
691.01	1912.39
691.20	1892.73
691.39	1819.62
691.58	1974.45
691.77	2173.10
691.97	1963.18
692.16	1966.05
692.35	1892.12
692.54	1863.45
692.73	2047.76
692.93	1997.18
693.12	2057.39
693.31	2101.83
693.50	2037.32
693.69	2088.93
693.89	1960.32
694.08	2174.74
694.27	2151.80
694.46	1898.06
694.65	1953.56
694.85	2028.72
695.04	2067.42
695.23	2222.46
695.42	3365.43
695.61	4432.62
695.80	5184.02
696.00	5907.37
696.19	6209.65
696.38	5501.25
696.57	4617.35
696.76	4400.68
696.95	4082.83
697.15	4006.44
697.34	3767.44
697.53	3286.38
697.72	3175.17
697.91	2853.84
698.10	2829.27
698.30	2359.06
698.49	2213.85
698.68	2127.43
698.87	1989.19
699.06	1862.63
699.25	1919.77
699.45	2066.20
699.64	1978.13
699.83	2025.85
700.02	1802.42
700.21	1990.22
700.40	1871.64
700.59	1889.25
700.79	1853.21
700.98	2011.11
701.17	1847.47
701.36	1842.76
701.55	1853.00
701.74	2093.64
701.93	1892.73
702.12	2093.02
702.32	2016.23
702.51	2301.92
702.70	2293.32
702.89	2138.69
703.08	2011.92
703.27	2227.78
703.46	2106.13
703.65	1982.43
703.85	1881.26
704.04	1914.65
704.23	2138.69
704.42	1888.84
704.61	1927.75
704.80	2160.61
704.99	1860.17
705.18	1992.67
705.37	2039.78
705.57	2904.43
705.76	4108.23
705.95	4479.73
706.14	5339.05
706.33	5752.74
706.52	5647.27
706.71	4418.08
706.90	4101.47
707.09	3956.88
707.28	3745.53
707.47	3377.71
707.67	3342.90
707.86	2989.22
708.05	3002.53
708.24	2632.87
708.43	2425.82
708.62	2185.80
708.81	2023.39
709.00	1889.25
709.19	1884.13
709.38	2072.13
709.57	1851.16
709.76	1958.06
709.96	1907.07
710.15	2120.47
710.34	1973.42
710.53	2035.27
710.72	1947.00
710.91	2098.76
711.10	2016.02
711.29	2004.96
711.48	1897.03
711.67	1806.51
711.86	1989.40
712.05	1835.18
712.24	1844.40
712.43	2024.83
712.62	2109.20
712.81	1932.46
713.00	2053.09
713.19	1811.02
713.39	2039.16
713.58	1901.95
713.77	2130.71
713.96	2273.86
714.15	2259.11
714.34	2250.72
714.53	2107.56
714.72	2399.40
714.91	2025.65
715.10	2128.86
715.29	1958.68
715.48	2461.86
715.67	2180.06
715.86	2080.53
716.05	2017.25
716.24	1975.47
716.43	1902.97
716.62	1827.40
716.81	1789.92
717.00	1905.84
717.19	2152.62
717.38	1941.47
717.57	1884.75
717.76	1749.78
717.95	2042.23
718.14	1920.59
718.33	1851.98
718.52	1715.99
718.71	1740.98
718.90	1781.53
719.09	1860.78
719.28	1923.45
719.47	2023.39
719.66	2019.09
719.85	2010.29
720.04	1934.51
720.23	1983.25
720.42	1881.67
720.61	1985.71
720.80	1798.73
720.99	2003.73
721.18	1892.94
721.37	1837.64
721.56	1896.21
721.75	2028.72
721.94	1834.57
722.13	1902.77
722.32	1898.26
722.51	2042.03
722.70	1938.61
722.89	1950.28
723.08	1921.81
723.27	2054.93
723.46	1942.91
723.65	1873.89
723.84	1878.40
724.03	2098.76
724.22	1813.48
724.41	1961.34
724.60	1850.95
724.79	2050.63
724.98	1962.36
725.16	1880.44
725.35	2020.32
725.54	1812.04
725.73	1942.91
725.92	1971.17
726.11	2113.30
726.30	2542.96
726.49	2529.45
726.68	2743.66
726.87	2926.96
727.06	2999.86
727.25	2496.47
727.44	2579.01
727.63	2455.72
727.82	2374.62
728.01	2372.57
728.20	2376.26
728.38	2401.86
728.57	2166.14
728.76	2151.80
728.95	2169.82
729.14	1899.08
729.33	1882.49
729.52	1763.30
729.71	1874.71
729.90	1844.40
730.09	1918.13
730.28	1943.52
730.47	1941.68
730.66	2155.28
730.84	2055.14
731.03	2012.33
731.22	2041.01
731.41	2029.13
731.60	2037.73
731.79	1825.15
731.98	1876.76
732.17	2046.54
732.36	2014.59
732.55	1902.56
732.73	1846.04
732.92	2125.59
733.11	2033.43
733.30	1868.77
733.49	1828.02
733.68	2029.95
733.87	2004.76
734.06	1896.62
734.25	1933.08
734.43	1959.29
734.62	2127.84
734.81	2051.04
735.00	2019.50
735.19	2047.35
735.38	2117.60
735.57	1897.65
735.76	2037.52
735.94	2117.60
736.13	2442.61
736.32	2295.16
736.51	2297.41
736.70	2584.54
736.89	2662.77
737.08	2887.02
737.27	4336.78
737.45	6335.19
737.64	7128.36
737.83	8278.91
738.02	8857.46
738.21	8304.92
738.40	6700.13
738.59	6051.75
738.77	5628.23
738.96	5226.42
739.15	4975.54
739.34	4678.58
739.53	4273.29
739.72	4096.76
739.90	3694.54
740.09	3081.37
740.28	2829.06
740.47	2604.61
740.66	2386.70
740.85	2071.11
741.03	2088.31
741.22	1908.30
741.41	2000.66
741.60	1865.09
741.79	2022.37
741.98	2124.36
742.16	2242.53
742.35	2020.32
742.54	2003.12
742.73	2318.10
742.92	2025.44
743.10	1913.01
743.29	1998.20
743.48	2377.69
743.67	1996.36
743.86	1880.85
744.05	1922.22
744.23	1929.60
744.42	1922.02
744.61	2006.60
744.80	1885.16
744.99	1979.77
745.17	1829.66
745.36	1842.15
745.55	2065.17
745.74	2044.69
745.93	1939.02
746.11	1929.19
746.30	1914.85
746.49	2130.09
746.68	1916.90
746.86	1985.71
747.05	1979.98
747.24	2103.47
747.43	2106.34
747.62	1912.39
747.80	1931.85
747.99	2209.14
748.18	2162.25
748.37	2106.95
748.56	2098.55
748.74	2187.03
748.93	2295.98
749.12	3417.04
749.31	6899.40
749.49	10082.97
749.68	12157.36
749.87	14081.22
750.06	14868.05
750.24	14175.43
750.43	13504.92
750.62	14722.44
750.81	15124.86
750.99	15741.10
751.18	15303.65
751.37	12978.18
751.56	10830.68
751.74	10470.65
751.93	9341.20
752.12	7784.53
752.31	6778.16
752.49	5897.33
752.68	5305.88
752.87	4526.22
753.06	3907.93
753.24	3437.72
753.43	3155.31
753.62	2583.10
753.81	2330.38
753.99	2432.58
754.18	2213.85
754.37	1999.23
754.55	2076.64
754.74	2275.50
754.93	1822.28
755.12	1951.71
755.30	1914.65
755.49	2110.84
755.68	2018.48
755.86	2022.78
756.05	1876.55
756.24	2181.70
756.43	1846.86
756.61	1864.88
756.80	2015.61
756.99	2121.49
757.17	1974.24
757.36	1855.05
757.55	1983.87
757.74	2045.51
757.92	2000.46
758.11	1823.10
758.30	1792.59
758.48	1986.94
758.67	1890.07
758.86	2025.85
759.04	1907.07
759.23	2001.68
759.42	2046.13
759.60	1963.80
759.79	1999.23
759.98	1947.00
760.16	1921.81
760.35	1897.65
760.54	1873.48
760.73	1983.46
760.91	1841.94
761.10	2000.05
761.29	2015.61
761.47	2018.68
761.66	2287.58
761.85	2039.16
762.03	2376.67
762.22	4251.17
762.41	10420.06
762.59	17549.04
762.78	21058.03
762.97	25577.29
763.15	27405.92
763.34	24891.01
763.52	18255.59
763.71	16838.19
763.90	15431.65
764.08	14337.01
764.27	13142.02
764.46	12072.16
764.64	10535.98
764.83	9452.40
765.02	8316.19
765.20	7071.64
765.39	5835.89
765.58	4401.08
765.76	3640.67
765.95	3015.22
766.13	2589.45
766.32	2303.96
766.51	2220.61
766.69	2686.94
766.88	2100.81
767.07	1934.10
767.25	1826.79
767.44	2115.14
767.62	2123.74
767.81	1913.42
768.00	1981.20
768.18	1971.17
768.37	1897.24
768.56	1803.65
768.74	1873.48
768.93	1807.74
769.11	2015.00
769.30	1941.47
769.49	1867.34
769.67	1911.78
769.86	1894.17
770.04	1898.47
770.23	1909.73
770.42	2111.87
770.60	1943.32
770.79	1844.20
770.97	1974.24
771.16	2831.11
771.35	4443.07
771.53	5881.97
771.72	6823.42
771.90	7932.81
772.09	8496.82
772.27	7489.42
772.46	5748.03
772.65	5754.59
772.83	5268.40
773.02	5063.60
773.20	4608.95
773.39	4494.47
773.58	4171.51
773.76	3598.49
773.95	3399.83
774.13	3222.48
774.32	2816.98
774.50	2453.67
774.69	2332.02
774.87	2168.39
775.06	2351.89
775.25	1924.89
775.43	1996.36
775.62	1995.34
775.80	2023.19
775.99	1984.69
776.17	1873.48
776.36	1956.42
776.54	2106.75
776.73	1886.38
776.92	1967.48
777.10	2064.15
777.29	2047.97
777.47	1850.13
777.66	1893.55
777.84	1958.68
778.03	1953.35
778.21	1836.21
778.40	1937.99
778.58	1993.49
778.77	2068.86
778.95	1785.01
779.14	1847.47
779.32	2147.70
779.51	2043.05
779.70	1882.90
779.88	1777.64
780.07	1877.17
780.25	2285.33
780.44	1863.45
780.62	2004.96
780.81	1983.66
780.99	1990.42
781.18	1845.02
781.36	1866.52
781.55	1915.87
781.73	2126.41
781.92	1776.20
782.10	1783.17
782.29	1987.14
782.47	2114.32
782.66	1939.02
782.84	1759.41
783.03	1874.71
783.21	2106.54
783.40	1885.36
783.58	1858.33
783.77	1889.25
783.95	1908.30
784.14	1840.51
784.32	1903.59
784.51	2088.72
784.69	1830.68
784.88	1750.81
785.06	1889.46
785.24	1773.34
785.43	2049.20
785.61	1981.82
785.80	1820.85
785.98	2000.46
786.17	1931.44
786.35	1826.38
786.54	1989.19
786.72	2051.66
786.91	2086.68
787.09	1926.93
787.28	1808.77
787.46	1962.77
787.65	2067.42
787.83	1825.35
788.01	1953.76
788.20	1822.69
788.38	1969.53
788.57	1901.13
788.75	1922.43
788.94	2212.01
789.12	2148.73
789.31	1953.97
789.49	2039.37
789.67	1906.86
789.86	1991.65
790.04	1849.93
790.23	1772.72
790.41	2254.61
790.60	1904.61
790.78	1927.14
790.96	1936.97
791.15	2054.73
791.33	1946.39
791.52	1926.73
791.70	1847.47
791.89	1961.95
792.07	2081.97
792.25	1966.05
792.44	1811.02
792.62	2097.12
792.81	1917.51
792.99	1988.58
793.17	1905.43
793.36	1984.07
793.54	2643.72
793.73	3825.40
793.91	5294.82
794.10	6293.20
794.28	7267.01
794.46	7514.82
794.65	7242.64
794.83	5800.67
795.01	5338.03
795.20	5234.40
795.38	4822.15
795.57	4616.94
795.75	4366.88
795.93	3988.83
796.12	3792.22
796.30	3573.09
796.49	3344.13
796.67	2910.37
796.85	2841.35
797.04	2603.99
797.22	2492.58
797.40	2099.78
797.59	2211.81
797.77	2182.32
797.96	2021.55
798.14	2010.70
798.32	2005.78
798.51	2158.76
798.69	2269.97
798.87	2037.11
799.06	1990.01
799.24	1928.57
799.42	2587.40
799.61	3403.31
799.79	4078.12
799.98	4850.00
800.16	5302.81
800.34	6661.84
800.53	8300.21
800.71	8866.48
800.89	10209.74
801.08	10440.75
801.26	10438.70
801.44	8737.25
801.63	7183.66
801.81	7049.52
801.99	6440.25
802.18	6013.86
802.36	5679.02
802.54	5218.84
802.73	4485.26
802.91	4196.49
803.09	3811.88
803.28	3518.21
803.46	3209.58
803.64	3068.27
803.83	2496.27
804.01	2245.19
804.19	2135.21
804.38	2302.33
804.56	2172.28
804.74	2053.70
804.92	2069.47
805.11	1923.25
805.29	2162.45
805.47	1953.35
805.66	1878.19
805.84	1893.14
806.02	2145.25
806.21	1982.02
806.39	2123.74
806.57	2138.69
806.76	2122.92
806.94	2022.78
807.12	1948.03
807.30	2024.21
807.49	2152.01
807.67	2131.73
807.85	2201.77
808.04	2190.71
808.22	2342.06
808.40	1875.94
808.58	1864.68
808.77	2103.67
808.95	2367.66
809.13	2833.16
809.31	5116.85
809.50	7651.42
809.68	9036.87
809.86	10273.23
810.05	11206.89
810.23	12774.82
810.41	18992.45
810.59	32411.15
810.78	40787.14
810.96	47647.43
811.14	51874.84
811.32	51285.03
811.51	41111.95
811.69	32323.91
811.87	31968.59
812.05	27778.85
812.24	26064.91
812.42	23861.91
812.60	21185.83
812.78	18032.36
812.97	15305.49
813.15	13457.00
813.33	11426.64
813.51	9706.55
813.70	7744.19
813.88	6054.41
814.06	4772.79
814.24	3793.66
814.42	2988.40
814.61	2754.31
814.79	2747.55
814.97	2166.75
815.15	2177.20
815.34	2190.51
815.52	2232.70
815.70	1929.19
815.88	1974.65
816.06	1956.42
816.25	1967.48
816.43	1904.82
816.61	2039.98
816.79	2140.54
816.98	1778.87
817.16	1860.99
817.34	1823.10
817.52	1997.18
817.70	2140.13
817.89	1907.68
818.07	1812.04
818.25	1921.81
818.43	1952.53
818.61	1880.44
818.80	1845.83
818.98	2148.32
819.16	1940.45
819.34	1781.53
819.52	2096.92
819.70	1822.08
819.89	1922.63
820.07	1738.73
820.25	1735.86
820.43	1936.97
820.61	2029.33
820.80	1887.61
820.98	1817.57
821.16	1742.41
821.34	1753.47
821.52	1887.82
821.70	1924.48
821.89	1917.92
822.07	1887.82
822.25	1842.97
822.43	1797.09
822.61	2110.84
822.79	1965.64
822.98	1874.30
823.16	1694.69
823.34	1947.21
823.52	2091.39
823.70	2005.17
823.88	1753.47
824.06	1989.60
824.25	1911.57
824.43	1973.63
824.61	1800.98
824.79	1885.77
824.97	1977.93
825.15	2153.64
825.33	2754.11
825.52	3791.81
825.70	4331.86
825.88	4727.53
826.06	5175.83
826.24	5314.07
826.42	4787.95
826.60	3969.37
826.78	4001.12
826.97	3628.18
827.15	3663.61
827.33	3246.85
827.51	3259.75
827.69	2976.52
827.87	2882.72
828.05	2755.34
828.23	2442.00
828.41	2585.97
828.60	2455.92
828.78	2073.16
828.96	2145.86
829.14	2016.63
829.32	1978.95
829.50	1911.57
829.68	1897.65
829.86	1880.44
830.04	2017.66
830.22	1925.50
830.41	1818.80
830.59	1925.91
830.77	2028.72
830.95	1836.00
831.13	1838.87
831.31	1832.11
831.49	2034.25
831.67	2000.87
831.85	1982.43
832.03	1881.06
832.21	1988.37
832.39	1761.46
832.57	1772.52
832.76	2020.73
832.94	1881.67
833.12	1700.84
833.30	1862.83
833.48	2034.25
833.66	1966.46
833.84	1842.35
834.02	1880.44
834.20	2023.19
834.38	2008.03
834.56	1711.69
834.74	1776.61
834.92	1755.52
835.10	2124.56
835.28	1925.91
835.46	1900.11
835.64	1905.84
835.82	1833.34
836.01	2075.41
836.19	1983.66
836.37	1849.11
836.55	1833.75
836.73	1823.51
836.91	1766.37
837.09	2009.06
837.27	2088.93
837.45	1763.30
837.63	1811.84
837.81	1806.92
837.99	1936.97
838.17	1870.21
838.35	1835.59
838.53	2227.17
838.71	2031.18
838.89	1870.41
839.07	1871.02
839.25	2003.12
839.43	2157.54
839.61	2417.22
839.79	4022.21
839.97	5918.83
840.15	6929.71
840.33	7930.96
840.51	8515.25
840.69	8161.36
840.87	6670.03
841.05	5945.25
841.23	6420.59
841.41	8257.82
841.59	11757.18
841.77	13385.73
841.95	14528.90
842.13	15592.01
842.31	15015.30
842.49	11949.08
842.67	10012.72
842.85	9717.00
843.03	8451.15
843.21	7961.89
843.39	7387.02
843.57	6560.46
843.75	5896.51
843.93	5090.02
844.11	4492.83
844.29	4155.94
844.47	3781.78
844.65	3621.83
844.83	3131.96
845.01	2817.39
845.19	2682.84
845.36	2325.67
845.54	2240.89
845.72	2122.11
845.90	2096.92
846.08	1844.20
846.26	1947.41
846.44	2042.85
846.62	2020.12
846.80	1917.72
846.98	1837.44
847.16	1899.90
847.34	1927.14
847.52	1795.86
847.70	1784.80
847.88	1896.01
848.06	2102.65
848.24	1931.64
848.41	1736.27
848.59	2042.44
848.77	1959.29
848.95	1823.31
849.13	1849.52
849.31	2001.68
849.49	1962.98
849.67	1788.29
849.85	1773.13
850.03	1934.10
850.21	1972.40
850.39	1824.54
850.57	1936.97
850.74	2094.87
850.92	2238.43
851.10	2619.76
851.28	3322.62
851.46	3930.67
851.64	4514.95
851.82	4449.21
852.00	4523.96
852.18	4135.26
852.36	3587.63
852.53	3403.52
852.71	3298.87
852.89	3221.86
853.07	3105.34
853.25	2798.14
853.43	2605.43
853.61	2643.93
853.79	2531.49
853.97	2294.95
854.14	2188.46
854.32	2404.72
854.50	2272.02
854.68	2053.09
854.86	1985.30
855.04	1919.36
855.22	2057.18
855.40	1773.75
855.57	1836.82
855.75	2008.44
855.93	1984.07
856.11	1703.50
856.29	1790.95
856.47	1817.16
856.65	1930.21
856.82	1767.81
857.00	1734.02
857.18	1867.13
857.36	1817.16
857.54	1882.90
857.72	1956.83
857.89	1959.09
858.07	1896.83
858.25	2013.97
858.43	1728.90
858.61	1907.07
858.79	1896.83
858.97	1778.87
859.14	1904.61
859.32	1845.63
859.50	1846.65
859.68	1922.43
859.86	1813.27
860.03	1905.23
860.21	1955.20
860.39	1822.08
860.57	1910.55
860.75	1928.78
860.93	2127.23
861.10	2017.86
861.28	1806.92
861.46	1954.17
861.64	1964.82
861.82	1858.33
861.99	1939.84
862.17	2029.33
862.35	2007.21
862.53	1865.70
862.71	1876.14
862.88	1939.22
863.06	1976.70
863.24	1838.46
863.42	1814.30
863.60	1858.74
863.77	1978.13
863.95	1682.41
864.13	1862.83
864.31	1862.01
864.49	2007.83
864.66	1721.11
864.84	1792.59
865.02	1922.84
865.20	2242.32
865.37	1894.58
865.55	1824.54
865.73	1849.32
865.91	2183.34
866.09	2223.89
866.26	2231.06
866.44	2415.58
866.62	2293.32
866.80	2140.54
866.97	2162.45
867.15	2129.89
867.33	2157.54
867.51	2143.20
867.68	2051.45
867.86	2019.50
868.04	1972.81
868.22	1814.09
868.39	1894.37
868.57	1988.17
868.75	2126.41
868.93	1760.23
869.10	1819.21
869.28	2151.39
869.46	2089.13
869.64	1880.44
869.81	1846.65
869.99	1937.58
870.17	1911.16
870.35	1810.40
870.52	1787.47
870.70	2011.72
870.88	1813.89
871.05	1759.00
871.23	1641.04
871.41	1852.18
871.59	1896.62
871.76	1835.18
871.94	1779.48
872.12	1898.06
872.29	1717.43
872.47	1811.84
872.65	1755.93
872.83	1937.79
873.00	2055.96
873.18	1835.80
873.36	1766.58
873.53	1977.31
873.71	1721.73
873.89	1762.07
874.06	1850.34
874.24	1933.08
874.42	2067.42
874.60	1938.40
874.77	1872.46
874.95	1797.30
875.13	1999.23
875.30	1763.92
875.48	1837.23
875.66	2068.24
875.83	1812.25
876.01	1844.61
876.19	1968.10
876.36	1744.05
876.54	1892.32
876.72	1744.05
876.89	1910.55
877.07	2001.07
877.25	1663.77
877.42	1882.70
877.60	1845.02
877.78	2086.06
877.95	1821.05
878.13	1811.02
878.31	1906.45
878.48	1969.74
878.66	1990.01
878.84	1811.02
879.01	1837.23
879.19	1941.88
879.37	1963.80
879.54	1810.40
879.72	1733.40
879.90	1675.44
880.07	1989.19
880.25	1607.25
880.42	1942.09
880.60	1907.27
880.78	1993.70
880.95	1823.72
881.13	1866.11
881.31	1880.04
881.48	1824.33
881.66	1777.84
881.83	1866.72
882.01	1786.65
882.19	1760.43
882.36	1846.45
882.54	1821.87
882.72	1942.91
882.89	1895.19
883.07	1752.04
883.24	1806.51
883.42	2000.25
883.60	1904.61
883.77	1762.69
883.95	1818.19
884.12	1980.39
884.30	1921.81
884.48	1964.41
884.65	1859.97
884.83	1910.75
885.00	1927.96
885.18	1755.31
885.36	1817.98
885.53	1945.98
885.71	2061.28
885.88	1731.15
886.06	1826.79
886.23	1945.16
886.41	1860.58
886.59	1796.07
886.76	1806.72
886.94	1951.30
887.11	2246.21
887.29	1844.20
887.47	1712.31
887.64	2045.51
887.82	2038.34
887.99	1707.19
888.17	1852.59
888.34	1837.03
888.52	1763.10
888.69	1871.43
888.87	1754.49
889.05	1839.49
889.22	1846.04
889.40	1781.12
889.57	1955.20
889.75	2057.80
889.92	1847.06
890.10	1753.27
890.27	1830.06
890.45	1815.32
890.62	1694.90
890.80	1718.45
890.98	1709.64
891.15	2044.28
891.33	2002.71
891.50	1778.25
891.68	1697.56
891.85	1989.81
892.03	1955.20
892.20	1771.29
892.38	1729.10
892.55	1984.69
892.73	1979.98
892.90	1759.82
893.08	1802.83
893.25	1815.32
893.43	1816.96
893.60	1935.13
893.78	1658.24
893.95	1922.22
894.13	1876.14
894.30	1756.95
894.48	1850.13
894.65	1973.63
894.83	1878.19
895.00	1670.12
895.18	1643.09
895.35	1975.68
895.53	1950.49
895.70	1705.55
895.88	1887.20
896.05	1955.40
896.23	1728.69
896.40	1786.44
896.58	1859.15
896.75	1959.70
896.93	2047.15
897.10	1808.97
897.28	1734.63
897.45	1891.71
897.63	1947.41
897.80	1948.03
897.98	1826.99
898.15	1938.20
898.33	1792.59
898.50	1883.11
898.67	1833.96
898.85	1832.93
899.02	1955.40
899.20	1992.88
899.37	1809.18
899.55	1909.12
899.72	2048.38
899.90	1777.43
900.07	1780.71
900.25	1944.34
900.42	2034.45
900.59	1798.94
900.77	1938.20
900.94	1935.13
901.12	1951.30
901.29	1797.91
901.47	1910.75
901.64	1942.29
901.82	1881.26
901.99	1614.82
902.16	1765.35
902.34	2031.58
902.51	1919.97
902.69	1834.57
902.86	1868.77
903.03	2324.65
903.21	1898.26
903.38	1854.85
903.56	1771.90
903.73	2022.57
903.91	1841.94
904.08	1732.17
904.25	1671.76
904.43	1783.58
904.60	1963.59
904.78	1815.93
904.95	1718.86
905.12	1841.12
905.30	2082.58
905.47	1931.23
905.65	1949.05
905.82	1872.05
905.99	1957.65
906.17	1868.98
906.34	1773.54
906.52	1772.72
906.69	1962.98
906.86	1938.40
907.04	1861.81
907.21	2002.50
907.38	2013.77
907.56	1813.68
907.73	1800.78
907.91	2068.86
908.08	2036.50
908.25	1761.66
908.43	1747.33
908.60	1966.05
908.77	1916.28
908.95	1808.97
909.12	1772.11
909.30	2028.10
909.47	1750.60
909.64	1868.57
909.82	1960.11
909.99	1844.20
910.16	1896.42
910.34	1779.68
910.51	1834.57
910.68	1909.12
910.86	1922.22
911.03	1909.53
911.20	2518.59
911.38	4241.96
911.55	6711.60
911.72	7932.40
911.90	8741.96
912.07	9534.52
912.24	9208.08
912.42	7165.43
912.59	5178.08
912.76	4877.24
912.94	4181.13
913.11	3723.00
913.28	3374.23
913.46	3171.48
913.63	3135.85
913.80	3199.75
913.98	2819.85
914.15	2912.01
914.32	2867.77
914.49	2661.34
914.67	2509.79
914.84	2643.31
915.01	2679.56
915.19	2512.65
915.36	2323.22
915.53	2412.71
915.71	2249.49
915.88	2118.01
916.05	1942.09
916.22	2105.93
916.40	1992.88
916.57	1817.16
916.74	1911.98
916.92	2112.48
917.09	1783.58
917.26	1805.69
917.43	1732.99
917.61	1835.18
917.78	1718.86
917.95	1687.32
918.13	1720.70
918.30	2144.63
918.47	1901.95
918.64	1789.11
918.82	1788.90
918.99	1900.31
919.16	2134.80
919.33	1857.51
919.51	1802.21
919.68	1889.46
919.85	2033.63
920.02	1698.99
920.20	1834.78
920.37	2063.53
920.54	1999.84
920.71	1778.05
920.89	1823.51
921.06	2139.51
921.23	1814.50
921.40	1908.09
921.58	2405.13
921.75	3185.41
921.92	2873.71
922.09	3057.82
922.27	3091.82
922.44	2964.03
922.61	2649.87
922.78	2318.30
922.96	2236.18
923.13	2149.55
923.30	2295.36
923.47	1939.63
923.64	1994.31
923.82	2160.81
923.99	2101.63
924.16	2036.30
924.33	1914.85
924.50	2036.91
924.68	2191.74
924.85	1849.52
925.02	1931.64
925.19	2101.63
925.36	2004.35
925.54	1950.49
925.71	1909.53
925.88	2329.77
926.05	1884.54
926.22	1777.23
926.40	1864.47
926.57	1928.16
926.74	1953.15
926.91	1796.07
927.08	1965.03
927.26	2022.37
927.43	1899.49
927.60	1772.93
927.77	1832.93
927.94	2061.89
928.11	2000.46
928.29	1726.23
928.46	1860.78
928.63	1803.65
928.80	1864.88
928.97	1885.97
929.14	1754.90
929.32	2150.16
929.49	1888.43
929.66	1769.85
929.83	1709.03
930.00	1820.03
930.17	1925.30
930.35	1709.64
930.52	1761.46
930.69	2090.16
930.86	1762.28
931.03	1877.58
931.20	1625.88
931.37	1994.11
931.55	1864.27
931.72	1893.76
931.89	1682.82
932.06	1761.05
932.23	2070.70
932.40	1911.78
932.57	1895.60
932.74	2032.40
932.92	2030.56
933.09	1917.10
933.26	1568.54
933.43	1827.61
933.60	1934.92
933.77	1831.70
933.94	1876.76
934.11	1847.88
934.29	1899.29
934.46	1707.39
934.63	1888.64
934.80	1752.65
934.97	1926.93
935.14	1871.43
935.31	1733.81
935.48	1823.51
935.65	1960.11
935.82	1883.93
936.00	1759.41
936.17	2086.27
936.34	1871.02
936.51	1891.91
936.68	1721.32
936.85	1941.68
937.02	1906.04
937.19	1879.22
937.36	1802.83
937.53	1917.92
937.70	1991.44
937.87	1847.06
938.05	1904.20
938.22	1871.84
938.39	1757.77
938.56	1809.59
938.73	1743.64
938.90	1835.39
939.07	1813.68
939.24	1847.06
939.41	1658.45
939.58	1924.27
939.75	1940.04
939.92	1757.36
940.09	1943.93
940.26	1839.28
940.43	1971.58
940.60	1789.92
940.77	1802.62
940.95	1925.91
941.12	1956.22
941.29	1795.86
941.46	1828.63
941.63	2026.06
941.80	2043.46
941.97	1690.60
942.14	1697.36
942.31	1957.04
942.48	1854.44
942.65	1881.67
942.82	1836.00
942.99	1950.90
943.16	1893.35
943.33	1714.56
943.50	1769.44
943.67	1986.73
943.84	1996.56
944.01	1784.19
944.18	1754.29
944.35	2018.48
944.52	1751.63
944.69	1866.11
944.86	1671.76
945.03	1968.10
945.20	2174.33
945.37	1648.00
945.54	1781.53
945.71	2022.78
945.88	2059.64
946.05	1737.29
946.22	1706.98
946.39	2036.30
946.56	1869.80
946.73	1684.45
946.90	1731.76
947.07	1818.39
947.24	1862.83
947.41	1649.64
947.58	1914.44
947.75	1984.69
947.92	1891.91
948.09	1575.09
948.26	1670.53
948.43	1896.01
948.60	2135.21
948.77	1765.76
948.94	1785.83
949.11	1994.31
949.27	1934.31
949.44	1752.24
949.61	1751.22
949.78	1923.45
949.95	2013.36
950.12	1727.87
950.29	1696.54
950.46	1811.22
950.63	2004.76
950.80	1755.52
950.97	1812.66
951.14	1993.49
951.31	1843.38
951.48	1749.58
951.65	1711.69
951.82	2110.43
951.99	1903.79
952.15	1708.83
952.32	1794.23
952.49	1800.78
952.66	1822.28
952.83	1749.37
953.00	1740.57
953.17	1869.59
953.34	1974.24
953.51	1826.38
953.68	1802.21
953.85	2025.44
954.02	2036.30
954.18	1813.48
954.35	1811.43
954.52	1796.48
954.69	1873.48
954.86	1648.61
955.03	1825.15
955.20	1970.15
955.37	1858.12
955.54	1783.58
955.71	1750.19
955.87	1945.98
956.04	2060.67
956.21	1787.88
956.38	1717.43
956.55	1896.83
956.72	2207.71
956.89	1825.35
957.06	1738.32
957.23	1795.04
957.39	2042.03
957.56	1784.60
957.73	1721.11
957.90	1614.82
958.07	2091.39
958.24	1820.64
958.41	1760.84
958.57	1983.46
958.74	1868.16
958.91	1726.44
959.08	1764.12
959.25	1939.22
959.42	1852.59
959.59	1840.51
959.75	1786.65
959.92	2019.71
960.09	1986.94
960.26	1770.47
960.43	1828.84
960.60	1913.83
960.76	1851.57
960.93	1706.37
961.10	1849.73
961.27	1999.02
961.44	1834.78
961.61	1713.74
961.77	1714.56
961.94	1893.76
962.11	1992.67
962.28	1793.61
962.45	1708.62
962.62	1837.64
962.78	1967.69
962.95	1714.15
963.12	1777.84
963.29	1948.85
963.46	2241.50
963.62	1840.51
963.79	1786.44
963.96	2191.53
964.13	1817.78
964.30	1856.28
964.46	1807.95
964.63	1800.37
964.80	2336.32
964.97	1834.57
965.14	2221.02
965.30	2345.13
965.47	2442.20
965.64	2396.33
965.81	2306.42
965.98	2462.07
966.14	2195.63
966.31	1992.67
966.48	1969.74
966.65	2216.52
966.81	2098.35
966.98	1920.99
967.15	1978.54
967.32	2004.76
967.49	1903.18
967.65	1777.43
967.82	1728.28
967.99	1961.34
968.16	1772.93
968.32	2029.54
968.49	1844.20
968.66	1929.39
968.83	2148.11
968.99	1911.57
969.16	1768.42
969.33	2090.98
969.50	2001.07
969.66	1923.45
969.83	2025.03
970.00	1996.16
970.17	1967.89
970.33	1804.67
970.50	1711.08
970.67	2102.24
970.84	2064.76
971.00	1718.86
971.17	1696.74
971.34	1944.34
971.50	1885.36
971.67	1898.67
971.84	1836.21
972.01	1744.87
972.17	1649.02
972.34	1748.97
972.51	1882.49
972.67	2010.70
972.84	1929.60
973.01	1709.64
973.18	1757.77
973.34	1988.17
973.51	1778.87
973.68	1778.05
973.84	1801.39
974.01	1836.21
974.18	2093.84
974.34	1853.82
974.51	1863.24
974.68	1798.12
974.85	2147.70
975.01	1881.26
975.18	1798.94
975.35	1881.88
975.51	1808.15
975.68	1666.23
975.85	1924.27
976.01	1791.15
976.18	2059.64
976.35	1803.85
976.51	1768.22
976.68	2068.86
976.85	2010.90
977.01	1822.08
977.18	1865.29
977.35	1969.53
977.51	1746.71
977.68	1637.35
977.85	1710.46
978.01	2032.20
978.18	1983.46
978.35	1864.88
978.51	1863.04
978.68	2044.49
978.85	2124.15
979.01	1782.76
979.18	1867.54
979.34	1892.73
979.51	1918.95
979.68	1766.37
979.84	1837.64
980.01	2198.49
980.18	1894.17
980.34	1777.02
980.51	1886.18
980.67	1994.52
980.84	1994.52
981.01	1819.83
981.17	1868.98
981.34	1698.99
981.51	1951.51
981.67	1734.83
981.84	1916.49
982.00	1938.20
982.17	1884.13
982.34	1670.12
982.50	1597.62
982.67	2096.71
982.83	1832.11
983.00	1704.32
983.17	1621.17
983.33	2009.88
983.50	1698.59
983.66	1683.02
983.83	1614.82
984.00	1826.38
984.16	1888.64
984.33	1625.27
984.49	1605.61
984.66	1789.52
984.83	1966.46
984.99	1648.61
985.16	1614.62
985.32	1957.86
985.49	1977.11
985.65	1756.34
985.82	1620.15
985.99	2045.92
986.15	1906.45
986.32	1689.98
986.48	1663.16
986.65	1817.37
986.81	1975.47
986.98	1627.73
987.14	1691.62
987.31	1892.94
987.48	1694.28
987.64	1536.59
987.81	1595.57
987.97	2148.52
988.14	1764.53
988.30	1640.01
988.47	1502.80
988.63	1916.69
988.80	1768.42
988.96	1708.42
989.13	1730.94
989.30	1848.70
989.46	1983.25
989.63	1573.45
989.79	1592.30
989.96	1875.53
990.12	2027.08
990.29	1649.02
990.45	1696.95
990.62	1884.34
990.78	2026.47
990.95	1740.16
991.11	1648.61
991.28	1814.71
991.44	1931.44
991.61	1542.94
991.77	1687.53
991.94	1870.82
992.10	2027.49
992.27	1707.19
992.43	1684.86
992.60	1917.92
992.76	1807.54
992.93	1790.33
993.09	1618.10
993.26	2008.65
993.42	2104.08
993.59	1621.38
993.75	1569.97
993.92	1769.24
994.08	1771.49
994.25	1719.68
994.41	1607.04
994.58	1960.73
994.74	2032.40
994.91	1627.11
995.07	1693.47
995.24	1803.24
995.40	1875.32
995.56	1785.21
995.73	1726.03
995.89	2086.27
996.06	1826.17
996.22	1636.74
996.39	1552.97
996.55	1854.23
996.72	1909.94
996.88	1570.18
997.05	1630.80
997.21	2108.59
997.37	1937.79
997.54	1715.17
997.70	1672.17
997.87	1919.56
998.03	1846.24
998.20	1562.60
998.36	1586.77
998.52	1968.10
998.69	1982.43
998.85	1576.32
999.02	1674.21
999.18	1993.49
999.35	1971.37
999.51	1687.12
999.67	1662.13
999.84	1741.59
1000.00	1948.03
1000.17	1736.06
1000.33	1616.05
1000.49	1812.66
1000.66	1839.49
1000.82	1646.77
1000.99	1712.10
1001.15	2012.33
1001.31	1832.32
1001.48	1673.40
1001.64	1701.45
1001.81	1828.63
1001.97	2119.44
1002.13	1649.64
1002.30	1659.88
1002.46	2029.74
1002.63	1859.76
1002.79	1722.96
1002.95	1634.28
1003.12	1978.13
1003.28	1931.03
1003.45	1644.72
1003.61	1596.39
1003.77	1888.84
1003.94	1746.10
1004.10	1645.75
1004.26	1709.64
1004.43	1926.32
1004.59	2091.39
1004.75	1634.89
1004.92	1587.18
1005.08	1806.72
1005.25	1894.58
1005.41	1642.68
1005.57	1720.29
1005.74	2009.88
1005.90	1796.27
1006.06	1720.09
1006.23	1647.59
1006.39	1944.96
1006.55	2223.48
1006.72	1787.47
1006.88	1598.64
1007.04	1770.26
1007.21	1849.52
1007.37	1677.08
1007.53	1631.00
1007.70	2064.97
1007.86	1957.24
1008.02	1696.33
1008.19	1602.54
1008.35	1888.64
1008.51	1756.13
1008.68	1654.14
1008.84	1582.06
1009.00	1749.78
1009.17	2004.96
1009.33	1785.21
1009.49	1726.85
1009.65	1772.31
1009.82	1917.51
1009.98	1734.22
1010.14	1578.16
1010.31	1961.13
1010.47	1910.14
1010.63	1717.63
1010.80	1687.53
1010.96	1950.28
1011.12	1871.43
1011.28	1679.95
1011.45	1644.31
1011.61	2191.94
1011.77	1776.41
1011.94	1617.08
1012.10	1577.35
1012.26	1759.21
1012.42	1811.84
1012.59	1670.73
1012.75	1684.45
1012.91	1839.08
1013.07	1995.54
1013.24	1608.07
1013.40	1628.54
1013.56	1885.97
1013.72	1851.16
1013.89	1710.46
1014.05	1719.47
1014.21	2116.17
1014.37	2196.65
1014.54	1676.26
1014.70	1621.38
1014.86	1831.50
1015.02	1750.81
1015.19	1656.40
1015.35	1604.99
1015.51	1838.05
1015.67	1813.68
1015.84	1629.98
1016.00	1633.26
1016.16	2011.51
1016.32	1941.68
1016.49	1631.21
1016.65	1623.63
1016.81	1862.63
1016.97	1925.71
1017.14	1760.84
1017.30	1634.07
1017.46	1810.61
1017.62	1893.35
1017.78	1726.85
1017.95	1648.21
1018.11	1981.61
1018.27	2171.46
1018.43	1760.23
1018.59	1729.30
1018.76	1970.15
1018.92	2198.70
1019.08	1630.18
1019.24	1639.40
1019.40	2029.54
1019.57	1884.75
1019.73	1712.10
1019.89	1660.49
1020.05	1919.56
1020.21	2133.78
1020.38	1622.81
1020.54	1793.82
1020.70	1960.11
1020.86	1957.65
1021.02	1670.94
1021.18	1625.88
1021.35	1834.98
1021.51	1935.74
1021.67	1773.75
1021.83	1665.82
1021.99	1848.50
1022.15	1898.06
1022.32	1747.12
1022.48	1690.80
1022.64	2048.79
1022.80	2085.45
1022.96	1680.15
1023.12	1592.71
1023.29	2003.12
1023.45	1926.11
1023.61	1653.94
1023.77	1810.61
1023.93	1925.30
1024.09	1765.76
1024.25	1630.39
1024.42	1593.73
1024.58	1817.57
1024.74	1899.70
1024.90	1667.66
1025.06	1717.63
1025.22	1804.06
1025.38	2097.12
1025.54	1597.83
1025.71	1721.52
1025.87	1939.43
1026.03	1939.43
1026.19	1601.92
1026.35	1793.20
1026.51	1936.76
1026.67	1883.72
1026.83	1710.26
1026.99	1780.71
1027.16	1924.27
1027.32	2017.66
1027.48	1672.37
1027.64	1625.68
1027.80	1947.82
1027.96	1863.86
1028.12	1660.08
1028.28	1633.26
1028.44	1925.50
1028.60	2083.19
1028.77	1780.30
1028.93	1689.37
1029.09	1798.32
1029.25	1751.63
1029.41	1694.90
1029.57	1742.41
1029.73	1882.90
1029.89	2051.04
1030.05	1786.03
1030.21	1722.14
1030.37	2169.00
1030.53	1936.97
1030.69	1675.24
1030.85	1598.64
1031.02	1767.19
1031.18	1876.96
1031.34	1680.97
1031.50	1713.33
1031.66	1779.48
1031.82	2045.92
1031.98	1712.92
1032.14	1651.69
1032.30	1766.17
1032.46	1951.30
1032.62	1786.65
1032.78	1594.96
1032.94	1783.58
1033.10	1838.67
1033.26	1705.14
1033.42	1769.85
1033.58	2149.75
1033.74	1804.26
1033.90	1654.55
1034.06	1842.35
1034.22	2153.23
1034.38	2023.19
1034.54	1678.11
1034.70	1707.39
1034.86	2103.06
>>>>>End Processed Spectral Data<<<<<
