SpectraSuite Data File
++++++++++++++++++++++++++++++++++++
Date: Thu Mar 30 16:06:21 PDT 2017
User: UCSD _CER
Dark Spectrum Present: No
Reference Spectrum Present: No
Number of Sampled Component Spectra: 1
Spectrometers: USB4C00073
Integration Time (usec): 250000 (USB4C00073)
Spectra Averaged: 10 (USB4C00073)
Boxcar Smoothing: 0 (USB4C00073)
Correct for Electrical Dark: No (USB4C00073)
Strobe/Lamp Enabled: No (USB4C00073)
Correct for Detector Non-linearity: No (USB4C00073)
Correct for Stray Light: No (USB4C00073)
Number of Pixels in Processed Spectrum: 3648
>>>>>Begin Processed Spectral Data<<<<<
345.37	1275.47
345.58	1275.47
345.80	1275.47
346.01	1269.74
346.22	1281.41
346.43	1974.45
346.65	1767.60
346.86	2125.18
347.07	2065.38
347.28	1796.89
347.50	1801.19
347.71	1934.10
347.92	1697.97
348.13	1803.44
348.35	1719.88
348.56	1907.48
348.77	1762.69
348.98	1813.27
349.20	1648.00
349.41	1905.02
349.62	1992.06
349.83	1842.56
350.05	1721.73
350.26	1944.14
350.47	2079.10
350.68	1768.01
350.90	1694.69
351.11	2117.39
351.32	2056.98
351.53	1807.33
351.75	1718.25
351.96	1948.44
352.17	1911.16
352.38	1841.12
352.60	1876.35
352.81	1906.25
353.02	2136.65
353.23	1779.07
353.44	1788.49
353.66	1848.91
353.87	1866.31
354.08	1893.14
354.29	1814.91
354.51	1834.37
354.72	1893.96
354.93	1791.56
355.14	1750.19
355.35	1750.40
355.57	2050.84
355.78	1804.87
355.99	1882.29
356.20	1919.15
356.42	1884.13
356.63	1907.07
356.84	1817.16
357.05	2030.56
357.26	2187.23
357.48	1887.41
357.69	1823.10
357.90	1964.82
358.11	1829.86
358.32	1802.83
358.54	1845.42
358.75	1853.00
358.96	2008.03
359.17	1787.26
359.38	1776.00
359.60	1997.18
359.81	1899.70
360.02	1809.79
360.23	1778.05
360.44	1822.28
360.66	2002.09
360.87	1778.25
361.08	1772.11
361.29	1944.55
361.50	1915.26
361.72	1792.59
361.93	1818.60
362.14	1902.77
362.35	1710.87
362.56	1921.61
362.77	1713.54
362.99	1986.32
363.20	1919.97
363.41	1879.63
363.62	1716.40
363.83	1996.77
364.05	2032.61
364.26	1692.65
364.47	1769.24
364.68	2059.44
364.89	1808.56
365.10	1719.88
365.32	1806.72
365.53	1803.85
365.74	1851.16
365.95	1820.03
366.16	1709.23
366.37	1902.97
366.59	1875.12
366.80	1813.48
367.01	1645.13
367.22	2154.67
367.43	2259.52
367.64	1824.33
367.86	1802.83
368.07	1954.58
368.28	2062.30
368.49	1740.98
368.70	1835.39
368.91	1879.01
369.12	1905.23
369.34	1708.21
369.55	1705.75
369.76	1920.38
369.97	1870.82
370.18	1728.90
370.39	1738.52
370.60	1771.08
370.82	1773.95
371.03	1814.09
371.24	1731.97
371.45	2010.70
371.66	1965.85
371.87	1775.79
372.08	1753.47
372.30	1763.51
372.51	1995.34
372.72	1877.58
372.93	1754.29
373.14	2101.01
373.35	1796.68
373.56	1726.44
373.78	1807.74
373.99	2032.40
374.20	2298.03
374.41	1787.47
374.62	1811.02
374.83	2112.07
375.04	1871.84
375.25	1782.14
375.47	1759.41
375.68	1854.64
375.89	1987.35
376.10	1814.30
376.31	1926.73
376.52	1963.39
376.73	1930.62
376.94	1829.45
377.15	1791.77
377.37	1919.77
377.58	1875.32
377.79	1676.47
378.00	1743.85
378.21	1924.48
378.42	1972.40
378.63	1828.02
378.84	1867.75
379.05	2025.03
379.27	1909.32
379.48	1923.04
379.69	1753.68
379.90	2038.14
380.11	1662.75
380.32	1818.19
380.53	1893.55
380.74	2073.16
380.95	1920.79
381.16	1810.61
381.37	1774.56
381.59	2063.12
381.80	2009.88
382.01	1755.72
382.22	1673.40
382.43	1939.63
382.64	1909.73
382.85	1742.82
383.06	1849.93
383.27	1992.67
383.48	1879.42
383.69	1836.62
383.91	1716.40
384.12	1966.46
384.33	1953.15
384.54	1809.79
384.75	1676.88
384.96	2277.34
385.17	2033.84
385.38	1777.23
385.59	1783.17
385.80	1995.34
386.01	2099.99
386.22	1894.78
386.43	1814.71
386.64	2190.30
386.86	1902.36
387.07	1883.31
387.28	1713.74
387.49	1840.10
387.70	2067.63
387.91	1851.98
388.12	1745.69
388.33	1966.25
388.54	1839.90
388.75	1767.81
388.96	1874.71
389.17	1848.91
389.38	1884.13
389.59	1881.47
389.80	1825.15
390.01	1881.88
390.22	1854.44
390.43	1892.53
390.64	1682.41
390.86	1940.86
391.07	2030.36
391.28	1779.89
391.49	1816.14
391.70	1741.80
391.91	1830.27
392.12	1793.61
392.33	1777.43
392.54	1883.93
392.75	1843.79
392.96	1869.80
393.17	1745.28
393.38	2183.95
393.59	2041.82
393.80	1755.11
394.01	1864.88
394.22	1981.00
394.43	2218.36
394.64	1831.09
394.85	2010.90
395.06	2005.78
395.27	2008.24
395.48	1808.97
395.69	1739.54
395.90	1878.19
396.11	1907.68
396.32	1768.63
396.53	1906.86
396.74	1856.69
396.95	2030.56
397.16	1757.16
397.37	1706.98
397.58	2017.45
397.79	1915.47
398.00	1848.91
398.21	1781.94
398.42	1933.69
398.63	2145.86
398.84	1811.43
399.05	1783.17
399.26	2068.04
399.47	1957.45
399.68	1635.10
399.89	1736.88
400.10	1764.73
400.31	1859.15
400.52	1829.86
400.73	1790.33
400.94	1732.99
401.15	1940.04
401.36	1790.74
401.57	1847.88
401.78	2017.86
401.99	2007.21
402.20	1695.51
402.41	1916.28
402.62	2102.65
402.83	1876.35
403.04	1748.35
403.25	1948.85
403.46	1971.78
403.67	2177.61
403.88	1913.42
404.09	1921.20
404.30	1976.90
404.51	1957.04
404.72	1836.41
404.93	1953.76
405.14	1856.28
405.35	1893.55
405.56	1809.18
405.77	1792.18
405.98	1919.77
406.19	1871.23
406.40	1762.28
406.61	1780.50
406.82	1808.15
407.03	2185.39
407.24	1718.04
407.45	1823.72
407.66	1928.37
407.87	2036.09
408.08	1858.94
408.29	1855.46
408.49	1975.88
408.70	1906.04
408.91	1802.21
409.12	1892.32
409.33	1780.71
409.54	2044.49
409.75	1765.35
409.96	1815.52
410.17	2025.85
410.38	1886.18
410.59	1779.07
410.80	1886.59
411.01	1899.08
411.22	1874.92
411.43	1857.51
411.64	1734.42
411.85	1783.58
412.06	1797.09
412.27	1644.11
412.47	1776.20
412.68	1880.24
412.89	1936.97
413.10	1773.95
413.31	1701.25
413.52	2132.35
413.73	2136.44
413.94	1775.18
414.15	1896.62
414.36	1846.65
414.57	1839.49
414.78	1795.45
414.99	2171.87
415.19	2675.67
415.40	2762.10
415.61	2940.68
415.82	2774.79
416.03	2706.80
416.24	2474.36
416.45	2189.89
416.66	1962.98
416.87	1843.17
417.08	2068.86
417.29	1827.40
417.50	1971.78
417.70	2104.49
417.91	2126.41
418.12	2053.70
418.33	2183.95
418.54	2321.58
418.75	2486.85
418.96	2548.29
419.17	2760.66
419.38	3296.21
419.59	3346.18
419.79	3203.84
420.00	3040.41
420.21	3127.25
420.42	2442.00
420.63	2146.27
420.84	2080.12
421.05	1955.81
421.26	1931.23
421.47	1749.17
421.67	2044.90
421.88	1789.72
422.09	1754.49
422.30	1948.23
422.51	1820.85
422.72	2106.95
422.93	1983.87
423.14	1803.85
423.35	1681.59
423.55	1720.29
423.76	1830.88
423.97	1820.23
424.18	1715.58
424.39	1940.45
424.60	2071.11
424.81	1877.99
425.02	2065.38
425.22	2158.15
425.43	2182.52
425.64	2335.09
425.85	2315.43
426.06	2652.12
426.27	2493.20
426.48	2474.77
426.68	2469.03
426.89	2577.37
427.10	2627.75
427.31	2181.29
427.52	1981.00
427.73	2129.27
427.94	2032.81
428.14	1950.90
428.35	1814.30
428.56	2098.76
428.77	2022.98
428.98	1907.89
429.19	2005.37
429.40	2134.39
429.60	2182.32
429.81	2283.28
430.02	2141.36
430.23	2097.12
430.44	2111.46
430.65	1873.69
430.85	1915.06
431.06	1985.92
431.27	1745.69
431.48	1805.69
431.69	1851.77
431.90	1907.89
432.10	1916.08
432.31	1886.38
432.52	1920.99
432.73	2520.23
432.94	2484.60
433.15	2370.52
433.35	2258.70
433.56	2438.11
433.77	2188.25
433.98	2157.13
434.19	2002.71
434.40	2058.41
434.60	2008.65
434.81	1875.53
435.02	1902.15
435.23	1895.19
435.44	1846.45
435.64	1711.49
435.85	1751.42
436.06	1874.30
436.27	1825.76
436.48	1746.10
436.68	1774.36
436.89	2096.10
437.10	1945.37
437.31	1801.60
437.52	1906.25
437.73	1931.64
437.93	1900.92
438.14	1874.30
438.35	1689.16
438.56	1858.94
438.77	1876.96
438.97	1932.67
439.18	1744.66
439.39	2025.85
439.60	1762.89
439.80	1685.68
440.01	1814.30
440.22	1847.88
440.43	1982.64
440.64	1722.14
440.84	1851.36
441.05	1777.43
441.26	2246.01
441.47	1841.33
441.68	1764.33
441.88	1864.88
442.09	1845.02
442.30	1948.23
442.51	1843.58
442.71	1879.01
442.92	1934.31
443.13	1762.28
443.34	1727.46
443.55	1780.09
443.75	1956.83
443.96	1766.58
444.17	1735.04
444.38	2031.18
444.58	1794.64
444.79	1867.34
445.00	1827.20
445.21	1888.02
445.41	1880.04
445.62	1633.05
445.83	1894.99
446.04	1942.09
446.24	1749.37
446.45	1617.08
446.66	1764.73
446.87	1952.33
447.07	1825.35
447.28	1993.49
447.49	1803.85
447.70	2002.91
447.90	2017.66
448.11	1810.40
448.32	1911.57
448.53	2081.56
448.73	2049.61
448.94	1795.04
449.15	1944.14
449.36	1914.65
449.56	1948.64
449.77	1765.96
449.98	1717.22
450.19	1908.30
450.39	1993.70
450.60	2007.42
450.81	1978.75
451.02	2054.93
451.22	2210.58
451.43	1852.39
451.64	1874.92
451.84	1955.61
452.05	2141.36
452.26	1916.90
452.47	1865.90
452.67	1887.41
452.88	2099.37
453.09	1787.47
453.30	1746.71
453.50	2003.12
453.71	2100.40
453.92	1814.09
454.12	1891.91
454.33	1825.35
454.54	1877.99
454.75	1734.63
454.95	1769.24
455.16	1920.18
455.37	1991.65
455.57	1832.11
455.78	1810.40
455.99	1925.91
456.19	1889.66
456.40	1717.63
456.61	1847.68
456.82	1901.33
457.02	2001.28
457.23	1839.90
457.44	1963.18
457.64	1864.68
457.85	1975.47
458.06	1841.74
458.26	1877.99
458.47	1924.27
458.68	2053.29
458.89	1781.53
459.09	1971.78
459.30	2255.02
459.51	1986.73
459.71	1778.46
459.92	1802.42
460.13	2008.03
460.33	2212.01
460.54	1807.54
460.75	1827.81
460.95	1781.73
461.16	1947.41
461.37	1817.57
461.57	1845.22
461.78	1892.73
461.99	1784.80
462.19	2057.18
462.40	1829.45
462.61	2233.11
462.81	2094.05
463.02	1781.53
463.23	1797.09
463.43	2035.89
463.64	1889.87
463.85	2766.40
464.05	1807.54
464.26	2366.84
464.47	2115.76
464.67	1984.07
464.88	1894.99
465.09	1812.04
465.29	1926.32
465.50	1927.55
465.71	1848.70
465.91	1853.82
466.12	1897.44
466.33	1839.69
466.53	1826.38
466.74	2096.10
466.94	1855.05
467.15	1829.86
467.36	2010.29
467.56	1810.61
467.77	1913.01
467.98	1869.59
468.18	1801.80
468.39	1857.30
468.60	2146.07
468.80	1851.36
469.01	1762.89
469.21	1971.37
469.42	2066.20
469.63	1918.95
469.83	1852.39
470.04	2119.65
470.25	2198.49
470.45	1948.44
470.66	1836.82
470.86	1993.49
471.07	1910.55
471.28	1931.23
471.48	1966.46
471.69	1948.23
471.90	2378.92
472.10	1816.34
472.31	1833.34
472.51	1819.01
472.72	1826.17
472.93	1753.47
473.13	1941.68
473.34	1945.78
473.54	1917.92
473.75	1849.93
473.96	2007.21
474.16	1894.37
474.37	1985.10
474.57	1915.47
474.78	1836.21
474.99	2022.37
475.19	2017.04
475.40	1817.78
475.60	1745.07
475.81	2123.13
476.02	1926.93
476.22	1943.73
476.43	2041.01
476.63	1951.51
476.84	2152.42
477.05	1734.22
477.25	1809.18
477.46	2333.87
477.66	1940.04
477.87	1757.57
478.08	1835.18
478.28	2038.14
478.49	1919.77
478.69	1789.92
478.90	1831.50
479.10	1994.52
479.31	2132.55
479.52	1913.62
479.72	1970.97
479.93	2002.50
480.13	1863.24
480.34	1811.02
480.54	1859.97
480.75	1810.40
480.96	2057.59
481.16	1782.14
481.37	1925.91
481.57	2012.33
481.78	1975.06
481.98	2040.60
482.19	1884.54
482.40	2133.57
482.60	1995.34
482.81	1940.66
483.01	1860.17
483.22	2096.30
483.42	2067.42
483.63	1967.07
483.83	1916.90
484.04	1889.46
484.24	2001.28
484.45	1903.18
484.66	1727.87
484.86	1977.11
485.07	1836.00
485.27	1887.20
485.48	1838.26
485.68	2087.49
485.89	1824.74
486.09	1914.44
486.30	1839.49
486.50	1917.31
486.71	1974.04
486.91	1981.61
487.12	2034.45
487.33	2269.15
487.53	2295.77
487.74	2022.78
487.94	2042.64
488.15	2124.15
488.35	2197.88
488.56	2104.08
488.76	2054.93
488.97	2053.50
489.17	2122.92
489.38	1941.06
489.58	1906.66
489.79	2026.47
489.99	1997.38
490.20	1888.43
490.40	1957.65
490.61	2013.77
490.81	1886.38
491.02	1868.98
491.22	1919.56
491.43	2035.68
491.63	1956.42
491.84	2007.42
492.04	1758.80
492.25	1994.72
492.45	1877.78
492.66	1849.52
492.86	1739.34
493.07	1896.01
493.27	2195.22
493.48	1718.45
493.68	1861.60
493.89	1904.61
494.09	2018.68
494.30	1824.54
494.50	2081.97
494.71	2027.69
494.91	1836.82
495.12	1946.18
495.32	2052.06
495.53	2036.70
495.73	1794.02
495.94	1896.21
496.14	1706.37
496.35	2162.45
496.55	1888.64
496.76	1857.30
496.96	1929.60
497.17	1942.50
497.37	2015.41
497.58	1855.05
497.78	1765.96
497.98	1903.59
498.19	1921.81
498.39	1925.71
498.60	1965.23
498.80	1779.48
499.01	2053.50
499.21	1800.78
499.42	1882.49
499.62	1876.14
499.83	2211.60
500.03	1757.16
500.24	1923.04
500.44	2065.38
500.64	2062.71
500.85	1834.78
501.05	1960.93
501.26	1732.99
501.46	2084.83
501.67	1786.85
501.87	1761.46
502.08	1829.45
502.28	1891.30
502.48	1951.92
502.69	2007.42
502.89	1813.89
503.10	1895.19
503.30	1926.52
503.51	1905.02
503.71	1775.38
503.92	2068.04
504.12	1988.78
504.32	1949.46
504.53	2136.85
504.73	2186.00
504.94	2119.85
505.14	2233.31
505.35	2244.98
505.55	2249.69
505.75	2155.90
505.96	2219.59
506.16	2377.28
506.37	1997.59
506.57	1922.43
506.78	2010.08
506.98	2172.28
507.18	1865.09
507.39	1836.62
507.59	1939.63
507.80	1903.38
508.00	2002.50
508.20	2116.37
508.41	1983.87
508.61	2131.32
508.82	2091.59
509.02	1974.04
509.22	1804.06
509.43	1794.84
509.63	1845.22
509.84	1901.95
510.04	1772.93
510.24	2122.72
510.45	2022.57
510.65	1787.06
510.86	1899.90
511.06	1842.56
511.26	2058.00
511.47	2030.36
511.67	1861.19
511.88	2064.56
512.08	2089.54
512.28	1814.09
512.49	1963.59
512.69	1942.70
512.90	1969.12
513.10	1828.02
513.30	1923.04
513.51	1991.44
513.71	2127.63
513.91	1920.59
514.12	1931.23
514.32	2093.64
514.53	1957.45
514.73	2099.37
514.93	2023.80
515.14	2129.89
515.34	2357.01
515.54	2281.44
515.75	2354.75
515.95	2483.16
516.15	2503.03
516.36	2217.34
516.56	2123.74
516.77	1811.22
516.97	2103.06
517.17	1981.61
517.38	2065.99
517.58	2246.42
517.78	2129.27
517.99	2276.11
518.19	2368.68
518.39	2616.28
518.60	2451.21
518.80	2292.29
519.00	2284.92
519.21	2092.20
519.41	2290.24
519.61	1930.62
519.82	1999.64
520.02	2007.83
520.22	1986.73
520.43	1983.05
520.63	1962.77
520.83	1936.76
521.04	1880.65
521.24	2226.55
521.44	2244.98
521.65	2317.69
521.85	2515.93
522.05	2312.16
522.26	2194.40
522.46	2395.51
522.66	2240.27
522.87	1978.75
523.07	2118.62
523.27	1967.28
523.48	2198.70
523.68	2035.89
523.88	1996.56
524.09	2198.90
524.29	2087.90
524.49	1941.88
524.70	2239.66
524.90	2421.52
525.10	2301.30
525.31	2039.98
525.51	1952.94
525.71	2122.31
525.91	2061.28
526.12	1871.02
526.32	1814.71
526.52	1896.21
526.73	1851.98
526.93	1923.04
527.13	1779.28
527.34	1956.42
527.54	1934.31
527.74	1909.32
527.94	1825.15
528.15	1877.58
528.35	1984.07
528.55	1994.31
528.76	1950.90
528.96	1755.93
529.16	2071.32
529.36	2005.17
529.57	1802.21
529.77	2066.20
529.97	1809.59
530.18	1970.35
530.38	1844.20
530.58	1987.35
530.78	1970.76
530.99	1859.56
531.19	1990.42
531.39	1857.51
531.60	1943.93
531.80	1883.31
532.00	2029.74
532.20	1953.15
532.41	1848.70
532.61	1856.07
532.81	1859.97
533.01	1876.96
533.22	1977.11
533.42	2005.58
533.62	1711.69
533.82	2055.75
534.03	1895.60
534.23	1941.47
534.43	1815.52
534.63	1878.19
534.84	1960.93
535.04	1933.08
535.24	1897.24
535.44	2265.87
535.65	1864.06
535.85	1831.91
536.05	1813.07
536.25	1921.40
536.46	1827.61
536.66	2075.21
536.86	1983.66
537.06	2082.78
537.27	2139.92
537.47	2006.19
537.67	1901.74
537.87	2152.82
538.08	1915.47
538.28	1831.29
538.48	1851.98
538.68	1977.52
538.88	2059.23
539.09	1813.27
539.29	1907.89
539.49	2064.35
539.69	1982.23
539.90	1951.30
540.10	1849.73
540.30	2157.74
540.50	1932.26
540.70	1850.75
540.91	1962.16
541.11	2123.95
541.31	2310.52
541.51	2133.16
541.72	2217.95
541.92	2242.32
542.12	2056.16
542.32	1988.37
542.52	1957.65
542.73	1934.51
542.93	2059.44
543.13	1958.27
543.33	2073.98
543.53	2197.68
543.74	2216.52
543.94	2033.43
544.14	2241.71
544.34	2419.88
544.54	2282.05
544.75	2421.72
544.95	2576.14
545.15	2433.81
545.35	2492.38
545.55	2280.62
545.75	2059.85
545.96	2360.90
546.16	1961.54
546.36	1994.52
546.56	2010.70
546.76	2177.61
546.97	2241.30
547.17	1975.47
547.37	2003.12
547.57	1876.96
547.77	2056.98
547.97	1959.91
548.18	1982.64
548.38	2015.00
548.58	2501.39
548.78	2601.13
548.98	2908.12
549.18	3288.42
549.39	3452.47
549.59	3094.07
549.79	2771.93
549.99	2836.85
550.19	2637.37
550.39	2526.99
550.60	2273.86
550.80	2242.94
551.00	2258.09
551.20	2045.10
551.40	1992.67
551.60	2088.11
551.80	2043.67
552.01	2113.91
552.21	2035.48
552.41	2030.77
552.61	2246.01
552.81	2020.94
553.01	1886.38
553.21	2016.23
553.42	1884.13
553.62	1905.02
553.82	1841.33
554.02	2133.78
554.22	2034.25
554.42	1813.48
554.62	2015.82
554.83	2331.00
555.03	2615.46
555.23	2541.73
555.43	2959.11
555.63	2927.98
555.83	2792.81
556.03	2526.17
556.23	2303.96
556.44	2472.92
556.64	2518.59
556.84	2140.74
557.04	2353.32
557.24	2352.09
557.44	2233.51
557.64	2113.09
557.84	1962.36
558.04	2016.43
558.25	2133.98
558.45	1925.09
558.65	2008.24
558.85	2068.86
559.05	1897.85
559.25	2039.37
559.45	2172.08
559.65	2600.72
559.85	3071.34
560.05	2545.63
560.26	2675.47
560.46	2711.92
560.66	2490.94
560.86	2301.92
561.06	2167.16
561.26	2379.33
561.46	2248.06
561.66	2071.93
561.86	2159.17
562.06	1976.29
562.26	2043.67
562.47	2028.51
562.67	1845.02
562.87	2079.30
563.07	1810.40
563.27	2016.02
563.47	2020.73
563.67	1952.33
563.87	2116.58
564.07	2041.62
564.27	2154.67
564.47	2243.14
564.67	2352.09
564.87	2212.83
565.08	2280.21
565.28	2144.63
565.48	2241.91
565.68	2160.20
565.88	2123.54
566.08	2283.89
566.28	2006.60
566.48	1847.47
566.68	1934.10
566.88	1896.01
567.08	2069.06
567.28	1948.23
567.48	1953.15
567.68	2079.30
567.88	1890.48
568.08	2102.24
568.28	2174.53
568.48	2079.10
568.68	2246.21
568.89	2054.32
569.09	1841.33
569.29	2089.95
569.49	2084.42
569.69	1848.09
569.89	1837.85
570.09	1733.61
570.29	1862.42
570.49	1768.22
570.69	1852.39
570.89	2028.72
571.09	2209.76
571.29	1756.13
571.49	2047.35
571.69	1943.32
571.89	1981.41
572.09	1833.14
572.29	1844.61
572.49	2017.66
572.69	1978.54
572.89	1947.82
573.09	1787.26
573.29	2090.57
573.49	2148.52
573.69	2090.57
573.89	2176.99
574.09	2007.62
574.29	2167.77
574.49	1953.56
574.69	1890.68
574.89	1854.44
575.09	1817.57
575.29	1818.60
575.49	1902.56
575.69	1958.47
575.89	1762.69
576.09	1916.49
576.29	1953.76
576.49	1857.71
576.69	2001.89
576.89	1935.33
577.09	1973.83
577.29	1808.36
577.49	2209.14
577.69	1904.00
577.89	2031.79
578.09	1953.76
578.29	1752.04
578.49	1916.08
578.69	1856.07
578.89	2079.10
579.09	1944.75
579.29	1855.66
579.49	2066.40
579.69	1925.50
579.89	2209.96
580.09	1797.09
580.29	1768.42
580.49	1875.73
580.69	1804.67
580.89	1867.34
581.09	1869.39
581.29	1873.48
581.49	1905.02
581.69	1778.25
581.89	1796.89
582.09	1833.34
582.28	1829.45
582.48	2036.30
582.68	2143.40
582.88	2199.52
583.08	2067.63
583.28	2011.11
583.48	2015.82
583.68	1938.20
583.88	1990.83
584.08	1950.28
584.28	1893.76
584.48	2180.27
584.68	2019.30
584.88	1897.03
585.08	2069.47
585.28	2074.59
585.48	2132.35
585.68	2014.59
585.87	2046.54
586.07	2034.25
586.27	1945.16
586.47	2009.67
586.67	1904.41
586.87	1961.13
587.07	1895.80
587.27	1822.28
587.47	1983.66
587.67	2298.23
587.87	2637.17
588.07	2503.85
588.27	2510.81
588.46	2760.87
588.66	2789.13
588.86	2427.25
589.06	2373.80
589.26	2354.34
589.46	2254.81
589.66	1979.36
589.86	1941.68
590.06	2042.85
590.26	2234.54
590.46	2166.34
590.66	2307.86
590.85	2229.21
591.05	2351.68
591.25	2094.87
591.45	2091.59
591.65	2172.89
591.85	2197.47
592.05	2210.58
592.25	2318.92
592.45	2432.78
592.64	2268.33
592.84	2213.85
593.04	2061.69
593.24	2468.62
593.44	2078.48
593.64	2153.64
593.84	2185.80
594.04	2090.77
594.24	2299.46
594.43	1984.07
594.63	2026.47
594.83	2106.54
595.03	2095.28
595.23	1871.64
595.43	1790.33
595.63	1843.99
595.83	2054.11
596.02	1747.74
596.22	1946.18
596.42	2021.14
596.62	1978.13
596.82	1931.44
597.02	2071.73
597.22	2158.76
597.41	1980.80
597.61	1887.41
597.81	2069.68
598.01	2131.53
598.21	2009.47
598.41	2003.73
598.61	1973.63
598.80	2053.09
599.00	2100.81
599.20	2187.64
599.40	1985.51
599.60	2030.77
599.80	2144.43
599.99	2191.53
600.19	2032.40
600.39	2062.30
600.59	2083.60
600.79	2019.71
600.99	2055.14
601.19	2210.58
601.38	2267.51
601.58	2065.99
601.78	1843.38
601.98	2322.19
602.18	3087.93
602.37	3811.27
602.57	4045.35
602.77	4480.55
602.97	4671.01
603.17	4332.68
603.37	4164.13
603.56	4148.57
603.76	3982.07
603.96	3841.17
604.16	3633.10
604.36	3342.90
604.56	3110.86
604.75	2683.66
604.95	2664.20
605.15	2667.89
605.35	2549.11
605.55	2311.54
605.74	2208.53
605.94	2350.25
606.14	2175.35
606.34	2114.94
606.54	1998.00
606.73	1940.86
606.93	2085.45
607.13	1887.82
607.33	1962.57
607.53	2149.14
607.72	2084.01
607.92	2043.87
608.12	2061.49
608.32	1974.65
608.51	2079.51
608.71	1954.58
608.91	2119.03
609.11	2203.20
609.31	2136.85
609.50	2283.49
609.70	2470.67
609.90	2469.44
610.10	2464.12
610.29	2305.19
610.49	2152.42
610.69	2279.39
610.89	2162.86
611.09	2133.98
611.28	2206.07
611.48	2180.27
611.68	2027.69
611.88	1947.41
612.07	1942.91
612.27	2122.72
612.47	1936.97
612.67	2005.58
612.86	2081.15
613.06	1974.24
613.26	1787.67
613.46	1997.38
613.65	2061.08
613.85	2473.54
614.05	2300.07
614.25	2246.42
614.44	2129.48
614.64	2164.29
614.84	2068.65
615.04	2055.14
615.23	2106.34
615.43	2180.88
615.63	2177.61
615.83	1974.86
616.02	1998.82
616.22	2305.19
616.42	2199.52
616.62	2267.92
616.81	2363.36
617.01	2420.29
617.21	2322.19
617.41	2099.99
617.60	2173.10
617.80	2199.52
618.00	2162.86
618.19	2055.55
618.39	2038.75
618.59	2066.61
618.79	1962.16
618.98	1752.65
619.18	1896.01
619.38	2197.27
619.57	1865.49
619.77	1896.21
619.97	1898.06
620.17	1961.34
620.36	1954.58
620.56	2246.21
620.76	2075.41
620.95	2142.58
621.15	2202.39
621.35	2088.11
621.54	2116.17
621.74	2123.33
621.94	1990.22
622.14	1887.00
622.33	1868.77
622.53	1956.42
622.73	1949.46
622.92	1779.07
623.12	1933.49
623.32	2163.06
623.51	2009.67
623.71	1759.00
623.91	2046.54
624.10	1813.68
624.30	1947.62
624.50	1818.39
624.69	1813.07
624.89	2412.71
625.09	1871.43
625.29	1689.16
625.48	1741.39
625.68	1961.75
625.88	2034.04
626.07	1914.65
626.27	1791.97
626.47	1864.47
626.66	1719.27
626.86	1865.90
627.06	1880.24
627.25	1899.49
627.45	2109.61
627.64	1892.94
627.84	2047.56
628.04	1793.00
628.23	2171.46
628.43	1787.06
628.63	1900.92
628.82	1952.12
629.02	2286.76
629.22	2165.93
629.41	2234.95
629.61	2131.94
629.81	2391.82
630.00	2109.61
630.20	2042.03
630.40	2270.38
630.59	2250.10
630.79	2106.13
630.98	2087.29
631.18	2039.57
631.38	2015.82
631.57	2107.56
631.77	1801.80
631.97	1986.53
632.16	1979.36
632.36	1922.63
632.56	1908.91
632.75	1932.67
632.95	2031.79
633.14	1746.92
633.34	2060.87
633.54	1694.49
633.73	1834.16
633.93	1844.20
634.12	1727.46
634.32	2232.08
634.52	1883.72
634.71	1791.36
634.91	1903.18
635.11	1750.60
635.30	1808.77
635.50	1919.15
635.69	1826.79
635.89	2217.34
636.09	2082.58
636.28	1897.85
636.48	1893.96
636.67	2095.07
636.87	2047.15
637.07	2006.60
637.26	1887.61
637.46	2044.28
637.65	2163.88
637.85	2051.25
638.04	1949.87
638.24	2015.82
638.44	2057.80
638.63	1974.24
638.83	1916.90
639.02	1987.96
639.22	2006.39
639.42	1909.32
639.61	1901.33
639.81	1951.71
640.00	1881.67
640.20	1985.10
640.39	1995.34
640.59	2452.24
640.79	2453.88
640.98	2479.48
641.18	2531.29
641.37	2556.89
641.57	2393.46
641.76	2324.65
641.96	2079.71
642.15	2226.76
642.35	2096.30
642.55	2118.01
642.74	1945.57
642.94	2126.20
643.13	2156.31
643.33	1911.37
643.52	1847.06
643.72	1834.16
643.91	1880.24
644.11	1831.70
644.31	1812.86
644.50	1830.47
644.70	2062.30
644.89	1857.92
645.09	1935.33
645.28	1902.97
645.48	1972.19
645.67	1834.98
645.87	1728.28
646.06	1886.18
646.26	1985.51
646.45	1720.70
646.65	1693.06
646.84	2141.36
647.04	1888.02
647.24	1785.62
647.43	1919.36
647.63	1941.88
647.82	2105.72
648.02	1756.54
648.21	1788.70
648.41	2088.11
648.60	1878.60
648.80	2002.30
648.99	1934.31
649.19	1848.91
649.38	1712.72
649.58	1890.89
649.77	1924.89
649.97	2043.26
650.16	1953.56
650.36	1675.85
650.55	1989.19
650.75	1936.97
650.94	2110.64
651.14	1874.10
651.33	1923.45
651.53	2127.63
651.72	1807.13
651.92	1874.92
652.11	1708.21
652.31	1971.58
652.50	1944.34
652.70	1928.37
652.89	1784.40
653.09	2129.89
653.28	1931.44
653.48	1747.12
653.67	1758.80
653.87	2318.71
654.06	1981.00
654.25	2053.29
654.45	1852.80
654.64	1878.60
654.84	1867.13
655.03	1676.06
655.23	2007.01
655.42	1968.71
655.62	2106.13
655.81	1935.13
656.01	1768.22
656.20	2015.82
656.40	2092.41
656.59	1911.98
656.79	2049.20
656.98	1933.28
657.17	2030.36
657.37	1876.55
657.56	1809.18
657.76	1956.42
657.95	2034.86
658.15	1568.74
658.34	1887.61
658.54	1899.49
658.73	1760.64
658.92	1820.64
659.12	1926.93
659.31	2018.89
659.51	1894.37
659.70	2024.21
659.90	1957.45
660.09	2134.60
660.29	2008.85
660.48	1877.99
660.67	2109.41
660.87	1904.41
661.06	2013.15
661.26	2007.62
661.45	1994.93
661.65	1969.53
661.84	1885.56
662.03	1840.51
662.23	1841.53
662.42	2179.45
662.62	1793.41
662.81	1778.46
663.00	1811.22
663.20	1921.40
663.39	1959.50
663.59	1967.69
663.78	1817.98
663.97	1865.09
664.17	1975.06
664.36	1746.71
664.56	1778.05
664.75	1988.99
664.94	2032.40
665.14	1931.03
665.33	1924.89
665.53	2000.66
665.72	1964.21
665.91	2068.86
666.11	1955.20
666.30	1995.13
666.50	1945.16
666.69	1973.01
666.88	1905.63
667.08	1967.07
667.27	1889.46
667.47	1915.87
667.66	1863.86
667.85	2054.93
668.05	1922.63
668.24	1805.28
668.43	2018.48
668.63	1868.77
668.82	2065.17
669.02	1970.97
669.21	1902.56
669.40	1799.96
669.60	2170.23
669.79	1760.84
669.98	2348.20
670.18	1819.01
670.37	1792.18
670.56	1853.62
670.76	1929.39
670.95	1916.28
671.15	2036.50
671.34	1997.38
671.53	1951.92
671.73	1903.38
671.92	1844.61
672.11	1815.73
672.31	1895.40
672.50	1972.60
672.69	1757.16
672.89	1675.65
673.08	1852.39
673.27	1993.49
673.47	1926.52
673.66	1943.32
673.85	1801.60
674.05	2062.92
674.24	2365.61
674.43	2423.16
674.63	2856.71
674.82	3217.77
675.01	2702.70
675.21	2844.83
675.40	2596.21
675.59	2521.66
675.79	2716.22
675.98	2393.46
676.17	2470.67
676.37	2385.88
676.56	2217.75
676.75	2173.10
676.95	2082.17
677.14	2011.31
677.33	2128.25
677.52	1846.45
677.72	1899.08
677.91	1978.75
678.10	1747.94
678.30	1788.29
678.49	1779.68
678.68	2176.58
678.88	1705.75
679.07	2026.67
679.26	1848.50
679.45	2116.78
679.65	2015.82
679.84	1704.11
680.03	1704.93
680.23	1881.88
680.42	2241.30
680.61	1777.84
680.81	1846.04
681.00	1907.68
681.19	1975.88
681.38	1988.37
681.58	1976.49
681.77	1870.00
681.96	2039.98
682.15	1873.89
682.35	1957.65
682.54	1978.54
682.73	1792.59
682.93	1843.99
683.12	1816.75
683.31	2014.59
683.50	2244.16
683.70	1815.93
683.89	1911.78
684.08	1794.64
684.27	2061.69
684.47	1749.17
684.66	1914.24
684.85	2160.81
685.04	2070.29
685.24	1816.96
685.43	1897.44
685.62	1715.99
685.81	1989.19
686.01	2093.23
686.20	2191.94
686.39	2254.20
686.58	2784.01
686.78	2597.85
686.97	2534.77
687.16	2482.75
687.35	2385.47
687.55	2270.79
687.74	2298.03
687.93	2134.19
688.12	2268.33
688.32	2219.18
688.51	2012.54
688.70	2170.03
688.89	1938.61
689.08	1836.41
689.28	1898.47
689.47	1988.17
689.66	1949.46
689.85	1987.55
690.05	1863.04
690.24	1862.01
690.43	1951.71
690.62	1931.03
690.81	1837.64
691.01	1897.44
691.20	1863.65
691.39	1798.73
691.58	1958.06
691.77	2140.95
691.97	1931.85
692.16	1939.84
692.35	1901.95
692.54	1889.66
692.73	2110.84
692.93	2054.32
693.12	2126.00
693.31	2228.60
693.50	2197.68
693.69	2167.77
693.89	2057.39
694.08	2255.63
694.27	2233.92
694.46	1988.17
694.65	2038.34
694.85	2162.66
695.04	2097.12
695.23	2060.67
695.42	2601.53
695.61	3016.86
695.80	3344.74
696.00	3668.12
696.19	3723.00
696.38	3311.16
696.57	3049.02
696.76	2953.17
696.95	2761.48
697.15	2865.11
697.34	2768.24
697.53	2436.26
697.72	2387.73
697.91	2272.43
698.10	2393.26
698.30	2047.56
698.49	2016.84
698.68	2035.48
698.87	1981.41
699.06	1813.48
699.25	1932.67
699.45	2048.99
699.64	1942.91
699.83	2011.92
700.02	1776.82
700.21	1964.00
700.40	1859.56
700.59	1877.78
700.79	1850.13
700.98	1967.69
701.17	1839.69
701.36	1798.73
701.55	1832.73
701.74	2099.78
701.93	2117.39
702.12	2465.96
702.32	2542.96
702.51	2895.62
702.70	2944.98
702.89	2653.76
703.08	2412.51
703.27	2604.40
703.46	2463.30
703.65	2299.87
703.85	2124.36
704.04	2159.38
704.23	2299.46
704.42	1999.23
704.61	2006.60
704.80	2214.88
704.99	1897.85
705.18	1985.30
705.37	1932.46
705.57	2353.94
705.76	3018.71
705.95	3140.76
706.14	3700.47
706.33	3976.54
706.52	4062.76
706.71	3311.57
706.90	3021.78
707.09	3016.66
707.28	2863.88
707.47	2617.30
707.67	2679.97
707.86	2425.00
708.05	2545.01
708.24	2307.65
708.43	2200.95
708.62	2046.94
708.81	1920.59
709.00	1827.61
709.19	1859.56
709.38	2054.73
709.57	1846.24
709.76	2005.78
709.96	1948.03
710.15	2199.11
710.34	2049.81
710.53	2145.25
710.72	2002.50
710.91	2150.37
711.10	2039.16
711.29	2071.11
711.48	1901.33
711.67	1868.16
711.86	2052.68
712.05	1892.12
712.24	1884.95
712.43	2037.73
712.62	2133.78
712.81	1955.20
713.00	2083.60
713.19	1798.32
713.39	1973.01
713.58	1821.67
713.77	1951.71
713.96	2081.15
714.15	1988.58
714.34	1963.59
714.53	1863.24
714.72	2225.32
714.91	1921.40
715.10	2019.50
715.29	1930.42
715.48	2411.89
715.67	2150.78
715.86	2024.83
716.05	1970.15
716.24	1948.44
716.43	1901.13
716.62	1860.37
716.81	1810.40
717.00	1906.04
717.19	2167.98
717.38	1954.58
717.57	1891.30
717.76	1742.00
717.95	2036.30
718.14	1915.06
718.33	1877.78
718.52	1727.05
718.71	1740.16
718.90	1760.23
719.09	1833.96
719.28	1900.52
719.47	2044.69
719.66	2091.39
719.85	2144.43
720.04	2085.65
720.23	2169.41
720.42	2067.63
720.61	2136.65
720.80	1918.54
720.99	2102.44
721.18	1988.99
721.37	1934.92
721.56	1946.39
721.75	2102.65
721.94	1870.00
722.13	1930.82
722.32	1930.21
722.51	2044.08
722.70	1891.30
722.89	1925.71
723.08	1905.02
723.27	2009.26
723.46	1918.74
723.65	1851.77
723.84	1849.93
724.03	2056.16
724.22	1752.24
724.41	1940.45
724.60	1837.64
724.79	2023.60
724.98	1928.57
725.16	1843.99
725.35	1974.65
725.54	1778.46
725.73	1925.71
725.92	1944.75
726.11	2015.82
726.30	2254.40
726.49	2081.56
726.68	2256.04
726.87	2325.26
727.06	2416.81
727.25	2129.27
727.44	2227.37
727.63	2122.31
727.82	2084.63
728.01	2114.12
728.20	2137.06
728.38	2248.67
728.57	2002.91
728.76	1969.33
728.95	2066.61
729.14	1801.80
729.33	1813.68
729.52	1694.28
729.71	1811.63
729.90	1771.70
730.09	1912.80
730.28	1966.87
730.47	1992.06
730.66	2273.25
730.84	2169.82
731.03	2126.82
731.22	2153.44
731.41	2102.85
731.60	2075.82
731.79	1856.69
731.98	1936.56
732.17	2089.75
732.36	2047.97
732.55	1890.68
732.73	1850.34
732.92	2090.16
733.11	1977.11
733.30	1852.39
733.49	1780.30
733.68	2013.15
733.87	1966.66
734.06	1881.88
734.25	2031.38
734.43	2177.20
734.62	2366.84
734.81	2397.35
735.00	2377.08
735.19	2339.39
735.38	2288.40
735.57	2071.11
735.76	2232.90
735.94	2357.42
736.13	2935.97
736.32	2972.01
736.51	3079.33
736.70	3451.44
736.89	3476.43
737.08	3320.78
737.27	3668.32
737.45	4500.82
737.64	4722.41
737.83	5099.65
738.02	5244.23
738.21	5095.35
738.40	4455.97
738.59	3981.87
738.77	3834.21
738.96	3501.62
739.15	3369.52
739.34	3210.81
739.53	2991.67
739.72	2933.72
739.90	2740.59
740.09	2405.54
740.28	2360.28
740.47	2335.50
740.66	2209.35
740.85	1997.59
741.03	2058.00
741.22	1893.35
741.41	1987.55
741.60	1878.81
741.79	2069.88
741.98	2190.92
742.16	2274.06
742.35	2149.75
742.54	2108.18
742.73	2477.43
742.92	2235.15
743.10	2133.16
743.29	2182.11
743.48	2470.26
743.67	2065.17
743.86	1956.83
744.05	1939.63
744.23	1968.71
744.42	1931.64
744.61	1969.12
744.80	1849.73
744.99	1918.74
745.17	1761.25
745.36	1781.73
745.55	1955.20
745.74	1939.84
745.93	1827.20
746.11	1815.52
746.30	1798.94
746.49	2018.48
746.68	1791.36
746.86	1879.42
747.05	1862.01
747.24	2007.42
747.43	2046.13
747.62	1855.66
747.80	1926.11
747.99	2165.52
748.18	2118.62
748.37	2063.94
748.56	2007.83
748.74	2143.40
748.93	2054.73
749.12	2281.85
749.31	2942.11
749.49	3488.31
749.68	3899.95
749.87	4262.44
750.06	4366.68
750.24	4439.38
750.43	4736.13
750.62	5147.57
750.81	5491.63
750.99	5804.97
751.18	5824.22
751.37	4943.59
751.56	4434.26
751.74	4559.60
751.93	4366.88
752.12	3546.67
752.31	3318.94
752.49	3161.45
752.68	3153.87
752.87	2789.54
753.06	2534.57
753.24	2415.99
753.43	2431.14
753.62	2109.61
753.81	2042.64
753.99	2246.21
754.18	2064.56
754.37	1848.70
754.55	1957.86
754.74	2178.42
754.93	1736.88
755.12	1863.04
755.30	1832.32
755.49	2049.81
755.68	1930.42
755.86	1950.28
756.05	1798.94
756.24	2089.13
756.43	1769.24
756.61	1785.83
756.80	1920.79
756.99	2100.60
757.17	1925.50
757.36	1802.83
757.55	1893.35
757.74	1989.81
757.92	1917.92
758.11	1780.50
758.30	1702.27
758.48	1881.26
758.67	1752.45
758.86	1891.91
759.04	1783.37
759.23	1853.82
759.42	1907.27
759.60	1829.45
759.79	1868.36
759.98	1864.88
760.16	1799.55
760.35	1811.63
760.54	1762.48
760.73	1935.54
760.91	1735.45
761.10	1932.67
761.29	1923.45
761.47	1892.32
761.66	2203.61
761.85	1941.68
762.03	2116.78
762.22	2843.40
762.41	5055.62
762.59	7501.50
762.78	8748.51
762.97	10529.02
763.15	11121.29
763.34	10142.77
763.52	7848.02
763.71	7319.44
763.90	6917.42
764.08	6403.79
764.27	6020.62
764.46	5721.82
764.64	5070.57
764.83	4662.82
765.02	4228.44
765.20	3832.36
765.39	3404.13
765.58	2727.48
765.76	2556.27
765.95	2369.70
766.13	2205.46
766.32	2093.64
766.51	2039.57
766.69	2165.11
766.88	2041.82
767.07	1828.43
767.25	1747.12
767.44	2054.52
767.62	2114.94
767.81	1872.05
768.00	1904.61
768.18	1942.29
768.37	1841.94
768.56	1775.38
768.74	1860.17
768.93	1772.11
769.11	1986.73
769.30	1926.32
769.49	1853.41
769.67	1913.83
769.86	1820.44
770.04	1871.23
770.23	1869.80
770.42	2086.88
770.60	1914.24
770.79	1807.33
770.97	1849.73
771.16	2334.89
771.35	2941.91
771.53	3505.92
771.72	3910.80
771.90	4445.53
772.09	4741.25
772.27	4236.63
772.46	3506.94
772.65	3623.68
772.83	3383.86
773.02	3283.51
773.20	2986.35
773.39	2980.41
773.58	2892.14
773.76	2510.20
773.95	2477.63
774.13	2452.44
774.32	2237.82
774.50	2053.70
774.69	2061.08
774.87	1971.58
775.06	2251.95
775.25	1838.26
775.43	1895.60
775.62	1955.61
775.80	1975.27
775.99	1935.54
776.17	1803.03
776.36	1887.41
776.54	2058.21
776.73	1857.51
776.92	1949.87
777.10	2023.60
777.29	1964.00
777.47	1796.07
777.66	1822.28
777.84	1928.78
778.03	1879.83
778.21	1803.85
778.40	1908.50
778.58	1953.15
778.77	2029.74
778.95	1761.46
779.14	1804.87
779.32	2135.01
779.51	2011.72
779.70	1868.57
779.88	1767.19
780.07	1846.24
780.25	2221.84
780.44	1847.68
780.62	1981.82
780.81	1987.55
780.99	1952.94
781.18	1827.81
781.36	1809.38
781.55	1873.28
781.73	2094.25
781.92	1772.31
782.10	1748.35
782.29	1956.01
782.47	2071.93
782.66	1886.79
782.84	1749.99
783.03	1833.34
783.21	2063.74
783.40	1847.27
783.58	1825.15
783.77	1810.20
783.95	1872.66
784.14	1777.23
784.32	1878.60
784.51	2074.59
784.69	1830.88
784.88	1783.17
785.06	1890.48
785.24	1779.89
785.43	2061.28
785.61	1996.77
785.80	1816.14
785.98	1988.58
786.17	1939.02
786.35	1836.62
786.54	1954.58
786.72	2038.96
786.91	2056.98
787.09	1902.97
787.28	1782.55
787.46	1930.62
787.65	2019.09
787.83	1780.50
788.01	1927.14
788.20	1837.44
788.38	1966.05
788.57	1913.42
788.75	1929.39
788.94	2241.91
789.12	2112.89
789.31	1932.46
789.49	1987.35
789.67	1895.60
789.86	2021.35
790.04	1848.50
790.23	1773.95
790.41	2247.03
790.60	1924.27
790.78	1928.98
790.96	1923.25
791.15	2014.59
791.33	1910.55
791.52	1888.43
791.70	1813.48
791.89	1924.68
792.07	2056.57
792.25	1886.59
792.44	1756.75
792.62	2080.12
792.81	1842.97
792.99	1898.67
793.17	1817.16
793.36	1846.86
793.54	2290.45
793.73	2632.66
793.91	3036.11
794.10	3539.30
794.28	3933.12
794.46	3888.48
794.65	3835.85
794.83	3232.10
795.01	3135.44
795.20	3180.09
795.38	2960.54
795.57	2906.27
795.75	2863.06
795.93	2623.86
796.12	2572.86
796.30	2524.53
796.49	2468.21
796.67	2178.83
796.85	2273.86
797.04	2128.45
797.22	2136.65
797.40	1873.89
797.59	2003.94
797.77	1974.45
797.96	1859.97
798.14	1841.12
798.32	1862.83
798.51	2013.77
798.69	2149.55
798.87	1909.53
799.06	1891.50
799.24	1774.77
799.42	2213.04
799.61	2397.35
799.79	2664.61
799.98	3135.44
800.16	3152.23
800.34	3770.11
800.53	4471.33
800.71	4728.15
800.89	5427.53
801.08	5510.88
801.26	5503.92
801.44	4745.96
801.63	4141.40
801.81	4027.74
801.99	3786.90
802.18	3595.62
802.36	3470.28
802.54	3271.63
802.73	2912.21
802.91	2843.81
803.09	2700.66
803.28	2595.80
803.46	2447.94
803.64	2512.24
803.83	2083.60
804.01	2006.39
804.19	1923.45
804.38	2113.30
804.56	2077.25
804.74	1973.42
804.92	1993.29
805.11	1858.12
805.29	2103.88
805.47	1914.65
805.66	1819.01
805.84	1817.57
806.02	2077.05
806.21	1888.02
806.39	2047.35
806.57	2041.01
806.76	2077.05
806.94	1940.04
807.12	1853.41
807.30	1923.86
807.49	2013.97
807.67	2000.05
807.85	2074.59
808.04	2092.61
808.22	2289.22
808.40	1809.79
808.58	1815.32
808.77	2024.01
808.95	2213.85
809.13	2297.21
809.31	3415.19
809.50	4502.25
809.68	5083.88
809.86	5523.58
810.05	5935.42
810.23	6565.38
810.41	8027.01
810.59	12355.81
810.78	14996.87
810.96	17286.09
811.14	18717.82
811.32	18156.68
811.51	14923.75
811.69	12170.46
811.87	12019.32
812.05	10612.16
812.24	9971.15
812.42	9339.97
812.60	8431.49
812.78	7206.39
812.97	6299.96
813.15	5866.61
813.33	5151.67
813.51	4584.38
813.70	3769.08
813.88	3194.42
814.06	2877.40
814.24	2565.29
814.42	2188.25
814.61	2203.20
814.79	2339.60
814.97	1839.69
815.15	1894.37
815.34	2010.90
815.52	2070.91
815.70	1819.21
815.88	1860.58
816.06	1821.46
816.25	1871.84
816.43	1835.39
816.61	1960.93
816.79	2095.07
816.98	1774.77
817.16	1870.41
817.34	1826.79
817.52	2020.73
817.70	2152.01
817.89	1902.97
818.07	1819.42
818.25	1922.43
818.43	1975.88
818.61	1899.90
818.80	1857.30
818.98	2129.48
819.16	1940.25
819.34	1777.43
819.52	2082.17
819.70	1812.86
819.89	1881.88
820.07	1745.48
820.25	1719.27
820.43	1931.85
820.61	2018.27
820.80	1870.41
820.98	1781.32
821.16	1717.63
821.34	1728.90
821.52	1863.45
821.70	1898.06
821.89	1893.76
822.07	1869.18
822.25	1832.73
822.43	1782.14
822.61	2082.37
822.79	1917.10
822.98	1823.51
823.16	1677.90
823.34	1906.45
823.52	2061.28
823.70	1975.06
823.88	1710.87
824.06	1971.99
824.25	1866.72
824.43	1989.40
824.61	1800.16
824.79	1931.44
824.97	2008.85
825.15	2110.02
825.33	2383.84
825.52	2795.48
825.70	2931.05
825.88	3053.93
826.06	3246.85
826.24	3319.96
826.42	3178.24
826.60	2785.44
826.78	2799.37
826.97	2600.72
827.15	2720.93
827.33	2389.77
827.51	2474.97
827.69	2298.03
827.87	2305.40
828.05	2248.06
828.23	2061.69
828.41	2250.51
828.60	2181.29
828.78	1847.27
828.96	2004.35
829.14	1884.34
829.32	1900.72
829.50	1839.90
829.68	1865.29
829.86	1833.34
830.04	1987.55
830.22	1922.63
830.41	1778.87
830.59	1870.41
830.77	1969.53
830.95	1828.02
831.13	1818.80
831.31	1815.32
831.49	1997.38
831.67	2003.94
831.85	1963.18
832.03	1868.36
832.21	1990.22
832.39	1766.99
832.57	1773.75
832.76	2010.90
832.94	1894.78
833.12	1697.56
833.30	1864.06
833.48	2049.20
833.66	1941.06
833.84	1808.15
834.02	1871.02
834.20	2008.44
834.38	1999.43
834.56	1714.15
834.74	1778.87
834.92	1750.60
835.10	2127.84
835.28	1929.80
835.46	1876.35
835.64	1890.28
835.82	1805.08
836.01	2084.22
836.19	1991.04
836.37	1836.82
836.55	1781.12
836.73	1771.70
836.91	1740.57
837.09	1996.56
837.27	2099.17
837.45	1731.35
837.63	1756.34
837.81	1769.65
837.99	1924.27
838.17	1904.41
838.35	1845.22
838.53	2294.95
838.71	2077.46
838.89	1907.68
839.07	1940.04
839.25	2019.71
839.43	2102.24
839.61	2087.08
839.79	2941.91
839.97	3675.08
840.15	4155.33
840.33	4426.68
840.51	4801.67
840.69	4638.44
840.87	4017.71
841.05	3725.87
841.23	3811.47
841.41	4561.03
841.59	6101.92
841.77	6750.72
841.95	7223.19
842.13	7805.42
842.31	7467.51
842.49	6124.86
842.67	5402.34
842.85	5332.91
843.03	4682.89
843.21	4516.80
843.39	4343.95
843.57	4021.80
843.75	3724.23
843.93	3307.88
844.11	3078.51
844.29	2961.16
844.47	2736.91
844.65	2760.25
844.83	2415.58
845.01	2300.89
845.19	2306.83
845.36	2077.25
845.54	2080.74
845.72	2030.36
845.90	2046.33
846.08	1812.04
846.26	1893.35
846.44	1968.51
846.62	1979.77
846.80	1907.68
846.98	1813.89
847.16	1888.84
847.34	1928.37
847.52	1771.29
847.70	1786.24
847.88	1876.14
848.06	2090.98
848.24	1905.02
848.41	1704.73
848.59	2016.23
848.77	1951.51
848.95	1825.76
849.13	1813.07
849.31	1954.79
849.49	1897.24
849.67	1771.49
849.85	1754.90
850.03	1922.84
850.21	1927.96
850.39	1788.70
850.57	1935.94
850.74	2052.88
850.92	2102.04
851.10	2166.96
851.28	2377.49
851.46	2673.42
851.64	3062.94
851.82	2869.82
852.00	2888.25
852.18	2860.40
852.36	2614.85
852.53	2429.30
852.71	2424.39
852.89	2426.02
853.07	2383.02
853.25	2158.76
853.43	2064.97
853.61	2176.17
853.79	2154.67
853.97	1949.05
854.14	1905.23
854.32	2152.42
854.50	2071.32
854.68	1895.60
854.86	1873.07
855.04	1811.43
855.22	2004.14
855.40	1743.23
855.57	1819.42
855.75	1961.34
855.93	1958.47
856.11	1710.87
856.29	1770.47
856.47	1806.10
856.65	1927.55
856.82	1776.20
857.00	1728.90
857.18	1866.93
857.36	1804.26
857.54	1906.45
857.72	1964.00
857.89	1972.40
858.07	1899.29
858.25	2000.66
858.43	1730.33
858.61	1839.69
858.79	1859.15
858.97	1800.57
859.14	1903.18
859.32	1864.47
859.50	1847.27
859.68	1911.78
859.86	1798.53
860.03	1973.22
860.21	1991.85
860.39	1841.53
860.57	1917.31
860.75	1961.54
860.93	2153.03
861.10	2015.00
861.28	1845.63
861.46	1960.73
861.64	1975.27
861.82	1867.95
861.99	1968.10
862.17	2037.93
862.35	2024.01
862.53	1883.52
862.71	1881.88
862.88	1932.87
863.06	2001.68
863.24	1830.88
863.42	1800.98
863.60	1859.15
863.77	1969.94
863.95	1692.85
864.13	1833.96
864.31	1846.65
864.49	1958.27
864.66	1744.46
864.84	1836.00
865.02	1907.27
865.20	2235.36
865.37	1860.58
865.55	1803.44
865.73	1787.26
865.91	2053.09
866.09	2024.83
866.26	1998.20
866.44	2134.19
866.62	2003.53
866.80	1905.23
866.97	1952.12
867.15	1946.18
867.33	2009.26
867.51	2008.24
867.68	1941.68
867.86	1888.02
868.04	1865.90
868.22	1718.25
868.39	1852.18
868.57	1947.41
868.75	2071.11
868.93	1743.03
869.10	1798.73
869.28	2128.45
869.46	2049.40
869.64	1871.64
869.81	1841.94
869.99	1920.79
870.17	1914.24
870.35	1772.11
870.52	1777.43
870.70	1989.19
870.88	1827.20
871.05	1758.39
871.23	1640.83
871.41	1876.55
871.59	1886.59
871.76	1792.79
871.94	1809.18
872.12	1873.69
872.29	1697.77
872.47	1796.48
872.65	1772.31
872.83	1911.16
873.00	2047.35
873.18	1862.22
873.36	1806.31
873.53	1983.05
873.71	1724.80
873.89	1788.90
874.06	1847.88
874.24	1943.11
874.42	2048.79
874.60	1927.14
874.77	1891.30
874.95	1790.54
875.13	1973.63
875.30	1778.66
875.48	1841.53
875.66	2111.66
875.83	1823.51
876.01	1838.46
876.19	1981.41
876.36	1754.70
876.54	1918.13
876.72	1764.53
876.89	1916.90
877.07	1978.13
877.25	1691.21
877.42	1880.44
877.60	1837.03
877.78	2126.00
877.95	1836.00
878.13	1798.73
878.31	1929.80
878.48	1963.80
878.66	1948.85
878.84	1814.30
879.01	1833.96
879.19	1928.37
879.37	1958.06
879.54	1804.87
879.72	1768.42
879.90	1686.71
880.07	1973.22
880.25	1597.83
880.42	1935.33
880.60	1915.06
880.78	1958.68
880.95	1802.62
881.13	1828.43
881.31	1877.37
881.48	1812.86
881.66	1786.24
881.83	1886.38
882.01	1813.27
882.19	1720.91
882.36	1854.03
882.54	1812.45
882.72	1939.43
882.89	1902.97
883.07	1757.98
883.24	1835.80
883.42	1975.88
883.60	1907.68
883.77	1749.37
883.95	1814.50
884.12	2030.36
884.30	1983.46
884.48	2032.61
884.65	1940.25
884.83	1983.25
885.00	1960.32
885.18	1786.24
885.36	1865.49
885.53	1978.13
885.71	2071.52
885.88	1767.40
886.06	1800.37
886.23	1955.20
886.41	1842.35
886.59	1832.11
886.76	1794.64
886.94	1947.21
887.11	2226.55
887.29	1838.87
887.47	1725.82
887.64	2043.87
887.82	2075.62
887.99	1689.37
888.17	1878.60
888.34	1829.04
888.52	1744.87
888.69	1845.63
888.87	1750.60
889.05	1839.49
889.22	1840.51
889.40	1783.78
889.57	1940.25
889.75	2035.48
889.92	1827.61
890.10	1725.00
890.27	1799.14
890.45	1823.51
890.62	1677.90
890.80	1728.90
890.98	1706.37
891.15	2065.58
891.33	2000.46
891.50	1784.60
891.68	1695.31
891.85	1957.04
892.03	1971.17
892.20	1785.21
892.38	1750.40
892.55	1955.81
892.73	1981.00
892.90	1748.15
893.08	1780.91
893.25	1777.64
893.43	1794.64
893.60	1918.33
893.78	1648.61
893.95	1906.45
894.13	1862.01
894.30	1742.82
894.48	1841.12
894.65	1978.95
894.83	1902.77
895.00	1660.70
895.18	1654.76
895.35	1981.20
895.53	1964.41
895.70	1726.64
895.88	1921.61
896.05	1951.51
896.23	1743.23
896.40	1797.30
896.58	1866.52
896.75	1963.39
896.93	2056.16
897.10	1803.65
897.28	1732.79
897.45	1901.74
897.63	1956.83
897.80	1930.62
897.98	1821.67
898.15	1894.37
898.33	1794.64
898.50	1861.40
898.67	1809.59
898.85	1845.63
899.02	1955.20
899.20	1960.52
899.37	1826.58
899.55	1919.15
899.72	2026.06
899.90	1753.06
900.07	1756.34
900.25	1942.91
900.42	2015.41
900.59	1772.52
900.77	1907.07
900.94	1936.76
901.12	1917.72
901.29	1794.43
901.47	1917.10
901.64	1972.81
901.82	1874.51
901.99	1619.33
902.16	1747.33
902.34	2001.07
902.51	1926.32
902.69	1788.29
902.86	1825.56
903.03	2328.13
903.21	1874.92
903.38	1832.11
903.56	1744.05
903.73	2014.38
903.91	1839.90
904.08	1749.17
904.25	1654.35
904.43	1813.48
904.60	1948.64
904.78	1834.37
904.95	1737.29
905.12	1851.36
905.30	2121.29
905.47	1908.30
905.65	1969.53
905.82	1886.59
905.99	1970.35
906.17	1896.83
906.34	1852.59
906.52	1870.00
906.69	2025.65
906.86	1986.53
907.04	1952.74
907.21	2063.94
907.38	2056.16
907.56	1826.79
907.73	1833.55
907.91	2090.57
908.08	2046.94
908.25	1803.65
908.43	1792.38
908.60	1945.57
908.77	1917.92
908.95	1817.78
909.12	1766.17
909.30	1983.87
909.47	1731.97
909.64	1822.08
909.82	1948.03
909.99	1869.39
910.16	1880.85
910.34	1770.47
910.51	1794.84
910.68	1906.04
910.86	1907.68
911.03	1766.37
911.20	1976.90
911.38	2586.17
911.55	3443.86
911.72	3794.48
911.90	3937.02
912.07	4291.11
912.24	4305.24
912.42	3492.20
912.59	2856.92
912.76	2913.44
912.94	2576.75
913.11	2359.26
913.28	2239.25
913.46	2186.62
913.63	2272.43
913.80	2388.55
913.98	2086.06
914.15	2255.43
914.32	2257.68
914.49	2080.74
914.67	1942.91
914.84	2072.75
915.01	2144.63
915.19	2021.14
915.36	1928.16
915.53	2100.40
915.71	2008.44
915.88	1943.93
916.05	1825.97
916.22	2020.53
916.40	1917.92
916.57	1746.92
916.74	1896.83
916.92	2092.00
917.09	1755.93
917.26	1752.86
917.43	1738.32
917.61	1846.04
917.78	1716.40
917.95	1685.89
918.13	1761.05
918.30	2156.72
918.47	1904.20
918.64	1747.12
918.82	1781.53
918.99	1898.47
919.16	2156.92
919.33	1914.03
919.51	1852.18
919.68	1946.80
919.85	2080.74
920.02	1757.77
920.20	1805.49
920.37	2101.01
920.54	2005.17
920.71	1769.65
920.89	1829.04
921.06	2124.56
921.23	1812.25
921.40	1787.26
921.58	2092.41
921.75	2618.12
921.92	2211.60
922.09	2289.01
922.27	2305.40
922.44	2289.42
922.61	2201.57
922.78	2008.85
922.96	1948.85
923.13	1968.30
923.30	2090.16
923.47	1777.84
923.64	1856.69
923.82	2008.65
923.99	1971.78
924.16	1922.43
924.33	1783.58
924.50	1912.60
924.68	2117.39
924.85	1774.97
925.02	1855.46
925.19	2000.66
925.36	1955.81
925.54	1913.01
925.71	1865.49
925.88	2274.27
926.05	1864.27
926.22	1746.10
926.40	1849.11
926.57	1917.51
926.74	1964.82
926.91	1778.66
927.08	1968.10
927.26	2030.56
927.43	1882.49
927.60	1758.39
927.77	1833.55
927.94	2079.30
928.11	2008.65
928.29	1710.05
928.46	1859.35
928.63	1790.33
928.80	1847.47
928.97	1911.78
929.14	1754.49
929.32	2142.99
929.49	1904.20
929.66	1761.66
929.83	1709.64
930.00	1807.33
930.17	1939.02
930.35	1698.79
930.52	1778.87
930.69	2082.99
930.86	1760.23
931.03	1880.65
931.20	1631.21
931.37	2019.71
931.55	1855.66
931.72	1842.97
931.89	1694.08
932.06	1752.86
932.23	2069.06
932.40	1877.78
932.57	1868.36
932.74	2043.67
932.92	2032.20
933.09	1940.86
933.26	1564.65
933.43	1810.81
933.60	1928.78
933.77	1832.73
933.94	1857.51
934.11	1858.94
934.29	1888.02
934.46	1688.35
934.63	1859.76
934.80	1732.17
934.97	1865.09
935.14	1833.75
935.31	1698.59
935.48	1810.81
935.65	1952.53
935.82	1877.37
936.00	1739.14
936.17	2059.44
936.34	1851.77
936.51	1922.63
936.68	1715.79
936.85	1900.72
937.02	1908.71
937.19	1877.58
937.36	1799.96
937.53	1926.73
937.70	1995.95
937.87	1835.59
938.05	1896.21
938.22	1906.45
938.39	1749.17
938.56	1815.52
938.73	1739.75
938.90	1848.70
939.07	1799.55
939.24	1847.88
939.41	1685.07
939.58	1928.16
939.75	1947.00
939.92	1770.88
940.09	1959.29
940.26	1862.42
940.43	1986.12
940.60	1780.30
940.77	1788.29
940.95	1911.57
941.12	1984.07
941.29	1770.67
941.46	1823.92
941.63	2012.54
941.80	2062.71
941.97	1681.18
942.14	1690.39
942.31	1966.66
942.48	1863.86
942.65	1885.56
942.82	1821.67
942.99	1949.87
943.16	1887.82
943.33	1733.81
943.50	1762.07
943.67	1968.10
943.84	2041.42
944.01	1795.25
944.18	1727.87
944.35	2024.01
944.52	1783.78
944.69	1864.27
944.86	1680.36
945.03	1972.19
945.20	2184.57
945.37	1692.24
945.54	1842.97
945.71	2040.60
945.88	2103.67
946.05	1744.87
946.22	1719.47
946.39	2071.32
946.56	1893.35
946.73	1725.21
946.90	1755.93
947.07	1820.64
947.24	1851.36
947.41	1649.23
947.58	1885.97
947.75	1965.23
947.92	1911.57
948.09	1578.98
948.26	1695.72
948.43	1900.92
948.60	2121.49
948.77	1745.89
948.94	1795.25
949.11	1960.52
949.27	1907.89
949.44	1743.64
949.61	1744.25
949.78	1892.53
949.95	2008.85
950.12	1746.30
950.29	1688.55
950.46	1812.45
950.63	2013.56
950.80	1753.27
950.97	1799.14
951.14	1990.22
951.31	1806.31
951.48	1753.47
951.65	1739.34
951.82	2097.94
951.99	1888.84
952.15	1676.67
952.32	1773.34
952.49	1800.37
952.66	1815.73
952.83	1713.54
953.00	1740.77
953.17	1854.03
953.34	2009.88
953.51	1810.61
953.68	1809.18
953.85	2005.17
954.02	2034.45
954.18	1807.95
954.35	1816.14
954.52	1787.26
954.69	1892.32
954.86	1637.97
955.03	1779.89
955.20	1959.09
955.37	1861.40
955.54	1765.14
955.71	1735.86
955.87	1935.13
956.04	2098.14
956.21	1782.35
956.38	1748.76
956.55	1871.84
956.72	2196.04
956.89	1833.34
957.06	1752.45
957.23	1777.84
957.39	2012.95
957.56	1763.30
957.73	1714.76
957.90	1632.64
958.07	2103.88
958.24	1819.01
958.41	1769.85
958.57	1986.73
958.74	1868.16
958.91	1710.87
959.08	1766.99
959.25	1993.49
959.42	1859.76
959.59	1836.41
959.75	1795.04
959.92	2033.63
960.09	1985.92
960.26	1789.31
960.43	1838.87
960.60	1914.44
960.76	1859.97
960.93	1666.23
961.10	1848.09
961.27	1999.23
961.44	1834.98
961.61	1684.86
961.77	1720.50
961.94	1894.99
962.11	1983.66
962.28	1800.16
962.45	1712.92
962.62	1846.45
962.78	1979.36
962.95	1702.89
963.12	1750.40
963.29	1957.45
963.46	2229.21
963.62	1821.67
963.79	1784.19
963.96	2216.72
964.13	1840.92
964.30	1859.15
964.46	1785.83
964.63	1768.22
964.80	2237.41
964.97	1675.65
965.14	1927.55
965.30	2046.74
965.47	2088.52
965.64	2016.63
965.81	1989.40
965.98	2140.13
966.14	1963.39
966.31	1859.76
966.48	1827.81
966.65	2088.52
966.81	1999.64
966.98	1817.57
967.15	1846.24
967.32	1913.62
967.49	1825.56
967.65	1682.20
967.82	1670.73
967.99	1867.75
968.16	1694.69
968.32	1964.62
968.49	1787.06
968.66	1875.32
968.83	2095.69
968.99	1850.54
969.16	1709.03
969.33	2062.10
969.50	1961.13
969.66	1888.43
969.83	1992.06
970.00	1987.14
970.17	1926.52
970.33	1777.23
970.50	1702.89
970.67	2046.33
970.84	2030.97
971.00	1707.60
971.17	1686.71
971.34	1951.51
971.50	1856.89
971.67	1888.64
971.84	1834.78
972.01	1730.33
972.17	1618.51
972.34	1741.18
972.51	1904.20
972.67	2024.83
972.84	1886.18
973.01	1720.50
973.18	1777.84
973.34	1971.17
973.51	1781.32
973.68	1797.09
973.84	1811.63
974.01	1813.68
974.18	2097.32
974.34	1846.65
974.51	1858.94
974.68	1760.43
974.85	2102.24
975.01	1894.58
975.18	1794.02
975.35	1870.21
975.51	1762.89
975.68	1657.63
975.85	1904.41
976.01	1793.61
976.18	2065.17
976.35	1788.29
976.51	1763.51
976.68	2079.51
976.85	2028.92
977.01	1809.79
977.18	1867.95
977.35	1928.98
977.51	1732.38
977.68	1589.84
977.85	1702.89
978.01	2010.08
978.18	1940.45
978.35	1834.98
978.51	1814.71
978.68	2012.95
978.85	2092.61
979.01	1767.60
979.18	1839.69
979.34	1853.00
979.51	1877.37
979.68	1726.23
979.84	1791.15
980.01	2215.70
980.18	1915.87
980.34	1756.95
980.51	1863.86
980.67	1958.06
980.84	1947.41
981.01	1799.96
981.17	1867.95
981.34	1679.54
981.51	1942.09
981.67	1725.21
981.84	1893.14
982.00	1928.78
982.17	1853.82
982.34	1672.99
982.50	1595.57
982.67	2064.97
982.83	1825.35
983.00	1701.25
983.17	1605.81
983.33	2005.78
983.50	1688.96
983.66	1708.01
983.83	1597.62
984.00	1832.32
984.16	1860.17
984.33	1620.15
984.49	1602.13
984.66	1759.00
984.83	1986.73
984.99	1668.89
985.16	1599.26
985.32	1962.57
985.49	1990.83
985.65	1739.14
985.82	1612.16
985.99	2065.99
986.15	1893.76
986.32	1658.04
986.48	1657.22
986.65	1823.10
986.81	1970.97
986.98	1631.82
987.14	1682.41
987.31	1897.85
987.48	1715.38
987.64	1556.87
987.81	1599.67
987.97	2133.98
988.14	1777.84
988.30	1632.85
988.47	1530.65
988.63	1921.81
988.80	1742.21
988.96	1684.86
989.13	1717.22
989.30	1843.17
989.46	1978.34
989.63	1589.22
989.79	1573.86
989.96	1860.17
990.12	2059.23
990.29	1653.73
990.45	1687.32
990.62	1863.65
990.78	2019.30
990.95	1739.75
991.11	1643.09
991.28	1822.08
991.44	1917.92
991.61	1548.06
991.77	1701.04
991.94	1912.60
992.10	2018.68
992.27	1676.88
992.43	1671.76
992.60	1948.85
992.76	1830.47
992.93	1784.60
993.09	1602.33
993.26	1981.41
993.42	2084.01
993.59	1643.49
993.75	1560.96
993.92	1774.36
994.08	1762.48
994.25	1746.71
994.41	1600.08
994.58	1968.30
994.74	2048.99
994.91	1617.69
995.07	1722.34
995.24	1854.64
995.40	1837.85
995.56	1754.29
995.73	1724.39
995.89	2088.11
996.06	1846.86
996.22	1604.58
996.39	1543.14
996.55	1871.64
996.72	1923.04
996.88	1580.21
997.05	1636.94
997.21	2118.62
997.37	1920.59
997.54	1722.14
997.70	1683.43
997.87	1863.86
998.03	1892.12
998.20	1550.11
998.36	1575.71
998.52	1983.46
998.69	1986.53
998.85	1577.14
999.02	1677.08
999.18	1984.28
999.35	2001.07
999.51	1673.60
999.67	1678.72
999.84	1750.19
1000.00	1949.67
1000.17	1716.81
1000.33	1614.41
1000.49	1809.18
1000.66	1828.43
1000.82	1618.10
1000.99	1723.37
1001.15	1991.85
1001.31	1808.97
1001.48	1660.49
1001.64	1709.03
1001.81	1848.29
1001.97	2105.11
1002.13	1645.13
1002.30	1670.32
1002.46	2041.62
1002.63	1839.49
1002.79	1728.28
1002.95	1643.49
1003.12	2002.91
1003.28	1919.97
1003.45	1625.47
1003.61	1589.22
1003.77	1896.83
1003.94	1714.15
1004.10	1662.54
1004.26	1688.14
1004.43	1961.95
1004.59	2104.29
1004.75	1639.60
1004.92	1618.10
1005.08	1840.92
1005.25	1901.33
1005.41	1659.88
1005.57	1719.06
1005.74	2029.13
1005.90	1826.58
1006.06	1759.41
1006.23	1667.46
1006.39	1971.78
1006.55	2192.56
1006.72	1799.75
1006.88	1593.93
1007.04	1788.49
1007.21	1847.06
1007.37	1682.00
1007.53	1651.48
1007.70	2063.94
1007.86	1976.49
1008.02	1710.87
1008.19	1597.21
1008.35	1904.00
1008.51	1753.47
1008.68	1678.11
1008.84	1575.71
1009.00	1748.56
1009.17	2009.26
1009.33	1794.43
1009.49	1706.57
1009.65	1756.13
1009.82	1934.31
1009.98	1712.92
1010.14	1555.64
1010.31	1969.53
1010.47	1943.73
1010.63	1737.09
1010.80	1712.51
1010.96	1921.61
1011.12	1851.98
1011.28	1664.18
1011.45	1629.98
1011.61	2183.75
1011.77	1763.30
1011.94	1634.48
1012.10	1601.10
1012.26	1734.02
1012.42	1820.44
1012.59	1716.61
1012.75	1669.91
1012.91	1865.29
1013.07	1965.23
1013.24	1609.29
1013.40	1634.28
1013.56	1873.07
1013.72	1860.58
1013.89	1713.74
1014.05	1728.28
1014.21	2111.87
1014.37	2165.52
1014.54	1690.60
1014.70	1601.72
1014.86	1860.99
1015.02	1740.57
1015.19	1662.13
1015.35	1599.46
1015.51	1865.70
1015.67	1841.94
1015.84	1641.04
1016.00	1658.65
1016.16	2021.55
1016.32	1979.36
1016.49	1627.32
1016.65	1642.06
1016.81	1867.34
1016.97	1934.72
1017.14	1767.19
1017.30	1651.89
1017.46	1805.08
1017.62	1899.29
1017.78	1694.69
1017.95	1623.22
1018.11	1996.36
1018.27	2148.93
1018.43	1771.49
1018.59	1707.19
1018.76	1940.66
1018.92	2204.64
1019.08	1628.54
1019.24	1660.70
1019.40	2047.76
1019.57	1887.20
1019.73	1737.91
1019.89	1653.53
1020.05	1899.90
1020.21	2102.04
1020.38	1636.53
1020.54	1814.09
1020.70	1939.22
1020.86	1959.91
1021.02	1678.52
1021.18	1625.06
1021.35	1796.48
1021.51	1957.45
1021.67	1784.40
1021.83	1672.58
1021.99	1883.93
1022.15	1933.08
1022.32	1717.84
1022.48	1707.60
1022.64	2034.86
1022.80	2064.76
1022.96	1690.39
1023.12	1602.74
1023.29	2007.21
1023.45	1916.49
1023.61	1622.20
1023.77	1807.54
1023.93	1908.91
1024.09	1802.42
1024.25	1610.93
1024.42	1600.08
1024.58	1837.23
1024.74	1910.55
1024.90	1644.11
1025.06	1713.13
1025.22	1776.82
1025.38	2078.07
1025.54	1595.16
1025.71	1734.22
1025.87	1947.62
1026.03	1926.93
1026.19	1604.17
1026.35	1784.60
1026.51	1944.75
1026.67	1908.30
1026.83	1708.42
1026.99	1756.34
1027.16	1917.72
1027.32	1852.39
1027.48	1674.83
1027.64	1630.39
1027.80	1952.74
1027.96	1891.30
1028.12	1661.11
1028.28	1609.50
1028.44	1899.08
1028.60	2063.12
1028.77	1765.35
1028.93	1714.76
1029.09	1825.35
1029.25	1749.99
1029.41	1692.03
1029.57	1748.76
1029.73	1895.40
1029.89	2055.75
1030.05	1793.00
1030.21	1702.07
1030.37	2164.09
1030.53	1944.75
1030.69	1680.56
1030.85	1603.76
1031.02	1771.90
1031.18	1881.47
1031.34	1678.72
1031.50	1728.08
1031.66	1780.30
1031.82	2080.33
1031.98	1703.50
1032.14	1623.42
1032.30	1777.64
1032.46	1970.76
1032.62	1774.97
1032.78	1615.44
1032.94	1784.80
1033.10	1837.85
1033.26	1724.59
1033.42	1779.89
1033.58	2144.63
1033.74	1820.03
1033.90	1648.21
1034.06	1835.80
1034.22	2170.85
1034.38	2021.14
1034.54	1684.86
1034.70	1705.14
1034.86	2103.67
>>>>>End Processed Spectral Data<<<<<
