SpectraSuite Data File
++++++++++++++++++++++++++++++++++++
Date: Thu Mar 30 16:26:05 PDT 2017
User: UCSD _CER
Dark Spectrum Present: No
Reference Spectrum Present: No
Number of Sampled Component Spectra: 1
Spectrometers: USB4C00073
Integration Time (usec): 250000 (USB4C00073)
Spectra Averaged: 10 (USB4C00073)
Boxcar Smoothing: 0 (USB4C00073)
Correct for Electrical Dark: No (USB4C00073)
Strobe/Lamp Enabled: No (USB4C00073)
Correct for Detector Non-linearity: No (USB4C00073)
Correct for Stray Light: No (USB4C00073)
Number of Pixels in Processed Spectrum: 3648
>>>>>Begin Processed Spectral Data<<<<<
345.37	1298.00
345.58	1298.00
345.80	1298.00
346.01	1285.71
346.22	1273.84
346.43	2000.87
346.65	1769.44
346.86	2132.35
347.07	2094.46
347.28	1794.02
347.50	1799.96
347.71	1941.06
347.92	1700.84
348.13	1791.77
348.35	1731.35
348.56	1908.91
348.77	1777.64
348.98	1785.42
349.20	1674.21
349.41	1933.28
349.62	1999.02
349.83	1878.60
350.05	1706.16
350.26	1955.40
350.47	2101.63
350.68	1761.25
350.90	1714.15
351.11	2107.97
351.32	2065.38
351.53	1809.18
351.75	1735.86
351.96	1947.00
352.17	1896.21
352.38	1851.57
352.60	1845.22
352.81	1915.06
353.02	2131.94
353.23	1784.40
353.44	1790.13
353.66	1857.51
353.87	1856.89
354.08	1897.24
354.29	1798.12
354.51	1851.98
354.72	1912.19
354.93	1793.00
355.14	1732.99
355.35	1722.75
355.57	2024.83
355.78	1822.90
355.99	1894.17
356.20	1932.26
356.42	1915.87
356.63	1869.59
356.84	1827.61
357.05	2003.12
357.26	2171.46
357.48	1876.76
357.69	1841.94
357.90	1967.69
358.11	1853.21
358.32	1826.79
358.54	1836.21
358.75	1863.45
358.96	2001.89
359.17	1794.23
359.38	1788.90
359.60	1987.14
359.81	1899.49
360.02	1818.19
360.23	1757.36
360.44	1828.84
360.66	2060.46
360.87	1761.87
361.08	1744.87
361.29	1966.25
361.50	1937.79
361.72	1765.14
361.93	1836.00
362.14	1918.95
362.35	1739.14
362.56	1907.07
362.77	1734.42
362.99	1985.71
363.20	1913.62
363.41	1862.83
363.62	1705.14
363.83	1983.05
364.05	2053.70
364.26	1707.60
364.47	1780.91
364.68	2039.57
364.89	1831.50
365.10	1723.57
365.32	1821.05
365.53	1821.67
365.74	1844.20
365.95	1799.14
366.16	1698.59
366.37	1907.27
366.59	1845.22
366.80	1796.68
367.01	1689.78
367.22	2193.17
367.43	2278.57
367.64	1815.93
367.86	1805.28
368.07	1988.37
368.28	2069.88
368.49	1726.85
368.70	1843.99
368.91	1892.73
369.12	1896.01
369.34	1713.95
369.55	1742.00
369.76	1922.63
369.97	1832.73
370.18	1722.75
370.39	1729.10
370.60	1721.32
370.82	1791.56
371.03	1795.45
371.24	1757.98
371.45	1992.88
371.66	1986.73
371.87	1808.97
372.08	1793.20
372.30	1747.94
372.51	1993.90
372.72	1881.88
372.93	1773.13
373.14	2075.62
373.35	1833.34
373.56	1751.01
373.78	1817.57
373.99	2009.47
374.20	2254.20
374.41	1819.01
374.62	1820.85
374.83	2105.11
375.04	1886.38
375.25	1807.33
375.47	1757.77
375.68	1866.72
375.89	2009.26
376.10	1799.75
376.31	1890.89
376.52	1978.95
376.73	1964.82
376.94	1812.45
377.15	1777.64
377.37	1913.83
377.58	1896.21
377.79	1684.86
378.00	1694.28
378.21	1959.09
378.42	1992.88
378.63	1825.15
378.84	1862.42
379.05	2035.48
379.27	1913.01
379.48	1902.56
379.69	1732.58
379.90	2039.78
380.11	1658.24
380.32	1788.29
380.53	1915.67
380.74	2058.00
380.95	1909.73
381.16	1778.66
381.37	1790.13
381.59	2083.19
381.80	2033.43
382.01	1748.56
382.22	1680.56
382.43	1955.81
382.64	1932.26
382.85	1749.58
383.06	1852.59
383.27	2004.96
383.48	1869.80
383.69	1851.16
383.91	1741.39
384.12	1978.34
384.33	1965.64
384.54	1805.90
384.75	1695.92
384.96	2283.08
385.17	1987.55
385.38	1772.93
385.59	1746.71
385.80	2001.68
386.01	2098.14
386.22	1889.66
386.43	1790.95
386.64	2191.33
386.86	1896.01
387.07	1907.48
387.28	1701.66
387.49	1821.67
387.70	2068.45
387.91	1846.24
388.12	1747.94
388.33	1961.34
388.54	1857.51
388.75	1792.59
388.96	1854.85
389.17	1872.25
389.38	1892.94
389.59	1857.71
389.80	1823.92
390.01	1898.88
390.22	1826.17
390.43	1889.87
390.64	1706.37
390.86	1948.23
391.07	2021.75
391.28	1813.89
391.49	1836.41
391.70	1739.95
391.91	1820.03
392.12	1803.03
392.33	1793.82
392.54	1909.53
392.75	1858.12
392.96	1878.81
393.17	1719.88
393.38	2179.45
393.59	2039.98
393.80	1734.83
394.01	1841.12
394.22	1915.26
394.43	2192.76
394.64	1815.93
394.85	1965.85
395.06	1928.98
395.27	1946.39
395.48	1817.57
395.69	1741.59
395.90	1867.13
396.11	1915.47
396.32	1756.95
396.53	1897.65
396.74	1883.31
396.95	2040.19
397.16	1741.39
397.37	1685.07
397.58	2010.70
397.79	1907.27
398.00	1850.75
398.21	1789.11
398.42	1956.42
398.63	2175.97
398.84	1782.55
399.05	1781.32
399.26	2031.38
399.47	1951.10
399.68	1663.97
399.89	1744.87
400.10	1764.33
400.31	1862.01
400.52	1824.33
400.73	1776.61
400.94	1733.81
401.15	1955.61
401.36	1767.19
401.57	1847.06
401.78	2039.78
401.99	2011.31
402.20	1717.43
402.41	1909.32
402.62	2098.14
402.83	1893.76
403.04	1759.41
403.25	1926.11
403.46	2003.12
403.67	2117.60
403.88	1847.06
404.09	1882.70
404.30	1936.97
404.51	1894.17
404.72	1779.89
404.93	1949.87
405.14	1838.05
405.35	1909.94
405.56	1805.28
405.77	1786.85
405.98	1948.23
406.19	1894.78
406.40	1744.25
406.61	1777.23
406.82	1816.14
407.03	2185.80
407.24	1705.14
407.45	1821.26
407.66	1925.91
407.87	2002.30
408.08	1848.50
408.29	1876.14
408.49	1976.49
408.70	1896.62
408.91	1811.43
409.12	1866.11
409.33	1774.77
409.54	2056.57
409.75	1766.37
409.96	1822.28
410.17	2024.83
410.38	1883.11
410.59	1778.46
410.80	1891.71
411.01	1916.49
411.22	1884.13
411.43	1871.02
411.64	1762.69
411.85	1794.23
412.06	1792.18
412.27	1638.99
412.47	1755.93
412.68	1906.04
412.89	1950.08
413.10	1765.35
413.31	1690.39
413.52	2144.84
413.73	2141.15
413.94	1767.40
414.15	1898.47
414.36	1824.54
414.57	1816.34
414.78	1755.11
414.99	1985.92
415.19	2373.39
415.40	2428.28
415.61	2514.29
415.82	2395.51
416.03	2410.05
416.24	2250.10
416.45	2033.84
416.66	1888.02
416.87	1795.04
417.08	1993.29
417.29	1774.97
417.50	1887.82
417.70	2044.90
417.91	2045.51
418.12	1970.97
418.33	1990.83
418.54	2188.05
418.75	2299.87
418.96	2276.11
419.17	2353.32
419.38	2788.10
419.59	2750.63
419.79	2597.44
420.00	2511.01
420.21	2763.53
420.42	2225.53
420.63	2012.54
420.84	1995.34
421.05	1947.62
421.26	1914.24
421.47	1753.27
421.67	2065.17
421.88	1819.21
422.09	1751.01
422.30	1962.36
422.51	1811.84
422.72	2120.06
422.93	1998.41
423.14	1816.55
423.35	1696.74
423.55	1697.36
423.76	1807.13
423.97	1824.13
424.18	1717.63
424.39	1901.95
424.60	2020.94
424.81	1859.35
425.02	1994.93
425.22	2045.51
425.43	2017.25
425.64	2170.64
425.85	2101.42
426.06	2436.88
426.27	2287.58
426.48	2232.49
426.68	2200.54
426.89	2324.24
427.10	2397.56
427.31	2017.45
427.52	1859.76
427.73	2067.83
427.94	1991.04
428.14	1909.73
428.35	1791.97
428.56	2087.90
428.77	2050.84
428.98	1897.85
429.19	1954.58
429.40	2020.53
429.60	2070.29
429.81	2110.84
430.02	2043.05
430.23	2022.16
430.44	2082.37
430.65	1838.46
430.85	1882.29
431.06	1996.77
431.27	1740.57
431.48	1826.38
431.69	1839.49
431.90	1901.54
432.10	1930.21
432.31	1857.10
432.52	1844.81
432.73	2374.62
432.94	2337.35
433.15	2164.70
433.35	2007.83
433.56	2243.55
433.77	2036.09
433.98	2031.38
434.19	1897.85
434.40	1978.13
434.60	1953.56
434.81	1850.54
435.02	1892.32
435.23	1917.10
435.44	1850.75
435.64	1694.69
435.85	1764.73
436.06	1878.40
436.27	1859.97
436.48	1729.30
436.68	1780.71
436.89	2086.88
437.10	1991.24
437.31	1837.23
437.52	1888.23
437.73	1940.04
437.93	1911.78
438.14	1859.56
438.35	1690.19
438.56	1833.14
438.77	1875.53
438.97	1928.57
439.18	1763.30
439.39	2048.99
439.60	1738.32
439.80	1690.39
440.01	1804.06
440.22	1826.79
440.43	1973.63
440.64	1717.84
440.84	1823.31
441.05	1774.16
441.26	2266.08
441.47	1816.34
441.68	1786.03
441.88	1889.05
442.09	1880.65
442.30	1939.22
442.51	1869.80
442.71	1856.28
442.92	1920.59
443.13	1745.07
443.34	1738.52
443.55	1775.59
443.75	1962.57
443.96	1738.73
444.17	1748.76
444.38	2032.61
444.58	1830.88
444.79	1884.13
445.00	1841.53
445.21	1904.41
445.41	1880.24
445.62	1633.87
445.83	1873.89
446.04	1941.27
446.24	1745.69
446.45	1656.40
446.66	1791.15
446.87	1964.00
447.07	1820.23
447.28	1990.22
447.49	1803.85
447.70	2006.19
447.90	2009.06
448.11	1825.15
448.32	1874.71
448.53	2081.56
448.73	2074.80
448.94	1813.07
449.15	1942.09
449.36	1927.96
449.56	1975.47
449.77	1805.90
449.98	1721.73
450.19	1877.58
450.39	1935.74
450.60	1968.51
450.81	1930.42
451.02	1979.77
451.22	2153.44
451.43	1822.28
451.64	1850.13
451.84	1907.89
452.05	2117.60
452.26	1899.29
452.47	1834.78
452.67	1866.72
452.88	2102.04
453.09	1786.44
453.30	1753.06
453.50	1980.80
453.71	2090.57
453.92	1773.95
454.12	1900.11
454.33	1827.40
454.54	1862.01
454.75	1737.50
454.95	1742.82
455.16	1941.47
455.37	1994.93
455.57	1831.91
455.78	1829.25
455.99	1889.46
456.19	1905.43
456.40	1766.17
456.61	1814.50
456.82	1909.73
457.02	2008.24
457.23	1849.11
457.44	1998.41
457.64	1831.91
457.85	1945.78
458.06	1830.06
458.26	1998.61
458.47	1902.56
458.68	2030.36
458.89	1748.97
459.09	1956.63
459.30	2220.61
459.51	1950.49
459.71	1752.86
459.92	1826.58
460.13	1988.99
460.33	2187.85
460.54	1816.55
460.75	1803.65
460.95	1782.76
461.16	1956.63
461.37	1812.66
461.57	1856.07
461.78	1904.20
461.99	1796.48
462.19	2029.74
462.40	1795.66
462.61	2205.87
462.81	2042.64
463.02	1784.40
463.23	1795.66
463.43	2013.97
463.64	1845.02
463.85	2768.44
464.05	1836.82
464.26	2314.00
464.47	2103.88
464.67	1962.98
464.88	1872.05
465.09	1827.20
465.29	1925.71
465.50	1920.79
465.71	1810.20
465.91	1865.90
466.12	1885.77
466.33	1868.36
466.53	1804.06
466.74	2068.86
466.94	1882.29
467.15	1827.20
467.36	2019.50
467.56	1776.20
467.77	1948.03
467.98	1839.49
468.18	1786.65
468.39	1830.88
468.60	2159.99
468.80	1843.58
469.01	1775.59
469.21	1978.54
469.42	2020.53
469.63	1882.29
469.83	1789.31
470.04	2063.53
470.25	2158.76
470.45	1914.03
470.66	1799.75
470.86	1960.73
471.07	1896.01
471.28	1907.27
471.48	1986.73
471.69	1927.96
471.90	2356.19
472.10	1811.02
472.31	1823.10
472.51	1812.04
472.72	1809.99
472.93	1726.64
473.13	1913.42
473.34	1903.79
473.54	1913.62
473.75	1849.11
473.96	1986.53
474.16	1890.68
474.37	2023.80
474.57	1917.72
474.78	1835.39
474.99	2006.80
475.19	1976.49
475.40	1840.10
475.60	1738.73
475.81	2112.48
476.02	1884.95
476.22	1925.71
476.43	1998.00
476.63	1920.18
476.84	2117.60
477.05	1724.18
477.25	1835.39
477.46	2320.14
477.66	1931.03
477.87	1731.15
478.08	1819.62
478.28	2047.15
478.49	1881.47
478.69	1747.74
478.90	1834.16
479.10	1977.31
479.31	2088.72
479.52	1896.62
479.72	1954.38
479.93	1998.82
480.13	1834.16
480.34	1794.84
480.54	1909.32
480.75	1812.04
480.96	2066.40
481.16	1789.11
481.37	1937.58
481.57	2000.46
481.78	1963.80
481.98	1987.55
482.19	1863.65
482.40	2155.49
482.60	1996.56
482.81	2019.91
483.01	1831.50
483.22	2046.33
483.42	2063.94
483.63	1970.76
483.83	1909.32
484.04	1865.09
484.24	1993.08
484.45	1883.52
484.66	1702.89
484.86	1953.56
485.07	1821.46
485.27	1880.85
485.48	1804.67
485.68	2092.82
485.89	1815.93
486.09	1920.59
486.30	1793.00
486.50	1920.38
486.71	1932.46
486.91	1922.84
487.12	1996.77
487.33	2192.96
487.53	2196.04
487.74	2070.91
487.94	1970.35
488.15	2056.78
488.35	2138.08
488.56	1980.59
488.76	1997.59
488.97	2025.44
489.17	2082.58
489.38	1923.66
489.58	1875.73
489.79	1996.16
489.99	1995.95
490.20	1892.32
490.40	1951.92
490.61	1991.44
490.81	1882.70
491.02	1860.17
491.22	1935.33
491.43	2017.66
491.63	1932.87
491.84	1978.13
492.04	1752.65
492.25	1992.67
492.45	1896.01
492.66	1814.71
492.86	1703.91
493.07	1889.66
493.27	2167.16
493.48	1721.52
493.68	1873.28
493.89	1919.15
494.09	2024.62
494.30	1829.66
494.50	2078.69
494.71	2011.51
494.91	1802.83
495.12	1894.99
495.32	1989.40
495.53	1980.80
495.73	1781.32
495.94	1847.47
496.14	1726.23
496.35	2116.78
496.55	1907.89
496.76	1814.09
496.96	1888.02
497.17	1921.40
497.37	1959.50
497.58	1811.84
497.78	1754.49
497.98	1920.18
498.19	1891.50
498.39	1907.89
498.60	1979.77
498.80	1756.54
499.01	2046.33
499.21	1794.64
499.42	1853.82
499.62	1887.41
499.83	2201.16
500.03	1720.29
500.24	1903.59
500.44	2104.70
500.64	2038.34
500.85	1856.89
501.05	1962.77
501.26	1745.07
501.46	2074.18
501.67	1790.95
501.87	1747.53
502.08	1826.99
502.28	1889.87
502.48	1945.16
502.69	1984.28
502.89	1784.80
503.10	1882.29
503.30	1912.39
503.51	1898.26
503.71	1814.91
503.92	2034.86
504.12	1969.74
504.32	1915.06
504.53	2098.96
504.73	2125.38
504.94	2065.17
505.14	2160.61
505.35	2164.09
505.55	2152.82
505.75	2068.86
505.96	2124.56
506.16	2263.21
506.37	1925.30
506.57	1852.39
506.78	1954.99
506.98	2150.16
507.18	1818.60
507.39	1804.67
507.59	1898.67
507.80	1889.25
508.00	1986.73
508.20	2061.49
508.41	1901.74
508.61	2129.68
508.82	2064.56
509.02	1969.12
509.22	1785.83
509.43	1838.46
509.63	1863.45
509.84	1860.58
510.04	1760.84
510.24	2089.54
510.45	2029.74
510.65	1769.24
510.86	1900.72
511.06	1818.19
511.26	2028.31
511.47	1965.64
511.67	1838.46
511.88	1994.93
512.08	2079.51
512.28	1778.25
512.49	1936.35
512.69	1943.32
512.90	1958.47
513.10	1820.85
513.30	1888.02
513.51	1999.02
513.71	2115.55
513.91	1937.17
514.12	1937.38
514.32	2068.24
514.53	1931.23
514.73	2019.09
514.93	1966.25
515.14	2058.41
515.34	2278.98
515.54	2116.58
515.75	2172.89
515.95	2321.58
516.15	2354.55
516.36	2113.50
516.56	2086.47
516.77	1775.38
516.97	2094.87
517.17	1950.69
517.38	2018.07
517.58	2193.99
517.78	2046.94
517.99	2146.89
518.19	2191.12
518.39	2427.25
518.60	2246.21
518.80	2117.60
519.00	2173.51
519.21	2051.25
519.41	2233.51
519.61	1906.86
519.82	2013.56
520.02	1989.81
520.22	1980.80
520.43	1935.94
520.63	1909.32
520.83	1913.83
521.04	1817.57
521.24	2128.86
521.44	2102.44
521.65	2155.08
521.85	2347.38
522.05	2126.82
522.26	2075.00
522.46	2312.77
522.66	2115.14
522.87	1924.89
523.07	2079.30
523.27	1917.10
523.48	2174.53
523.68	2021.35
523.88	1969.33
524.09	2144.22
524.29	2058.00
524.49	1852.80
524.70	2172.69
524.90	2296.39
525.10	2198.90
525.31	1944.55
525.51	1876.55
525.71	2085.86
525.91	2040.19
526.12	1849.73
526.32	1773.54
526.52	1891.91
526.73	1840.10
526.93	1925.09
527.13	1736.88
527.34	1920.79
527.54	1918.74
527.74	1878.19
527.94	1833.34
528.15	1811.63
528.35	1970.56
528.55	1974.65
528.76	1943.11
528.96	1729.30
529.16	2034.66
529.36	2006.60
529.57	1784.19
529.77	2059.85
529.97	1811.02
530.18	1948.64
530.38	1843.17
530.58	2001.48
530.78	1908.30
530.99	1849.11
531.19	1995.75
531.39	1874.30
531.60	1937.58
531.80	1871.84
532.00	2002.71
532.20	1964.41
532.41	1855.46
532.61	1844.61
532.81	1880.04
533.01	1884.75
533.22	1966.66
533.42	1992.47
533.62	1730.53
533.82	2070.50
534.03	1893.76
534.23	1914.24
534.43	1818.60
534.63	1876.76
534.84	1962.77
535.04	1877.37
535.24	1893.14
535.44	2259.93
535.65	1876.55
535.85	1804.67
536.05	1832.73
536.25	1905.63
536.46	1828.22
536.66	2050.02
536.86	1951.30
537.06	2053.29
537.27	2135.62
537.47	1993.29
537.67	1860.99
537.87	2100.19
538.08	1908.50
538.28	1815.93
538.48	1796.27
538.68	1960.52
538.88	2045.31
539.09	1774.36
539.29	1895.19
539.49	2044.90
539.69	1972.60
539.90	1975.27
540.10	1831.09
540.30	2135.21
540.50	1919.77
540.70	1804.06
540.91	1963.18
541.11	2106.13
541.31	2244.57
541.51	2068.45
541.72	2115.96
541.92	2140.13
542.12	2023.80
542.32	1970.76
542.52	1897.65
542.73	1889.46
542.93	2028.10
543.13	1890.89
543.33	1998.41
543.53	2126.41
543.74	2145.04
543.94	1976.49
544.14	2121.90
544.34	2280.00
544.54	2143.20
544.75	2261.78
544.95	2383.43
545.15	2271.20
545.35	2337.55
545.55	2178.42
545.75	2008.85
545.96	2307.65
546.16	1922.02
546.36	1976.70
546.56	1966.25
546.76	2131.73
546.97	2193.17
547.17	1949.67
547.37	1944.14
547.57	1886.59
547.77	2037.32
547.97	1954.79
548.18	1987.55
548.38	1983.46
548.58	2363.97
548.78	2318.92
548.98	2600.31
549.18	2862.65
549.39	3011.33
549.59	2723.59
549.79	2505.08
549.99	2596.62
550.19	2453.47
550.39	2336.53
550.60	2158.56
550.80	2152.21
551.00	2172.69
551.20	1951.30
551.40	1932.46
551.60	2039.37
551.80	2012.95
552.01	2072.34
552.21	1985.71
552.41	2025.85
552.61	2209.96
552.81	1988.37
553.01	1856.48
553.21	1988.58
553.42	1867.13
553.62	1862.01
553.82	1842.15
554.02	2131.94
554.22	2021.96
554.42	1827.20
554.62	1961.54
554.83	2264.44
555.03	2441.18
555.23	2341.24
555.43	2682.22
555.63	2593.14
555.83	2495.86
556.03	2301.10
556.23	2116.17
556.44	2283.28
556.64	2389.57
556.84	1966.66
557.04	2184.16
557.24	2216.72
557.44	2114.94
557.64	2058.21
557.84	1902.15
558.04	1950.28
558.25	2073.98
558.45	1885.97
558.65	1989.81
558.85	2051.04
559.05	1810.40
559.25	1960.73
559.45	2098.96
559.65	2458.79
559.85	2909.55
560.05	2329.97
560.26	2384.65
560.46	2410.66
560.66	2282.67
560.86	2127.63
561.06	2039.98
561.26	2304.37
561.46	2141.56
561.66	1978.13
561.86	2097.73
562.06	1939.63
562.26	1995.95
562.47	1976.49
562.67	1836.62
562.87	2038.75
563.07	1792.18
563.27	1974.45
563.47	1980.59
563.67	1921.20
563.87	2112.68
564.07	1967.07
564.27	2074.59
564.47	2143.40
564.67	2195.63
564.87	2087.90
565.08	2152.62
565.28	2037.11
565.48	2136.03
565.68	2093.43
565.88	2068.04
566.08	2237.00
566.28	1957.65
566.48	1789.52
566.68	1874.92
566.88	1909.73
567.08	2046.54
567.28	1915.26
567.48	1954.17
567.68	2038.55
567.88	1877.37
568.08	2030.15
568.28	2152.01
568.48	1996.36
568.68	2180.06
568.89	2023.39
569.09	1793.61
569.29	2083.81
569.49	2061.28
569.69	1861.60
569.89	1842.15
570.09	1712.51
570.29	1821.26
570.49	1772.11
570.69	1816.75
570.89	2032.81
571.09	2180.88
571.29	1765.35
571.49	2046.33
571.69	1954.99
571.89	1977.11
572.09	1835.39
572.29	1839.28
572.49	1982.02
572.69	2000.66
572.89	1926.93
573.09	1739.75
573.29	2008.85
573.49	2042.85
573.69	2023.80
573.89	2105.93
574.09	1934.51
574.29	2118.42
574.49	1904.41
574.69	1860.99
574.89	1807.13
575.09	1815.73
575.29	1802.21
575.49	1893.96
575.69	1961.95
575.89	1775.79
576.09	1906.66
576.29	1941.47
576.49	1829.25
576.69	1963.18
576.89	1879.42
577.09	1930.62
577.29	1785.62
577.49	2186.21
577.69	1859.15
577.89	2001.07
578.09	1959.91
578.29	1749.17
578.49	1879.01
578.69	1836.41
578.89	2044.49
579.09	1952.12
579.29	1831.50
579.49	2017.25
579.69	1896.42
579.89	2179.24
580.09	1745.69
580.29	1747.12
580.49	1885.56
580.69	1805.49
580.89	1882.49
581.09	1866.72
581.29	1862.83
581.49	1887.41
581.69	1786.03
581.89	1792.59
582.09	1797.71
582.28	1850.95
582.48	2002.91
582.68	2107.56
582.88	2186.21
583.08	1980.18
583.28	1957.04
583.48	1958.68
583.68	1873.48
583.88	1962.57
584.08	1933.90
584.28	1922.43
584.48	2171.46
584.68	2007.62
584.88	1903.18
585.08	2031.99
585.28	2040.60
585.48	2106.34
585.68	1989.81
585.87	2000.87
586.07	2008.65
586.27	1905.63
586.47	1999.84
586.67	1901.13
586.87	1915.67
587.07	1903.79
587.27	1821.87
587.47	1973.01
587.67	2245.80
587.87	2471.49
588.07	2329.36
588.27	2271.40
588.46	2470.87
588.66	2520.84
588.86	2273.25
589.06	2206.48
589.26	2234.74
589.46	2182.32
589.66	1925.30
589.86	1898.26
590.06	1972.60
590.26	2123.33
590.46	2004.76
590.66	2173.71
590.85	2069.68
591.05	2174.12
591.25	1973.22
591.45	1986.12
591.65	2138.49
591.85	2103.88
592.05	2041.82
592.25	2218.97
592.45	2274.88
592.64	2136.24
592.84	2100.60
593.04	1957.65
593.24	2391.00
593.44	1987.55
593.64	2076.44
593.84	2085.86
594.04	1996.56
594.24	2236.38
594.43	1928.37
594.63	1990.63
594.83	2104.29
595.03	2043.67
595.23	1829.66
595.43	1781.94
595.63	1845.63
595.83	2050.84
596.02	1710.46
596.22	1932.46
596.42	2004.96
596.62	1971.37
596.82	1908.71
597.02	2033.43
597.22	2101.63
597.41	1963.59
597.61	1874.92
597.81	2053.91
598.01	2073.36
598.21	1966.87
598.41	1958.47
598.61	1920.59
598.80	2018.89
599.00	2042.85
599.20	2116.37
599.40	1954.17
599.60	2011.51
599.80	2134.80
599.99	2140.33
600.19	1948.44
600.39	2006.39
600.59	2049.40
600.79	2005.78
600.99	1989.40
601.19	2199.11
601.38	2246.83
601.58	2044.69
601.78	1798.53
601.98	2219.38
602.18	2747.96
602.37	3257.91
602.57	3344.95
602.77	3646.20
602.97	3751.06
603.17	3572.27
603.37	3396.35
603.56	3437.72
603.76	3325.90
603.96	3203.43
604.16	3071.13
604.36	2946.82
604.56	2696.15
604.75	2394.08
604.95	2401.86
605.15	2475.38
605.35	2363.77
605.55	2121.90
605.74	2056.37
605.94	2283.08
606.14	2081.56
606.34	2061.28
606.54	1972.81
606.73	1916.49
606.93	2049.20
607.13	1854.85
607.33	1949.46
607.53	2110.84
607.72	2067.22
607.92	2023.19
608.12	2031.99
608.32	1929.60
608.51	2025.44
608.71	1875.53
608.91	2027.69
609.11	2111.25
609.31	2052.47
609.50	2171.46
609.70	2349.02
609.90	2282.67
610.10	2282.05
610.29	2138.69
610.49	2014.59
610.69	2176.79
610.89	2075.00
611.09	2075.82
611.28	2145.66
611.48	2132.96
611.68	1961.54
611.88	1929.19
612.07	1890.68
612.27	2085.86
612.47	1884.75
612.67	1987.14
612.86	2033.02
613.06	1957.65
613.26	1768.22
613.46	1923.86
613.65	2035.68
613.85	2392.85
614.05	2173.10
614.25	2157.74
614.44	2068.24
614.64	2067.63
614.84	1991.85
615.04	1945.16
615.23	1952.53
615.43	2134.19
615.63	2078.28
615.83	1912.60
616.02	1901.95
616.22	2225.94
616.42	2059.64
616.62	2092.41
616.81	2209.14
617.01	2241.50
617.21	2165.32
617.41	1995.75
617.60	2050.02
617.80	2100.19
618.00	2102.04
618.19	2036.50
618.39	1996.97
618.59	2045.92
618.79	1953.35
618.98	1711.90
619.18	1881.47
619.38	2206.89
619.57	1893.76
619.77	1891.91
619.97	1879.42
620.17	1891.30
620.36	1853.41
620.56	2170.23
620.76	1978.34
620.95	2044.49
621.15	2077.46
621.35	1973.01
621.54	2043.46
621.74	2076.03
621.94	1932.87
622.14	1856.69
622.33	1812.86
622.53	1953.35
622.73	1908.09
622.92	1751.42
623.12	1923.66
623.32	2159.58
623.51	2012.54
623.71	1747.74
623.91	2039.98
624.10	1835.18
624.30	1934.10
624.50	1785.83
624.69	1781.53
624.89	2382.40
625.09	1877.17
625.29	1723.57
625.48	1805.90
625.68	1931.85
625.88	2064.15
626.07	1928.78
626.27	1796.68
626.47	1845.42
626.66	1734.02
626.86	1861.40
627.06	1875.32
627.25	1900.31
627.45	2114.53
627.64	1870.82
627.84	2060.26
628.04	1815.11
628.23	2149.55
628.43	1782.35
628.63	1869.59
628.82	1908.30
629.02	2225.12
629.22	2105.31
629.41	2177.81
629.61	2064.76
629.81	2324.03
630.00	2011.11
630.20	1984.07
630.40	2129.07
630.59	2169.00
630.79	2010.90
630.98	1985.30
631.18	1996.97
631.38	1973.63
631.57	2082.58
631.77	1805.90
631.97	1944.96
632.16	1954.17
632.36	1920.99
632.56	1924.48
632.75	1918.33
632.95	2042.03
633.14	1783.99
633.34	2000.05
633.54	1686.30
633.73	1843.99
633.93	1833.75
634.12	1741.59
634.32	2248.87
634.52	1900.31
634.71	1788.08
634.91	1950.90
635.11	1756.54
635.30	1785.62
635.50	1920.59
635.69	1785.21
635.89	2199.52
636.09	2072.75
636.28	1848.70
636.48	1875.94
636.67	2044.49
636.87	2010.08
637.07	2018.68
637.26	1865.90
637.46	2000.66
637.65	2095.48
637.85	1966.87
638.04	1917.72
638.24	1921.20
638.44	2007.42
638.63	1924.68
638.83	1879.42
639.02	1982.23
639.22	1995.54
639.42	1907.07
639.61	1879.83
639.81	1909.12
640.00	1869.39
640.20	1982.84
640.39	1974.65
640.59	2321.37
640.79	2278.16
640.98	2288.20
641.18	2267.31
641.37	2290.65
641.57	2157.94
641.76	2126.82
641.96	1917.51
642.15	2103.47
642.35	1992.26
642.55	2010.08
642.74	1863.86
642.94	2065.58
643.13	2132.55
643.33	1904.20
643.52	1828.63
643.72	1842.56
643.91	1902.97
644.11	1819.83
644.31	1820.85
644.50	1820.44
644.70	2033.84
644.89	1890.48
645.09	1936.56
645.28	1905.23
645.48	1968.30
645.67	1791.15
645.87	1725.21
646.06	1888.64
646.26	1935.94
646.45	1686.09
646.65	1683.02
646.84	2131.32
647.04	1858.33
647.24	1749.37
647.43	1925.50
647.63	1913.83
647.82	2077.66
648.02	1740.98
648.21	1829.45
648.41	2069.88
648.60	1884.95
648.80	2000.25
648.99	1908.91
649.19	1829.45
649.38	1707.39
649.58	1893.55
649.77	1913.01
649.97	2027.69
650.16	1926.52
650.36	1657.42
650.55	2011.72
650.75	1945.78
650.94	2109.20
651.14	1875.32
651.33	1925.30
651.53	2111.87
651.72	1826.99
651.92	1858.74
652.11	1689.57
652.31	1966.25
652.50	1951.71
652.70	1917.10
652.89	1762.69
653.09	2128.66
653.28	1900.11
653.48	1734.22
653.67	1721.93
653.87	2315.43
654.06	1948.03
654.25	2071.73
654.45	1831.50
654.64	1859.35
654.84	1889.87
655.03	1677.08
655.23	1982.02
655.42	1983.05
655.62	2105.72
655.81	1879.01
656.01	1799.14
656.20	1998.82
656.40	2106.34
656.59	1902.56
656.79	1995.95
656.98	1956.42
657.17	2006.60
657.37	1891.71
657.56	1805.08
657.76	1944.55
657.95	2048.58
658.15	1557.48
658.34	1876.14
658.54	1887.00
658.73	1763.92
658.92	1846.86
659.12	1936.56
659.31	1998.61
659.51	1836.62
659.70	1978.75
659.90	1913.42
660.09	2089.95
660.29	1964.41
660.48	1848.70
660.67	2086.47
660.87	1864.06
661.06	1979.98
661.26	2007.21
661.45	1951.51
661.65	1966.66
661.84	1853.41
662.03	1831.70
662.23	1827.61
662.42	2181.70
662.62	1779.28
662.81	1755.31
663.00	1812.45
663.20	1908.09
663.39	1948.44
663.59	1957.45
663.78	1824.33
663.97	1824.54
664.17	2022.98
664.36	1749.37
664.56	1775.18
664.75	1986.53
664.94	2003.53
665.14	1923.45
665.33	1880.65
665.53	1976.09
665.72	1919.56
665.91	2035.68
666.11	1924.89
666.30	1947.00
666.50	1882.49
666.69	1920.18
666.88	1879.22
667.08	1924.89
667.27	1882.49
667.47	1926.73
667.66	1860.78
667.85	2021.14
668.05	1899.70
668.24	1812.04
668.43	2026.67
668.63	1837.44
668.82	2020.73
669.02	1975.27
669.21	1893.76
669.40	1774.36
669.60	2181.91
669.79	1766.58
669.98	2338.58
670.18	1797.91
670.37	1765.96
670.56	1846.45
670.76	1940.45
670.95	1905.02
671.15	2058.62
671.34	1963.59
671.53	1900.51
671.73	1872.05
671.92	1881.26
672.11	1790.95
672.31	1862.42
672.50	1974.45
672.69	1756.13
672.89	1667.46
673.08	1847.27
673.27	2024.83
673.47	1914.03
673.66	1929.19
673.85	1797.09
674.05	1972.81
674.24	2163.68
674.43	2152.01
674.63	2468.62
674.82	2823.12
675.01	2279.80
675.21	2504.05
675.40	2320.14
675.59	2255.84
675.79	2459.00
675.98	2159.58
676.17	2282.46
676.37	2199.11
676.56	2064.97
676.75	2045.72
676.95	1982.23
677.14	1948.23
677.33	2089.54
677.52	1823.51
677.72	1845.42
677.91	1979.57
678.10	1739.95
678.30	1787.67
678.49	1780.50
678.68	2154.67
678.88	1700.02
679.07	1990.42
679.26	1832.93
679.45	2137.67
679.65	2048.38
679.84	1706.16
680.03	1712.92
680.23	1859.35
680.42	2212.01
680.61	1754.29
680.81	1830.88
681.00	1932.46
681.19	1950.49
681.38	1968.51
681.58	1952.53
681.77	1875.73
681.96	2010.29
682.15	1855.46
682.35	1934.51
682.54	1945.98
682.73	1755.93
682.93	1817.16
683.12	1818.39
683.31	2008.44
683.50	2240.07
683.70	1805.90
683.89	1870.82
684.08	1793.41
684.27	2006.19
684.47	1738.11
684.66	1915.87
684.85	2156.51
685.04	2059.23
685.24	1808.15
685.43	1894.78
685.62	1710.05
685.81	1953.97
686.01	2007.01
686.20	2018.48
686.39	2022.57
686.58	2521.87
686.78	2312.57
686.97	2299.25
687.16	2315.64
687.35	2194.19
687.55	2109.20
687.74	2082.37
687.93	1988.58
688.12	2071.93
688.32	2070.09
688.51	1885.16
688.70	2075.00
688.89	1848.70
689.08	1808.36
689.28	1856.48
689.47	1934.92
689.66	1961.34
689.85	1990.42
690.05	1863.24
690.24	1842.76
690.43	1925.91
690.62	1917.51
690.81	1809.38
691.01	1939.43
691.20	1843.17
691.39	1785.83
691.58	1932.46
691.77	2126.82
691.97	1910.14
692.16	1943.73
692.35	1850.54
692.54	1839.08
692.73	2032.20
692.93	2001.68
693.12	2055.55
693.31	2095.07
693.50	2078.48
693.69	2065.17
693.89	1947.82
694.08	2168.80
694.27	2146.27
694.46	1891.09
694.65	1990.63
694.85	2073.57
695.04	2051.04
695.23	1940.45
695.42	2329.36
695.61	2582.28
695.80	2823.74
696.00	2935.97
696.19	3037.34
696.38	2682.43
696.57	2607.27
696.76	2534.98
696.95	2418.04
697.15	2542.35
697.34	2473.74
697.53	2195.22
697.72	2189.69
697.91	2091.39
698.10	2240.48
698.30	1952.74
698.49	1933.28
698.68	2008.24
698.87	1896.01
699.06	1806.10
699.25	1905.23
699.45	2028.51
699.64	1953.76
699.83	1984.07
700.02	1773.54
700.21	1976.70
700.40	1835.39
700.59	1872.46
700.79	1864.68
700.98	1970.56
701.17	1802.62
701.36	1817.78
701.55	1814.91
701.74	2072.75
701.93	1958.06
702.12	2235.36
702.32	2234.95
702.51	2522.89
702.70	2550.75
702.89	2344.72
703.08	2171.26
703.27	2334.68
703.46	2230.85
703.65	2095.07
703.85	1978.54
704.04	2035.89
704.23	2196.86
704.42	1931.64
704.61	1941.06
704.80	2165.11
704.99	1837.23
705.18	1946.18
705.37	1878.81
705.57	2178.83
705.76	2603.99
705.95	2597.64
706.14	3064.79
706.33	3202.00
706.52	3344.74
706.71	2759.43
706.90	2555.66
707.09	2593.96
707.28	2483.78
707.47	2279.39
707.67	2388.55
707.86	2168.59
708.05	2349.63
708.24	2141.36
708.43	2073.77
708.62	2001.48
708.81	1878.19
709.00	1813.89
709.19	1825.15
709.38	2008.44
709.57	1809.38
709.76	1963.59
709.96	1884.95
710.15	2180.06
710.34	2008.85
710.53	2039.78
710.72	1974.24
710.91	2087.08
711.10	1994.11
711.29	2012.95
711.48	1851.36
711.67	1817.37
711.86	1995.75
712.05	1823.10
712.24	1866.11
712.43	2012.74
712.62	2093.02
712.81	1921.81
713.00	2052.47
713.19	1777.23
713.39	1980.80
713.58	1769.04
713.77	1920.38
713.96	2014.59
714.15	1918.54
714.34	1896.83
714.53	1801.39
714.72	2187.85
714.91	1851.16
715.10	1953.15
715.29	1841.74
715.48	2345.95
715.67	2032.40
715.86	1952.94
716.05	1947.21
716.24	1906.25
716.43	1880.24
716.62	1798.73
716.81	1777.64
717.00	1891.71
717.19	2135.83
717.38	1956.01
717.57	1890.48
717.76	1737.91
717.95	2034.25
718.14	1911.57
718.33	1841.12
718.52	1705.14
718.71	1738.93
718.90	1749.58
719.09	1839.28
719.28	1896.42
719.47	2005.37
719.66	2042.64
719.85	2038.75
720.04	1987.55
720.23	2026.87
720.42	1961.75
720.61	2041.01
720.80	1815.73
720.99	2008.44
721.18	1911.98
721.37	1850.13
721.56	1884.34
721.75	2031.79
721.94	1837.85
722.13	1892.73
722.32	1899.70
722.51	2020.53
722.70	1908.71
722.89	1914.03
723.08	1899.08
723.27	2003.53
723.46	1937.17
723.65	1843.17
723.84	1829.04
724.03	2084.83
724.22	1763.30
724.41	1954.38
724.60	1838.26
724.79	1998.00
724.98	1925.30
725.16	1848.70
725.35	2000.46
725.54	1766.37
725.73	1900.11
725.92	1923.66
726.11	1920.79
726.30	2134.19
726.49	1971.17
726.68	2078.48
726.87	2192.56
727.06	2275.91
727.25	1983.87
727.44	2111.25
727.63	2056.57
727.82	1992.67
728.01	2029.54
728.20	2047.56
728.38	2175.97
728.57	1925.91
728.76	1945.16
728.95	2028.10
729.14	1795.04
729.33	1817.16
729.52	1672.58
729.71	1810.40
729.90	1801.80
730.09	1878.40
730.28	1939.43
730.47	1913.01
730.66	2145.45
730.84	2059.44
731.03	2026.06
731.22	2053.91
731.41	2037.93
731.60	2034.66
731.79	1780.71
731.98	1842.97
732.17	2035.68
732.36	1983.05
732.55	1870.41
732.73	1778.66
732.92	2077.66
733.11	1973.22
733.30	1836.82
733.49	1730.12
733.68	1965.23
733.87	1962.57
734.06	1847.06
734.25	1946.80
734.43	2039.98
734.62	2197.47
734.81	2180.68
735.00	2195.63
735.19	2147.30
735.38	2164.29
735.57	1942.50
735.76	2102.65
735.94	2207.30
736.13	2657.24
736.32	2594.98
736.51	2623.04
736.70	2949.89
736.89	2979.79
737.08	2845.04
737.27	3006.83
737.45	3611.80
737.64	3630.23
737.83	3894.42
738.02	3918.99
738.21	3850.18
738.40	3529.06
738.59	3154.08
738.77	3063.76
738.96	2841.35
739.15	2751.65
739.34	2700.04
739.53	2529.04
739.72	2565.08
739.90	2471.28
740.09	2163.88
740.28	2176.17
740.47	2177.40
740.66	2099.17
740.85	1897.85
741.03	1979.36
741.22	1864.47
741.41	1950.69
741.60	1816.75
741.79	1985.92
741.98	2137.87
742.16	2236.18
742.35	2017.66
742.54	2005.17
742.73	2355.78
742.92	2056.78
743.10	1977.72
743.29	2034.25
743.48	2369.91
743.67	1974.24
743.86	1851.36
744.05	1847.88
744.23	1859.15
744.42	1860.17
744.61	1927.34
744.80	1822.69
744.99	1886.38
745.17	1743.44
745.36	1759.21
745.55	1956.42
745.74	1893.76
745.93	1811.63
746.11	1813.27
746.30	1789.52
746.49	2011.11
746.68	1773.54
746.86	1849.93
747.05	1839.90
747.24	1979.98
747.43	2011.92
747.62	1786.44
747.80	1881.88
747.99	2162.65
748.18	2060.26
748.37	1977.93
748.56	1996.16
748.74	2070.91
748.93	2009.88
749.12	2101.42
749.31	2591.91
749.49	2899.92
749.68	3156.33
749.87	3408.23
750.06	3392.87
750.24	3490.56
750.43	3696.17
750.62	3930.46
750.81	4109.45
750.99	4380.40
751.18	4300.12
751.37	3773.59
751.56	3478.47
751.74	3653.58
751.93	3587.43
752.12	2913.24
752.31	2765.58
752.49	2656.63
752.68	2756.16
752.87	2449.58
753.06	2279.59
753.24	2211.40
753.43	2292.09
753.62	2010.49
753.81	1955.61
753.99	2159.79
754.18	2032.81
754.37	1833.34
754.55	1918.95
754.74	2133.98
754.93	1708.42
755.12	1832.32
755.30	1795.25
755.49	2010.49
755.68	1931.85
755.86	1925.30
756.05	1732.38
756.24	2084.22
756.43	1754.49
756.61	1784.60
756.80	1938.61
756.99	2060.05
757.17	1887.20
757.36	1743.64
757.55	1877.99
757.74	1975.88
757.92	1891.91
758.11	1731.56
758.30	1669.91
758.48	1875.94
758.67	1726.44
758.86	1871.02
759.04	1741.59
759.23	1843.17
759.42	1917.72
759.60	1794.02
759.79	1874.30
759.98	1844.61
760.16	1782.35
760.35	1787.67
760.54	1724.39
760.73	1899.70
760.91	1747.12
761.10	1899.70
761.29	1922.43
761.47	1889.66
761.66	2172.89
761.85	1923.25
762.03	2037.73
762.22	2530.06
762.41	3904.66
762.59	5407.46
762.78	6223.98
762.97	7422.86
763.15	7793.95
763.34	7153.96
763.52	5629.87
763.71	5357.69
763.90	5107.22
764.08	4734.90
764.27	4532.36
764.46	4383.27
764.64	3886.23
764.83	3625.52
765.02	3401.06
765.20	3123.77
765.39	2889.89
765.58	2366.84
765.76	2292.29
765.95	2227.78
766.13	2068.86
766.32	2007.21
766.51	1970.35
766.69	2503.85
766.88	1961.34
767.07	1809.18
767.25	1688.96
767.44	2051.45
767.62	2092.82
767.81	1822.49
768.00	1917.10
768.18	1922.84
768.37	1818.80
768.56	1743.85
768.74	1839.08
768.93	1782.55
769.11	1971.78
769.30	1910.96
769.49	1832.52
769.67	1875.32
769.86	1846.04
770.04	1854.64
770.23	1843.58
770.42	2084.22
770.60	1905.02
770.79	1783.17
770.97	1819.21
771.16	2216.31
771.35	2522.28
771.53	2902.18
771.72	3078.92
771.90	3428.09
772.09	3696.58
772.27	3432.60
772.46	2871.46
772.65	3009.08
772.83	2807.56
773.02	2736.50
773.20	2552.79
773.39	2652.32
773.58	2551.15
773.76	2224.30
773.95	2208.73
774.13	2255.43
774.32	2085.86
774.50	1951.30
774.69	2000.25
774.87	1919.36
775.06	2219.38
775.25	1830.47
775.43	1872.46
775.62	1923.04
775.80	1971.17
775.99	1903.38
776.17	1788.70
776.36	1899.08
776.54	2024.21
776.73	1809.38
776.92	1888.23
777.10	1991.24
777.29	1922.43
777.47	1771.08
777.66	1800.57
777.84	1902.15
778.03	1871.02
778.21	1785.62
778.40	1860.58
778.58	1958.06
778.77	2034.25
778.95	1737.91
779.14	1799.75
779.32	2109.41
779.51	2024.42
779.70	1851.77
779.88	1747.53
780.07	1825.15
780.25	2209.55
780.44	1856.28
780.62	1990.63
780.81	1959.91
780.99	1937.79
781.18	1794.02
781.36	1803.85
781.55	1869.39
781.73	2069.47
781.92	1746.92
782.10	1735.65
782.29	1966.25
782.47	2084.83
782.66	1888.43
782.84	1737.91
783.03	1796.27
783.21	2039.57
783.40	1839.08
783.58	1812.25
783.77	1835.80
783.95	1857.30
784.14	1770.88
784.32	1857.51
784.51	2040.19
784.69	1805.69
784.88	1720.91
785.06	1876.14
785.24	1744.05
785.43	2049.81
785.61	1963.18
785.80	1815.93
785.98	1982.64
786.17	1927.34
786.35	1806.10
786.54	1927.75
786.72	2004.96
786.91	2054.32
787.09	1895.80
787.28	1764.33
787.46	1920.79
787.65	2001.07
787.83	1752.65
788.01	1922.02
788.20	1759.21
788.38	1941.68
788.57	1862.83
788.75	1868.77
788.94	2158.15
789.12	2073.36
789.31	1924.27
789.49	1977.11
789.67	1875.12
789.86	1964.41
790.04	1800.98
790.23	1755.93
790.41	2218.56
790.60	1912.60
790.78	1912.80
790.96	1873.89
791.15	1990.01
791.33	1887.61
791.52	1881.67
791.70	1807.95
791.89	1918.33
792.07	2017.45
792.25	1889.66
792.44	1720.91
792.62	2026.87
792.81	1856.28
792.99	1875.94
793.17	1795.25
793.36	1805.49
793.54	2227.17
793.73	2342.26
793.91	2555.25
794.10	2934.74
794.28	3196.47
794.46	3055.57
794.65	3085.67
794.83	2673.01
795.01	2657.85
795.20	2761.48
795.38	2533.13
795.57	2527.60
795.75	2468.83
795.93	2336.53
796.12	2300.48
796.30	2313.18
796.49	2251.95
796.67	2013.77
796.85	2118.62
797.04	2043.05
797.22	2059.44
797.40	1774.97
797.59	1964.00
797.77	1956.22
797.96	1816.14
798.14	1801.19
798.32	1804.67
798.51	2004.55
798.69	2140.95
798.87	1848.50
799.06	1838.67
799.24	1746.92
799.42	2120.06
799.61	2216.31
799.79	2324.65
799.98	2755.54
800.16	2650.89
800.34	3046.56
800.53	3495.88
800.71	3621.22
800.89	4226.39
801.08	4195.47
801.26	4159.83
801.44	3739.80
801.63	3237.63
801.81	3223.71
801.99	3093.87
802.18	2957.06
802.36	2880.26
802.54	2743.05
802.73	2468.21
802.91	2486.64
803.09	2403.09
803.28	2331.61
803.46	2282.87
803.64	2384.65
803.83	1962.57
804.01	1906.04
804.19	1839.28
804.38	2069.88
804.56	2037.52
804.74	1906.45
804.92	1922.63
805.11	1793.00
805.29	2069.47
805.47	1861.19
805.66	1778.66
805.84	1773.13
806.02	2038.34
806.21	1858.74
806.39	1995.95
806.57	2054.52
806.76	1993.90
806.94	1921.61
807.12	1840.51
807.30	1863.04
807.49	1942.70
807.67	1945.16
807.85	2017.45
808.04	2072.95
808.22	2234.54
808.40	1791.56
808.58	1789.31
808.77	1993.29
808.95	2116.58
809.13	2096.92
809.31	2870.64
809.50	3543.19
809.68	3965.07
809.86	4111.50
810.05	4379.99
810.23	4884.41
810.41	5822.38
810.59	8803.40
810.78	10642.06
810.96	12101.65
811.14	13071.77
811.32	12658.49
811.51	10532.70
811.69	8695.68
811.87	8689.33
812.05	7693.81
812.24	7305.72
812.42	6914.97
812.60	6335.39
812.78	5418.52
812.97	4782.83
813.15	4646.23
813.33	4066.86
813.51	3695.15
813.70	3094.28
813.88	2791.59
814.06	2557.09
814.24	2322.19
814.42	2047.97
814.61	2127.02
814.79	2231.06
814.97	1831.09
815.15	1901.74
815.34	1975.27
815.52	2013.77
815.70	1761.46
815.88	1837.85
816.06	1800.78
816.25	1824.54
816.43	1794.23
816.61	1948.85
816.79	2075.21
816.98	1765.14
817.16	1826.79
817.34	1798.94
817.52	1983.25
817.70	2163.27
817.89	1881.67
818.07	1791.36
818.25	1891.50
818.43	1925.09
818.61	1863.65
818.80	1830.27
818.98	2125.79
819.16	1924.89
819.34	1748.35
819.52	2044.49
819.70	1806.92
819.89	1893.55
820.07	1706.37
820.25	1722.34
820.43	1912.60
820.61	2003.12
820.80	1864.47
820.98	1796.48
821.16	1703.50
821.34	1734.63
821.52	1848.50
821.70	1901.54
821.89	1898.06
822.07	1865.09
822.25	1851.16
822.43	1770.47
822.61	2074.39
822.79	1925.30
822.98	1815.93
823.16	1708.62
823.34	1891.71
823.52	2051.86
823.70	1960.73
823.88	1720.09
824.06	1952.74
824.25	1884.75
824.43	1978.75
824.61	1770.26
824.79	1945.16
824.97	1986.94
825.15	2032.40
825.33	2243.34
825.52	2474.97
825.70	2501.18
825.88	2569.18
826.06	2751.24
826.24	2744.28
826.42	2690.83
826.60	2431.35
826.78	2491.56
826.97	2299.46
827.15	2432.58
827.33	2103.67
827.51	2255.63
827.69	2068.65
827.87	2154.26
828.05	2113.50
828.23	1933.69
828.41	2118.21
828.60	2098.96
828.78	1769.85
828.96	1958.06
829.14	1855.25
829.32	1881.06
829.50	1845.42
829.68	1823.72
829.86	1835.80
830.04	1979.98
830.22	1896.01
830.41	1730.33
830.59	1874.10
830.77	1983.87
830.95	1807.13
831.13	1811.02
831.31	1796.27
831.49	1995.13
831.67	1986.12
831.85	1965.44
832.03	1849.32
832.21	1964.00
832.39	1753.47
832.57	1768.42
832.76	1997.18
832.94	1886.79
833.12	1687.53
833.30	1885.77
833.48	2044.08
833.66	1954.38
833.84	1799.14
834.02	1874.30
834.20	2035.27
834.38	1995.95
834.56	1695.72
834.74	1763.10
834.92	1752.45
835.10	2099.17
835.28	1919.97
835.46	1843.58
835.64	1861.19
835.82	1800.16
836.01	2059.44
836.19	1998.00
836.37	1831.29
836.55	1759.82
836.73	1775.79
836.91	1745.48
837.09	1966.66
837.27	2059.85
837.45	1703.50
837.63	1752.65
837.81	1745.89
837.99	1887.61
838.17	1874.10
838.35	1849.11
838.53	2249.28
838.71	2052.88
838.89	1877.99
839.07	1877.58
839.25	1929.60
839.43	2078.28
839.61	1983.66
839.79	2594.57
839.97	3042.26
840.15	3296.62
840.33	3432.60
840.51	3763.76
840.69	3579.23
840.87	3158.79
841.05	3050.65
841.23	3070.72
841.41	3574.52
841.59	4618.99
841.77	4938.68
841.95	5235.63
842.13	5731.04
842.31	5417.08
842.49	4600.76
842.67	4182.36
842.85	4096.35
843.03	3659.31
843.21	3513.90
843.39	3462.30
843.57	3270.61
843.75	3081.78
843.93	2813.50
844.11	2657.85
844.29	2563.03
844.47	2448.14
844.65	2465.34
844.83	2221.64
845.01	2144.84
845.19	2215.49
845.36	2015.61
845.54	2025.65
845.72	1980.39
845.90	2033.84
846.08	1777.02
846.26	1851.57
846.44	1970.97
846.62	1950.08
846.80	1878.19
846.98	1781.12
847.16	1864.06
847.34	1911.78
847.52	1743.85
847.70	1772.31
847.88	1854.64
848.06	2069.68
848.24	1921.20
848.41	1724.39
848.59	2011.92
848.77	1940.25
848.95	1834.16
849.13	1798.12
849.31	1968.71
849.49	1959.09
849.67	1776.00
849.85	1735.86
850.03	1920.59
850.21	1902.77
850.39	1786.03
850.57	1937.58
850.74	2073.57
850.92	2080.53
851.10	2059.23
851.28	2161.22
851.46	2349.22
851.64	2738.75
851.82	2438.72
852.00	2495.25
852.18	2545.42
852.36	2392.03
852.53	2198.70
852.71	2229.83
852.89	2251.74
853.07	2239.45
853.25	1990.42
853.43	1937.58
853.61	2067.01
853.79	2039.98
853.97	1904.82
854.14	1851.98
854.32	2088.31
854.50	2052.06
854.68	1830.47
854.86	1825.76
855.04	1837.44
855.22	2004.14
855.40	1746.30
855.57	1808.56
855.75	1975.88
855.93	1970.15
856.11	1688.55
856.29	1796.68
856.47	1803.85
856.65	1897.03
856.82	1782.55
857.00	1698.59
857.18	1840.10
857.36	1845.83
857.54	1875.94
857.72	1966.46
857.89	1943.73
858.07	1902.36
858.25	1979.16
858.43	1714.56
858.61	1850.34
858.79	1837.44
858.97	1747.94
859.14	1931.23
859.32	1870.82
859.50	1818.80
859.68	1901.74
859.86	1790.13
860.03	1919.36
860.21	1985.51
860.39	1832.52
860.57	1915.67
860.75	1960.93
860.93	2119.03
861.10	2015.20
861.28	1805.08
861.46	1939.22
861.64	1965.85
861.82	1862.01
861.99	1935.74
862.17	2050.84
862.35	2016.84
862.53	1869.18
862.71	1874.30
862.88	1918.74
863.06	1951.51
863.24	1844.61
863.42	1775.59
863.60	1861.60
863.77	1945.37
863.95	1671.14
864.13	1847.88
864.31	1846.24
864.49	1961.13
864.66	1726.03
864.84	1811.22
865.02	1901.13
865.20	2221.43
865.37	1891.91
865.55	1808.97
865.73	1766.37
865.91	2001.89
866.09	1975.27
866.26	1929.80
866.44	2068.86
866.62	1947.00
866.80	1832.32
866.97	1912.19
867.15	1939.22
867.33	1938.20
867.51	1954.17
867.68	1892.94
867.86	1855.05
868.04	1863.65
868.22	1686.50
868.39	1828.22
868.57	1923.45
868.75	2068.04
868.93	1735.24
869.10	1790.13
869.28	2131.73
869.46	2077.05
869.64	1861.19
869.81	1837.64
869.99	1908.30
870.17	1915.67
870.35	1764.73
870.52	1767.60
870.70	2013.56
870.88	1799.96
871.05	1739.95
871.23	1660.08
871.41	1896.62
871.59	1874.10
871.76	1815.52
871.94	1771.29
872.12	1848.29
872.29	1698.18
872.47	1804.47
872.65	1774.97
872.83	1917.51
873.00	2027.69
873.18	1851.57
873.36	1770.67
873.53	2025.65
873.71	1731.56
873.89	1771.49
874.06	1872.66
874.24	1891.09
874.42	2045.92
874.60	1949.67
874.77	1867.95
874.95	1790.74
875.13	2002.30
875.30	1784.19
875.48	1820.23
875.66	2092.00
875.83	1813.68
876.01	1822.90
876.19	1955.61
876.36	1742.82
876.54	1898.26
876.72	1739.54
876.89	1911.98
877.07	1954.38
877.25	1678.52
877.42	1881.26
877.60	1833.96
877.78	2122.31
877.95	1832.52
878.13	1776.82
878.31	1903.59
878.48	2003.94
878.66	1958.27
878.84	1759.21
879.01	1865.29
879.19	1946.18
879.37	1964.82
879.54	1819.42
879.72	1753.68
879.90	1663.97
880.07	1966.05
880.25	1600.69
880.42	1948.85
880.60	1892.12
880.78	1979.36
880.95	1814.91
881.13	1825.76
881.31	1868.57
881.48	1821.87
881.66	1762.28
881.83	1891.71
882.01	1800.78
882.19	1726.85
882.36	1845.02
882.54	1805.28
882.72	1956.83
882.89	1890.07
883.07	1719.27
883.24	1794.02
883.42	1949.87
883.60	1882.08
883.77	1741.39
883.95	1765.35
884.12	2014.38
884.30	1946.18
884.48	1996.77
884.65	1913.42
884.83	1986.32
885.00	1961.95
885.18	1756.13
885.36	1849.52
885.53	1961.75
885.71	2042.44
885.88	1748.35
886.06	1830.27
886.23	1940.25
886.41	1837.23
886.59	1794.84
886.76	1777.23
886.94	1963.80
887.11	2247.44
887.29	1840.30
887.47	1697.36
887.64	2028.51
887.82	2039.98
887.99	1675.03
888.17	1865.09
888.34	1835.18
888.52	1745.89
888.69	1842.97
888.87	1753.88
889.05	1826.99
889.22	1836.82
889.40	1766.37
889.57	1958.47
889.75	2069.27
889.92	1822.28
890.10	1734.22
890.27	1817.98
890.45	1817.37
890.62	1694.49
890.80	1725.41
890.98	1714.76
891.15	2056.16
891.33	2001.28
891.50	1789.52
891.68	1702.07
891.85	1946.80
892.03	1940.66
892.20	1786.24
892.38	1753.06
892.55	1951.71
892.73	1964.21
892.90	1727.05
893.08	1807.54
893.25	1803.24
893.43	1827.81
893.60	1938.40
893.78	1657.63
893.95	1918.54
894.13	1842.35
894.30	1756.34
894.48	1826.17
894.65	1994.52
894.83	1925.91
895.00	1674.62
895.18	1664.79
895.35	1957.24
895.53	1947.62
895.70	1734.02
895.88	1929.80
896.05	1962.16
896.23	1724.59
896.40	1802.42
896.58	1858.53
896.75	1975.47
896.93	2049.40
897.10	1757.77
897.28	1721.73
897.45	1910.14
897.63	1959.50
897.80	1949.67
897.98	1835.18
898.15	1876.96
898.33	1772.52
898.50	1885.56
898.67	1845.42
898.85	1833.55
899.02	1945.57
899.20	1957.04
899.37	1818.39
899.55	1875.73
899.72	2039.37
899.90	1782.96
900.07	1759.00
900.25	1938.61
900.42	2020.94
900.59	1776.00
900.77	1889.46
900.94	1935.33
901.12	1911.37
901.29	1796.48
901.47	1905.23
901.64	1930.21
901.82	1874.10
901.99	1619.94
902.16	1777.84
902.34	2021.96
902.51	1918.13
902.69	1795.25
902.86	1821.67
903.03	2318.51
903.21	1888.84
903.38	1845.02
903.56	1804.47
903.73	1972.81
903.91	1813.07
904.08	1749.78
904.25	1686.71
904.43	1786.85
904.60	1982.84
904.78	1813.27
904.95	1754.70
905.12	1845.22
905.30	2066.20
905.47	1920.59
905.65	1953.97
905.82	1896.01
905.99	1972.60
906.17	1859.15
906.34	1779.89
906.52	1818.39
906.69	1997.38
906.86	1966.66
907.04	1886.38
907.21	2033.02
907.38	2024.83
907.56	1800.57
907.73	1804.87
907.91	2076.44
908.08	2059.64
908.25	1780.30
908.43	1772.11
908.60	1953.97
908.77	1916.28
908.95	1795.66
909.12	1742.21
909.30	1974.86
909.47	1704.32
909.64	1843.99
909.82	1953.15
909.99	1867.13
910.16	1892.12
910.34	1760.84
910.51	1819.01
910.68	1925.71
910.86	1886.18
911.03	1727.87
911.20	1879.42
911.38	2325.47
911.55	2966.48
911.72	3169.44
911.90	3165.34
912.07	3429.53
912.24	3570.63
912.42	2881.29
912.59	2470.67
912.76	2600.10
912.94	2340.21
913.11	2193.17
913.28	2077.25
913.46	2015.82
913.63	2136.44
913.80	2292.91
913.98	1978.75
914.15	2162.25
914.32	2156.10
914.49	1995.54
914.67	1860.99
914.84	1993.29
915.01	2072.95
915.19	1941.27
915.36	1857.92
915.53	2049.61
915.71	2002.91
915.88	1934.72
916.05	1791.15
916.22	2028.51
916.40	1908.71
916.57	1764.33
916.74	1868.98
916.92	2095.89
917.09	1766.78
917.26	1785.62
917.43	1728.49
917.61	1837.03
917.78	1708.21
917.95	1659.26
918.13	1744.25
918.30	2167.77
918.47	1923.04
918.64	1754.09
918.82	1757.57
918.99	1880.04
919.16	2132.55
919.33	1882.90
919.51	1835.18
919.68	1907.27
919.85	2080.74
920.02	1721.73
920.20	1840.30
920.37	2100.19
920.54	1977.72
920.71	1778.87
920.89	1810.81
921.06	2127.63
921.23	1788.08
921.40	1759.61
921.58	1986.32
921.75	2464.53
921.92	2022.16
922.09	2112.89
922.27	2106.13
922.44	2145.25
922.61	2105.11
922.78	1929.39
922.96	1905.43
923.13	1902.36
923.30	2047.56
923.47	1751.83
923.64	1826.17
923.82	1960.32
923.99	1960.11
924.16	1901.95
924.33	1743.23
924.50	1922.63
924.68	2106.95
924.85	1746.51
925.02	1802.83
925.19	1983.87
925.36	1901.33
925.54	1872.87
925.71	1847.27
925.88	2301.10
926.05	1831.50
926.22	1761.87
926.40	1855.05
926.57	1923.66
926.74	1957.24
926.91	1784.80
927.08	1966.25
927.26	1991.24
927.43	1865.90
927.60	1775.79
927.77	1835.39
927.94	2089.34
928.11	2006.80
928.29	1689.37
928.46	1862.63
928.63	1793.41
928.80	1845.42
928.97	1905.23
929.14	1748.76
929.32	2178.01
929.49	1905.23
929.66	1766.17
929.83	1682.20
930.00	1822.08
930.17	1930.42
930.35	1719.68
930.52	1777.43
930.69	2090.77
930.86	1741.59
931.03	1873.48
931.20	1627.11
931.37	2000.46
931.55	1868.98
931.72	1828.63
931.89	1722.96
932.06	1753.47
932.23	2081.76
932.40	1899.29
932.57	1914.65
932.74	2065.99
932.92	2027.49
933.09	1917.31
933.26	1599.46
933.43	1833.14
933.60	1901.54
933.77	1825.56
933.94	1884.34
934.11	1855.05
934.29	1892.53
934.46	1744.05
934.63	1862.83
934.80	1729.92
934.97	1869.39
935.14	1790.74
935.31	1712.31
935.48	1779.28
935.65	1920.99
935.82	1885.56
936.00	1751.22
936.17	2071.93
936.34	1874.92
936.51	1907.27
936.68	1704.73
936.85	1906.45
937.02	1892.53
937.19	1872.87
937.36	1813.07
937.53	1939.22
937.70	1983.46
937.87	1834.57
938.05	1868.98
938.22	1899.90
938.39	1763.51
938.56	1808.56
938.73	1764.53
938.90	1874.92
939.07	1802.42
939.24	1860.58
939.41	1680.56
939.58	1928.98
939.75	1927.55
939.92	1756.54
940.09	1971.58
940.26	1845.63
940.43	1975.27
940.60	1784.19
940.77	1789.52
940.95	1930.42
941.12	1981.00
941.29	1786.24
941.46	1831.29
941.63	2022.57
941.80	2063.33
941.97	1695.92
942.14	1694.90
942.31	1966.66
942.48	1850.34
942.65	1891.30
942.82	1828.43
942.99	1964.21
943.16	1904.20
943.33	1721.73
943.50	1768.83
943.67	2004.55
943.84	2026.06
944.01	1783.58
944.18	1756.13
944.35	2024.83
944.52	1766.37
944.69	1851.77
944.86	1704.11
945.03	1978.95
945.20	2181.50
945.37	1679.74
945.54	1824.74
945.71	2061.69
945.88	2117.39
946.05	1737.91
946.22	1713.74
946.39	2070.70
946.56	1883.52
946.73	1692.44
946.90	1752.04
947.07	1833.34
947.24	1840.92
947.41	1651.48
947.58	1928.16
947.75	1984.69
947.92	1909.73
948.09	1606.02
948.26	1681.79
948.43	1888.64
948.60	2113.91
948.77	1748.76
948.94	1791.97
949.11	1968.92
949.27	1939.63
949.44	1754.70
949.61	1769.24
949.78	1905.84
949.95	2012.13
950.12	1731.35
950.29	1701.25
950.46	1818.39
950.63	1991.24
950.80	1782.55
950.97	1829.45
951.14	2028.10
951.31	1826.99
951.48	1739.54
951.65	1718.04
951.82	2126.41
951.99	1919.97
952.15	1675.44
952.32	1791.36
952.49	1818.19
952.66	1819.62
952.83	1756.95
953.00	1774.77
953.17	1860.58
953.34	1978.95
953.51	1825.15
953.68	1791.97
953.85	2001.48
954.02	2004.35
954.18	1802.83
954.35	1825.97
954.52	1777.23
954.69	1911.98
954.86	1669.30
955.03	1808.15
955.20	1977.31
955.37	1866.93
955.54	1773.54
955.71	1768.83
955.87	1926.32
956.04	2103.47
956.21	1789.72
956.38	1752.24
956.55	1904.82
956.72	2212.01
956.89	1830.88
957.06	1769.85
957.23	1801.60
957.39	2045.31
957.56	1757.98
957.73	1715.58
957.90	1642.68
958.07	2101.63
958.24	1840.71
958.41	1764.12
958.57	1996.97
958.74	1906.66
958.91	1734.83
959.08	1764.33
959.25	1957.45
959.42	1873.07
959.59	1853.82
959.75	1782.14
959.92	2026.06
960.09	1983.05
960.26	1743.44
960.43	1849.52
960.60	1913.42
960.76	1854.44
960.93	1684.45
961.10	1838.87
961.27	1987.55
961.44	1834.57
961.61	1702.48
961.77	1723.16
961.94	1909.53
962.11	2002.50
962.28	1819.42
962.45	1725.41
962.62	1823.51
962.78	1984.07
962.95	1725.82
963.12	1778.25
963.29	1929.60
963.46	2220.00
963.62	1854.44
963.79	1739.75
963.96	2198.29
964.13	1812.25
964.30	1857.51
964.46	1788.70
964.63	1764.33
964.80	2218.15
964.97	1646.36
965.14	1914.65
965.30	1970.15
965.47	2033.22
965.64	1971.78
965.81	1940.86
965.98	2137.06
966.14	1947.82
966.31	1810.61
966.48	1809.99
966.65	2073.98
966.81	1974.04
966.98	1808.36
967.15	1838.87
967.32	1914.24
967.49	1803.03
967.65	1685.07
967.82	1641.86
967.99	1859.56
968.16	1703.91
968.32	1935.33
968.49	1786.44
968.66	1870.21
968.83	2080.53
968.99	1826.79
969.16	1716.20
969.33	2055.14
969.50	1949.26
969.66	1882.49
969.83	1980.18
970.00	1987.55
970.17	1945.98
970.33	1782.96
970.50	1722.55
970.67	2086.27
970.84	2074.59
971.00	1716.40
971.17	1704.73
971.34	1950.49
971.50	1881.67
971.67	1885.77
971.84	1826.79
972.01	1763.30
972.17	1619.33
972.34	1723.57
972.51	1890.68
972.67	2017.66
972.84	1932.05
973.01	1737.91
973.18	1762.28
973.34	1990.01
973.51	1773.54
973.68	1798.53
973.84	1831.50
974.01	1837.44
974.18	2107.36
974.34	1862.83
974.51	1851.98
974.68	1778.66
974.85	2146.48
975.01	1905.84
975.18	1781.12
975.35	1881.47
975.51	1827.61
975.68	1648.00
975.85	1918.54
976.01	1800.16
976.18	2040.39
976.35	1801.60
976.51	1749.37
976.68	2092.00
976.85	2029.74
977.01	1824.13
977.18	1868.16
977.35	1919.77
977.51	1729.92
977.68	1640.22
977.85	1689.78
978.01	2011.11
978.18	1968.10
978.35	1828.43
978.51	1817.98
978.68	1999.64
978.85	2067.83
979.01	1789.11
979.18	1814.50
979.34	1872.25
979.51	1910.96
979.68	1750.19
979.84	1795.45
980.01	2204.84
980.18	1906.25
980.34	1752.86
980.51	1876.14
980.67	1988.58
980.84	1956.63
981.01	1789.72
981.17	1853.82
981.34	1677.90
981.51	1972.81
981.67	1732.38
981.84	1867.95
982.00	1961.13
982.17	1866.72
982.34	1690.39
982.50	1571.82
982.67	2078.89
982.83	1799.35
983.00	1694.08
983.17	1604.79
983.33	2025.85
983.50	1706.98
983.66	1723.16
983.83	1613.39
984.00	1834.57
984.16	1897.24
984.33	1635.30
984.49	1604.58
984.66	1794.43
984.83	1970.15
984.99	1646.77
985.16	1612.78
985.32	1945.57
985.49	1976.09
985.65	1752.65
985.82	1613.18
985.99	2081.56
986.15	1900.11
986.32	1706.98
986.48	1650.25
986.65	1823.10
986.81	1960.11
986.98	1646.36
987.14	1685.27
987.31	1890.28
987.48	1708.01
987.64	1542.12
987.81	1595.98
987.97	2123.54
988.14	1777.02
988.30	1640.22
988.47	1508.94
988.63	1918.13
988.80	1759.61
988.96	1690.80
989.13	1710.26
989.30	1837.64
989.46	1990.42
989.63	1578.37
989.79	1588.40
989.96	1870.00
990.12	2072.34
990.29	1636.53
990.45	1702.48
990.62	1865.29
990.78	2014.18
990.95	1739.95
991.11	1665.82
991.28	1826.79
991.44	1910.14
991.61	1552.97
991.77	1691.42
991.94	1871.43
992.10	2004.76
992.27	1692.85
992.43	1687.32
992.60	1946.80
992.76	1819.21
992.93	1805.08
993.09	1576.94
993.26	1990.83
993.42	2092.82
993.59	1634.28
993.75	1558.30
993.92	1763.51
994.08	1774.97
994.25	1728.90
994.41	1596.39
994.58	1988.17
994.74	2053.09
994.91	1622.40
995.07	1723.37
995.24	1840.92
995.40	1871.43
995.56	1770.67
995.73	1726.23
995.89	2065.58
996.06	1859.76
996.22	1622.81
996.39	1568.13
996.55	1861.60
996.72	1914.24
996.88	1582.47
997.05	1606.43
997.21	2081.76
997.37	1950.69
997.54	1714.97
997.70	1668.28
997.87	1911.37
998.03	1862.42
998.20	1563.01
998.36	1579.80
998.52	1973.42
998.69	2002.50
998.85	1563.62
999.02	1678.11
999.18	1985.51
999.35	2001.28
999.51	1654.76
999.67	1646.36
999.84	1755.11
1000.00	1948.44
1000.17	1735.45
1000.33	1602.74
1000.49	1815.11
1000.66	1855.25
1000.82	1637.15
1000.99	1710.26
1001.15	2022.37
1001.31	1835.18
1001.48	1672.58
1001.64	1716.20
1001.81	1846.86
1001.97	2124.15
1002.13	1623.42
1002.30	1658.45
1002.46	2038.96
1002.63	1839.90
1002.79	1742.82
1002.95	1644.11
1003.12	1994.52
1003.28	1892.53
1003.45	1627.93
1003.61	1611.75
1003.77	1897.44
1003.94	1712.10
1004.10	1667.87
1004.26	1711.49
1004.43	1945.57
1004.59	2087.29
1004.75	1633.46
1004.92	1620.15
1005.08	1805.28
1005.25	1931.23
1005.41	1650.05
1005.57	1733.40
1005.74	2011.31
1005.90	1827.20
1006.06	1754.70
1006.23	1659.88
1006.39	1940.25
1006.55	2241.91
1006.72	1822.69
1006.88	1601.72
1007.04	1754.70
1007.21	1849.11
1007.37	1682.41
1007.53	1654.76
1007.70	2044.49
1007.86	1998.41
1008.02	1703.71
1008.19	1617.69
1008.35	1935.54
1008.51	1776.41
1008.68	1639.60
1008.84	1581.24
1009.00	1760.43
1009.17	2013.36
1009.33	1778.46
1009.49	1737.29
1009.65	1797.30
1009.82	1919.97
1009.98	1714.35
1010.14	1555.43
1010.31	1953.97
1010.47	1931.03
1010.63	1735.24
1010.80	1717.43
1010.96	1940.25
1011.12	1843.38
1011.28	1654.76
1011.45	1629.36
1011.61	2211.81
1011.77	1773.75
1011.94	1631.00
1012.10	1565.26
1012.26	1735.04
1012.42	1815.73
1012.59	1697.15
1012.75	1714.56
1012.91	1832.73
1013.07	1988.58
1013.24	1598.64
1013.40	1659.67
1013.56	1882.90
1013.72	1858.74
1013.89	1727.46
1014.05	1720.50
1014.21	2118.83
1014.37	2169.00
1014.54	1703.30
1014.70	1617.28
1014.86	1845.42
1015.02	1760.84
1015.19	1651.89
1015.35	1601.10
1015.51	1856.69
1015.67	1811.22
1015.84	1638.58
1016.00	1637.35
1016.16	1987.14
1016.32	1990.42
1016.49	1661.72
1016.65	1643.90
1016.81	1872.87
1016.97	1942.70
1017.14	1739.75
1017.30	1664.79
1017.46	1801.60
1017.62	1892.94
1017.78	1703.30
1017.95	1615.03
1018.11	1948.03
1018.27	2192.15
1018.43	1796.89
1018.59	1715.17
1018.76	1949.87
1018.92	2218.36
1019.08	1620.97
1019.24	1660.70
1019.40	2043.87
1019.57	1910.14
1019.73	1733.81
1019.89	1671.14
1020.05	1910.35
1020.21	2127.63
1020.38	1610.32
1020.54	1786.85
1020.70	1951.92
1020.86	1962.36
1021.02	1669.09
1021.18	1638.58
1021.35	1800.57
1021.51	1936.15
1021.67	1791.36
1021.83	1658.04
1021.99	1867.13
1022.15	1901.74
1022.32	1725.21
1022.48	1701.45
1022.64	2047.15
1022.80	2084.83
1022.96	1711.08
1023.12	1596.60
1023.29	2022.16
1023.45	1922.43
1023.61	1627.73
1023.77	1797.71
1023.93	1882.70
1024.09	1780.91
1024.25	1613.18
1024.42	1611.34
1024.58	1827.61
1024.74	1935.54
1024.90	1674.01
1025.06	1725.41
1025.22	1792.79
1025.38	2079.92
1025.54	1610.73
1025.71	1724.59
1025.87	1941.27
1026.03	1918.95
1026.19	1602.13
1026.35	1806.72
1026.51	1974.45
1026.67	1883.72
1026.83	1690.39
1026.99	1752.65
1027.16	1965.85
1027.32	1896.62
1027.48	1680.56
1027.64	1631.00
1027.80	1957.45
1027.96	1902.15
1028.12	1665.82
1028.28	1637.15
1028.44	1907.48
1028.60	2060.87
1028.77	1765.96
1028.93	1694.90
1029.09	1835.80
1029.25	1752.65
1029.41	1703.30
1029.57	1762.48
1029.73	1925.09
1029.89	2051.86
1030.05	1751.22
1030.21	1722.14
1030.37	2173.10
1030.53	1946.59
1030.69	1669.71
1030.85	1585.54
1031.02	1776.82
1031.18	1867.95
1031.34	1694.08
1031.50	1731.56
1031.66	1800.98
1031.82	2066.81
1031.98	1706.16
1032.14	1627.11
1032.30	1765.55
1032.46	1993.29
1032.62	1780.09
1032.78	1594.75
1032.94	1807.13
1033.10	1825.97
1033.26	1729.71
1033.42	1768.83
1033.58	2120.88
1033.74	1796.27
1033.90	1654.35
1034.06	1835.39
1034.22	2135.62
1034.38	2023.60
1034.54	1687.12
1034.70	1718.86
1034.86	2118.83
>>>>>End Processed Spectral Data<<<<<
