SpectraSuite Data File
++++++++++++++++++++++++++++++++++++
Date: Thu Mar 30 14:24:31 PDT 2017
User: UCSD _CER
Dark Spectrum Present: No
Reference Spectrum Present: No
Number of Sampled Component Spectra: 1
Spectrometers: USB4C00073
Integration Time (usec): 380000 (USB4C00073)
Spectra Averaged: 10 (USB4C00073)
Boxcar Smoothing: 0 (USB4C00073)
Correct for Electrical Dark: No (USB4C00073)
Strobe/Lamp Enabled: No (USB4C00073)
Correct for Detector Non-linearity: No (USB4C00073)
Correct for Stray Light: No (USB4C00073)
Number of Pixels in Processed Spectrum: 3648
>>>>>Begin Processed Spectral Data<<<<<
345.37	1232.06
345.58	1232.06
345.80	1232.06
346.01	1235.13
346.22	1234.31
346.43	2028.72
346.65	1890.89
346.86	2434.63
347.07	2385.06
347.28	1827.81
347.50	1806.51
347.71	2130.50
347.92	1870.41
348.13	1798.12
348.35	1812.04
348.56	2109.41
348.77	1932.05
348.98	1823.31
349.20	1666.64
349.41	2141.36
349.62	2260.14
349.83	1929.60
350.05	1800.57
350.26	2159.79
350.47	2343.70
350.68	1855.05
350.90	1728.69
351.11	2357.21
351.32	2334.89
351.53	1851.57
351.75	1772.31
351.96	2166.96
352.17	2090.77
352.38	1885.97
352.60	1902.36
352.81	2150.98
353.02	2433.19
353.23	1802.83
353.44	1811.43
353.66	2031.99
353.87	2084.42
354.08	1922.63
354.29	1821.05
354.51	2049.20
354.72	2144.63
354.93	1853.82
355.14	1860.17
355.35	1937.38
355.57	2348.41
355.78	1906.45
355.99	1999.84
356.20	2158.35
356.42	2135.62
356.63	1967.48
356.84	1876.96
357.05	2292.09
357.26	2541.94
357.48	1949.05
357.69	1881.06
357.90	2164.29
358.11	2047.15
358.32	1812.86
358.54	1874.71
358.75	2023.39
358.96	2245.80
359.17	1823.51
359.38	1849.73
359.60	2235.56
359.81	2140.54
360.02	1859.76
360.23	1804.67
360.44	2043.67
360.66	2308.27
360.87	1825.56
361.08	1810.40
361.29	2184.57
361.50	2123.54
361.72	1816.75
361.93	1905.23
362.14	2133.37
362.35	1858.53
362.56	2016.63
362.77	1726.64
362.99	2274.88
363.20	2144.02
363.41	1935.54
363.62	1724.59
363.83	2249.90
364.05	2290.24
364.26	1798.53
364.47	1826.17
364.68	2351.07
364.89	2020.53
365.10	1756.75
365.32	1874.71
365.53	2000.66
365.74	2043.46
365.95	1825.15
366.16	1721.11
366.37	2107.97
366.59	2068.04
366.80	1867.34
367.01	1735.86
367.22	2494.22
367.43	2599.49
367.64	1919.97
367.86	1860.37
368.07	2196.04
368.28	2323.01
368.49	1722.75
368.70	1874.30
368.91	2059.85
369.12	2118.83
369.34	1750.19
369.55	1731.76
369.76	2106.13
369.97	2030.77
370.18	1715.38
370.39	1805.69
370.60	1885.16
370.82	1927.55
371.03	1862.63
371.24	1800.78
371.45	2242.94
371.66	2187.64
371.87	1850.34
372.08	1780.09
372.30	1947.62
372.51	2245.19
372.72	1940.25
372.93	1789.52
373.14	2376.87
373.35	2009.67
373.56	1744.87
373.78	1847.88
373.99	2261.37
374.20	2639.83
374.41	1822.08
374.62	1804.87
374.83	2370.93
375.04	2048.58
375.25	1875.32
375.47	1871.23
375.68	2041.62
375.89	2257.48
376.10	1873.69
376.31	1936.35
376.52	2203.20
376.73	2179.04
376.94	1894.58
377.15	1805.28
377.37	2108.38
377.58	2094.25
377.79	1747.53
378.00	1783.99
378.21	2180.06
378.42	2219.38
378.63	1868.77
378.84	1925.71
379.05	2312.57
379.27	2145.66
379.48	1938.81
379.69	1768.63
379.90	2333.66
380.11	1780.09
380.32	1836.21
380.53	1974.65
380.74	2344.72
380.95	2119.85
381.16	1857.71
381.37	1887.20
381.59	2370.11
381.80	2273.86
382.01	1814.91
382.22	1748.15
382.43	2216.11
382.64	2125.79
382.85	1812.04
383.06	1929.39
383.27	2274.68
383.48	2121.70
383.69	1899.08
383.91	1767.60
384.12	2198.70
384.33	2194.60
384.54	1845.83
384.75	1726.64
384.96	2620.58
385.17	2274.88
385.38	1801.39
385.59	1816.96
385.80	2229.01
386.01	2374.82
386.22	1945.16
386.43	1831.09
386.64	2503.85
386.86	2106.54
387.07	1923.86
387.28	1731.35
387.49	2030.97
387.70	2309.08
387.91	1959.50
388.12	1833.75
388.33	2187.64
388.54	2054.32
388.75	1796.07
388.96	1925.09
389.17	2000.66
389.38	2082.17
389.59	1937.79
389.80	1909.32
390.01	2093.23
390.22	2058.82
390.43	1928.98
390.64	1702.07
390.86	2198.90
391.07	2288.61
391.28	1799.96
391.49	1882.90
391.70	1896.62
391.91	1969.33
392.12	1824.13
392.33	1879.63
392.54	2122.31
392.75	2067.63
392.96	1931.03
393.17	1798.94
393.38	2514.29
393.59	2348.00
393.80	1827.81
394.01	2012.74
394.22	2307.86
394.43	2672.39
394.64	1991.44
394.85	2154.46
395.06	2267.92
395.27	2244.78
395.48	1908.09
395.69	1770.67
395.90	2096.51
396.11	2114.53
396.32	1828.22
396.53	1926.32
396.74	2087.49
396.95	2286.56
397.16	1824.94
397.37	1738.73
397.58	2272.63
397.79	2104.90
398.00	1889.25
398.21	1856.69
398.42	2155.90
398.63	2498.52
398.84	1807.54
399.05	1810.40
399.26	2368.27
399.47	2208.53
399.68	1708.21
399.89	1797.09
400.10	1945.16
400.31	2053.50
400.52	1885.77
400.73	1813.68
400.94	1847.68
401.15	2175.56
401.36	1852.39
401.57	1882.08
401.78	2314.41
401.99	2284.30
402.20	1772.11
402.41	1986.94
402.62	2353.32
402.83	2092.00
403.04	1799.14
403.25	2062.71
403.46	2281.03
403.67	2570.82
403.88	2146.68
404.09	2144.02
404.30	2357.21
404.51	2272.43
404.72	2005.17
404.93	2143.20
405.14	2057.39
405.35	2154.05
405.56	1866.93
405.77	1781.53
405.98	2150.78
406.19	2086.06
406.40	1771.49
406.61	1808.77
406.82	2005.17
407.03	2516.34
407.24	1734.83
407.45	1878.19
407.66	2159.99
407.87	2248.46
408.08	1880.85
408.29	1899.29
408.49	2209.14
408.70	2070.29
408.91	1840.71
409.12	1986.73
409.33	1964.41
409.54	2330.79
409.75	1814.50
409.96	1852.39
410.17	2270.17
410.38	2089.75
410.59	1784.60
410.80	1962.98
411.01	2093.43
411.22	2082.37
411.43	1927.75
411.64	1800.78
411.85	1976.09
412.06	1970.97
412.27	1653.94
412.47	1811.63
412.68	2091.80
412.89	2205.05
413.10	1798.32
413.31	1736.06
413.52	2456.33
413.73	2458.38
413.94	1817.37
414.15	2001.48
414.36	2068.04
414.57	2008.65
414.78	2008.85
414.99	2763.32
415.19	3743.89
415.40	4022.62
415.61	4199.36
415.82	3990.67
416.03	3780.14
416.24	3290.27
416.45	2667.27
416.66	2195.01
416.87	2067.01
417.08	2296.18
417.29	1965.64
417.50	2167.37
417.70	2526.58
417.91	2563.24
418.12	2477.43
418.33	2638.60
418.54	3020.34
418.75	3311.57
418.96	3342.08
419.17	4016.68
419.38	5108.86
419.59	5173.58
419.79	4916.56
420.00	4577.41
420.21	4390.84
420.42	3310.34
420.63	2585.97
420.84	2317.48
421.05	2207.10
421.26	2172.49
421.47	1785.62
421.67	2238.02
421.88	1976.09
422.09	1915.47
422.30	2038.75
422.51	1853.00
422.72	2408.41
422.93	2241.91
423.14	1866.11
423.35	1707.60
423.55	1852.39
423.76	1978.34
423.97	1839.69
424.18	1755.72
424.39	2196.86
424.60	2410.87
424.81	2057.18
425.02	2337.76
425.22	2718.47
425.43	2789.74
425.64	2955.22
425.85	3006.62
426.06	3520.66
426.27	3359.28
426.48	3323.85
426.68	3313.82
426.89	3449.60
427.10	3531.72
427.31	2693.08
427.52	2238.23
427.73	2540.10
427.94	2383.43
428.14	2089.95
428.35	1925.91
428.56	2367.66
428.77	2272.43
428.98	1993.90
429.19	2372.98
429.40	2677.51
429.60	2796.30
429.81	2741.41
430.02	2657.03
430.23	2531.90
430.44	2557.50
430.65	2039.78
430.85	1997.79
431.06	2234.74
431.27	1877.99
431.48	1859.76
431.69	1915.67
431.90	2137.26
432.10	2161.84
432.31	1977.11
432.52	2264.85
432.73	3275.52
432.94	3332.45
433.15	2993.11
433.35	2852.41
433.56	3092.23
433.77	2712.13
433.98	2521.05
434.19	2328.75
434.40	2486.44
434.60	2338.78
434.81	2043.26
435.02	2005.78
435.23	2164.70
435.44	2067.22
435.64	1773.75
435.85	1842.97
436.06	2089.95
436.27	2071.93
436.48	1761.87
436.68	1813.48
436.89	2407.39
437.10	2204.84
437.31	1879.01
437.52	1992.67
437.73	2142.79
437.93	2105.52
438.14	1937.58
438.35	1738.52
438.56	2030.15
438.77	2070.70
438.97	2058.21
439.18	1825.97
439.39	2299.25
439.60	1899.29
439.80	1804.67
440.01	1852.80
440.22	2028.92
440.43	2224.71
440.64	1810.20
440.84	1912.60
441.05	1942.91
441.26	2607.27
441.47	1959.50
441.68	1830.88
441.88	2093.84
442.09	2088.93
442.30	1994.93
442.51	1952.74
442.71	2072.95
442.92	2164.09
443.13	1848.91
443.34	1847.06
443.55	1972.40
443.75	2232.90
443.96	1859.76
444.17	1812.04
444.38	2286.35
444.58	1966.66
444.79	2005.78
445.00	1918.13
445.21	2098.55
445.41	2079.71
445.62	1709.23
445.83	1975.27
446.04	2157.13
446.24	1909.53
446.45	1724.39
446.66	1862.42
446.87	2199.72
447.07	2020.53
447.28	2093.64
447.49	1856.48
447.70	2259.93
447.90	2292.50
448.11	1900.52
448.32	1989.60
448.53	2384.86
448.73	2348.20
448.94	1871.64
449.15	2023.39
449.36	2161.63
449.56	2177.61
449.77	1864.88
449.98	1808.97
450.19	2186.82
450.39	2346.77
450.60	2301.51
450.81	2349.02
451.02	2474.97
451.22	2620.79
451.43	2064.97
451.64	2109.41
451.84	2250.31
452.05	2550.95
452.26	2072.75
452.47	1996.16
452.67	2082.99
452.88	2403.91
453.09	1843.38
453.30	1840.10
453.50	2266.49
453.71	2389.16
453.92	1845.63
454.12	2009.06
454.33	2023.19
454.54	2091.80
454.75	1870.00
454.95	1873.28
455.16	2148.52
455.37	2250.31
455.57	1989.40
455.78	1876.14
455.99	2105.31
456.19	2171.05
456.40	1830.88
456.61	1888.64
456.82	2140.54
457.02	2246.21
457.23	1947.21
457.44	2066.40
457.64	2048.17
457.85	2228.80
458.06	1986.53
458.26	1997.79
458.47	2163.47
458.68	2372.37
458.89	2005.37
459.09	2156.31
459.30	2615.46
459.51	2297.41
459.71	1873.48
459.92	1926.93
460.13	2284.30
460.33	2524.53
460.54	1946.80
460.75	1959.91
460.95	1942.50
461.16	2200.34
461.37	1915.26
461.57	1893.76
461.78	2177.61
461.99	2011.11
462.19	2231.88
462.40	1953.15
462.61	2842.79
462.81	2394.49
463.02	1923.66
463.23	1922.22
463.43	2279.80
463.64	2118.62
463.85	3240.50
464.05	1966.05
464.26	2757.18
464.47	2441.38
464.67	2149.34
464.88	2073.98
465.09	2013.56
465.29	2164.09
465.50	2027.08
465.71	1919.56
465.91	2053.70
466.12	2119.24
466.33	1937.79
466.53	1864.27
466.74	2354.75
466.94	2097.73
467.15	1956.42
467.36	2077.46
467.56	1973.01
467.77	2164.70
467.98	1955.40
468.18	1909.73
468.39	2043.26
468.60	2453.26
468.80	1911.78
469.01	1856.89
469.21	2237.41
469.42	2454.29
469.63	2126.20
469.83	2080.33
470.04	2516.13
470.25	2625.91
470.45	2166.34
470.66	2002.71
470.86	2270.58
471.07	2137.06
471.28	2091.18
471.48	2053.70
471.69	2207.30
471.90	2763.53
472.10	1928.16
472.31	1900.92
472.51	2011.92
472.72	2005.58
472.93	1873.89
473.13	2015.00
473.34	2183.13
473.54	2136.44
473.75	1962.77
473.96	2148.32
474.16	2162.86
474.37	2282.87
474.57	2183.13
474.78	1981.61
474.99	2339.60
475.19	2290.65
475.40	2017.45
475.60	1870.21
475.81	2399.81
476.02	2198.70
476.22	2157.54
476.43	2232.29
476.63	2264.85
476.84	2539.69
477.05	1885.77
477.25	1915.06
477.46	2726.67
477.66	2179.65
477.87	1887.41
478.08	1910.75
478.28	2328.13
478.49	2109.61
478.69	1902.56
478.90	1931.64
479.10	2245.39
479.31	2486.03
479.52	2070.70
479.72	2094.66
479.93	2290.65
480.13	2089.95
480.34	1914.03
480.54	2000.05
480.75	1995.13
480.96	2360.08
481.16	1888.02
481.37	2026.67
481.57	2297.00
481.78	2222.87
481.98	2170.23
482.19	2051.66
482.40	2477.84
482.60	2281.44
482.81	2135.83
483.01	1991.65
483.22	2451.21
483.42	2411.89
483.63	2136.85
483.83	2002.50
484.04	2101.83
484.24	2307.86
484.45	2060.67
484.66	1879.01
484.86	2214.47
485.07	2037.93
485.27	2015.20
485.48	1911.78
485.68	2366.22
485.89	2041.21
486.09	2084.01
486.30	1951.30
486.50	2224.30
486.71	2261.98
486.91	2266.90
487.12	2336.53
487.33	2768.85
487.53	2793.22
487.74	2398.99
487.94	2348.00
488.15	2592.73
488.35	2689.39
488.56	2460.63
488.76	2355.57
488.97	2453.47
489.17	2506.71
489.38	2215.08
489.58	2059.85
489.79	2300.07
489.99	2270.58
490.20	2047.56
490.40	2138.69
490.61	2261.37
490.81	2117.60
491.02	2030.56
491.22	2046.33
491.43	2313.18
491.63	2207.51
491.84	2169.41
492.04	1922.63
492.25	2282.05
492.45	2109.00
492.66	1909.32
492.86	1860.58
493.07	2116.37
493.27	2536.82
493.48	1844.40
493.68	1966.66
493.89	2148.32
494.09	2290.65
494.30	1987.55
494.50	2228.60
494.71	2315.02
494.91	2089.13
495.12	2182.52
495.32	2255.43
495.53	2359.06
495.73	2025.65
495.94	2081.76
496.14	1852.59
496.35	2498.93
496.55	2138.69
496.76	1962.57
496.96	2060.46
497.17	2180.27
497.37	2285.94
497.58	1988.17
497.78	1947.21
497.98	2171.05
498.19	2199.11
498.39	2057.80
498.60	2106.54
498.80	1981.61
499.01	2359.46
499.21	1924.48
499.42	2063.12
499.62	2106.75
499.83	2543.37
500.03	1874.71
500.24	2085.86
500.44	2428.89
500.64	2338.99
500.85	1952.53
501.05	2088.31
501.26	1939.22
501.46	2356.80
501.67	1902.36
501.87	1853.00
502.08	2014.38
502.28	2116.58
502.48	2090.36
502.69	2136.44
502.89	2010.90
503.10	2145.66
503.30	2142.79
503.51	2094.87
503.71	1977.11
503.92	2339.39
504.12	2191.12
504.32	2149.14
504.53	2497.70
504.73	2557.91
504.94	2428.28
505.14	2601.53
505.35	2744.69
505.55	2750.42
505.75	2516.54
505.96	2629.18
506.16	2844.22
506.37	2376.46
506.57	2161.63
506.78	2296.59
506.98	2543.58
507.18	2107.16
507.39	2041.21
507.59	2115.76
507.80	2176.17
508.00	2330.79
508.20	2342.47
508.41	2101.83
508.61	2517.57
508.82	2426.64
509.02	2131.32
509.22	1923.66
509.43	2029.54
509.63	2081.56
509.84	2045.72
510.04	1865.90
510.24	2453.67
510.45	2298.84
510.65	1911.78
510.86	2067.83
511.06	2052.06
511.26	2422.13
511.47	2286.76
511.67	2082.99
511.88	2340.01
512.08	2395.71
512.28	1946.59
512.49	2078.07
512.69	2217.13
512.90	2224.71
513.10	1962.77
513.30	2057.39
513.51	2235.97
513.71	2471.08
513.91	2054.32
514.12	2086.88
514.32	2477.02
514.53	2338.58
514.73	2429.71
514.93	2391.21
515.14	2629.39
515.34	2991.88
515.54	2720.52
515.75	2940.68
515.95	3264.26
516.15	3317.09
516.36	2605.84
516.56	2451.42
516.77	2094.25
516.97	2499.14
517.17	2244.98
517.38	2347.38
517.58	2695.33
517.78	2570.82
517.99	2849.34
518.19	2954.81
518.39	3479.09
518.60	3254.22
518.80	2866.95
519.00	2638.19
519.21	2548.49
519.41	2782.78
519.61	2112.07
519.82	2290.86
520.02	2322.81
520.22	2336.73
520.43	2165.11
520.63	2243.34
520.83	2270.17
521.04	2185.39
521.24	2646.39
521.44	2774.18
521.65	3016.25
521.85	3304.40
522.05	2898.29
522.26	2587.81
522.46	2939.86
522.66	2599.69
522.87	2246.21
523.07	2375.64
523.27	2298.84
523.48	2626.11
523.68	2227.78
523.88	2273.45
524.09	2559.55
524.29	2491.15
524.49	2303.56
524.70	2608.09
524.90	2976.93
525.10	2881.90
525.31	2395.92
525.51	2196.24
525.71	2497.29
525.91	2370.93
526.12	2071.93
526.32	1937.99
526.52	2124.36
526.73	2074.18
526.93	2103.47
527.13	1912.39
527.34	2205.05
527.54	2222.05
527.74	2146.68
527.94	2029.13
528.15	2114.53
528.35	2272.43
528.55	2191.53
528.76	2088.11
528.96	1935.33
529.16	2338.78
529.36	2099.58
529.57	1920.59
529.77	2361.92
529.97	1990.83
530.18	2080.53
530.38	1986.73
530.58	2283.08
530.78	2201.57
530.99	2021.14
531.19	2132.14
531.39	2107.36
531.60	2202.59
531.80	2094.25
532.00	2207.51
532.20	2234.13
532.41	2091.18
532.61	2006.39
532.81	1983.05
533.01	2115.76
533.22	2223.48
533.42	2147.70
533.62	1857.30
533.82	2414.96
534.03	2149.14
534.23	2149.34
534.43	1972.19
534.63	2111.66
534.84	2217.13
535.04	2069.88
535.24	2028.92
535.44	2642.29
535.65	2060.67
535.85	1962.57
536.05	1897.24
536.25	2166.96
536.46	2063.33
536.66	2253.99
536.86	2191.74
537.06	2430.32
537.27	2558.12
537.47	2129.89
537.67	2021.75
537.87	2471.49
538.08	2191.94
538.28	1975.47
538.48	1988.78
538.68	2237.00
538.88	2374.62
539.09	1990.22
539.29	2091.18
539.49	2385.88
539.69	2248.06
539.90	2122.92
540.10	2012.13
540.30	2478.66
540.50	2247.65
540.70	2032.81
540.91	2146.89
541.11	2533.75
541.31	2783.80
541.51	2494.02
541.72	2611.77
541.92	2750.01
542.12	2519.00
542.32	2346.97
542.52	2212.01
542.73	2210.37
542.93	2407.18
543.13	2153.44
543.33	2343.29
543.53	2631.84
543.74	2665.02
543.94	2378.10
544.14	2642.49
544.34	3027.31
544.54	2846.06
544.75	2974.47
544.95	3155.72
545.15	3113.73
545.35	3103.08
545.55	2718.68
545.75	2464.12
545.96	2871.66
546.16	2320.55
546.36	2270.58
546.56	2296.80
546.76	2582.28
546.97	2653.76
547.17	2175.76
547.37	2181.50
547.57	2138.49
547.77	2343.49
547.97	2141.36
548.18	2181.50
548.38	2359.87
548.58	3298.46
548.78	3505.71
548.98	4044.33
549.18	4739.82
549.39	5021.21
549.59	4237.66
549.79	3760.28
549.99	3816.59
550.19	3512.06
550.39	3205.69
550.60	2775.00
550.80	2811.25
551.00	2731.58
551.20	2358.65
551.40	2278.57
551.60	2463.09
551.80	2414.76
552.01	2314.20
552.21	2265.67
552.41	2450.39
552.61	2663.38
552.81	2235.97
553.01	2041.01
553.21	2376.46
553.42	2122.51
553.62	2078.48
553.82	1991.04
554.02	2464.32
554.22	2351.89
554.42	1934.31
554.62	2223.07
554.83	2901.97
555.03	3441.82
555.23	3447.96
555.43	4002.55
555.63	4183.39
555.83	3855.71
556.03	3300.51
556.23	3012.56
556.44	3232.92
556.64	3337.17
556.84	2732.20
557.04	2963.00
557.24	2988.40
557.44	2768.03
557.64	2507.74
557.84	2286.15
558.04	2350.86
558.25	2477.22
558.45	2095.07
558.65	2250.92
558.85	2450.19
559.05	2186.41
559.25	2354.14
559.45	2508.15
559.65	3355.19
559.85	4084.47
560.05	3388.77
560.26	3670.37
560.46	3704.37
560.66	3323.03
560.86	2914.46
561.06	2697.17
561.26	3001.91
561.46	2752.47
561.66	2434.83
561.86	2499.55
562.06	2346.56
562.26	2375.44
562.47	2246.62
562.67	2038.96
562.87	2371.55
563.07	2099.17
563.27	2274.06
563.47	2250.92
563.67	2289.63
563.87	2526.58
564.07	2350.04
564.27	2557.30
564.47	2846.27
564.67	2976.11
564.87	2795.07
565.08	2743.25
565.28	2614.64
565.48	2730.56
565.68	2502.82
565.88	2415.78
566.08	2700.66
566.28	2328.13
566.48	2002.30
566.68	2101.22
566.88	2167.77
567.08	2359.06
567.28	2183.95
567.48	2216.52
567.68	2462.27
567.88	2215.90
568.08	2378.10
568.28	2476.20
568.48	2461.86
568.68	2682.43
568.89	2331.00
569.09	2079.51
569.29	2467.39
569.49	2440.15
569.69	2054.32
569.89	2010.49
570.09	1924.27
570.29	2105.93
570.49	1922.22
570.69	2018.48
570.89	2295.16
571.09	2533.34
571.29	1901.13
571.49	2174.12
571.69	2232.29
571.89	2224.71
572.09	2010.49
572.29	2040.19
572.49	2258.50
572.69	2265.26
572.89	2160.40
573.09	2012.95
573.29	2483.37
573.49	2616.28
573.69	2466.57
573.89	2449.17
574.09	2320.96
574.29	2541.94
574.49	2161.63
574.69	2018.07
574.89	2087.08
575.09	2040.80
575.29	1925.50
575.49	2029.13
575.69	2197.68
575.89	1965.64
576.09	2030.56
576.29	2119.24
576.49	2102.65
576.69	2257.07
576.89	2170.23
577.09	2233.51
577.29	2069.68
577.49	2619.76
577.69	2051.45
577.89	2234.33
578.09	2227.37
578.29	1972.60
578.49	2093.84
578.69	1986.73
578.89	2361.31
579.09	2189.89
579.29	2017.04
579.49	2241.91
579.69	2210.78
579.89	2593.96
580.09	1946.39
580.29	1919.56
580.49	2128.25
580.69	2019.09
580.89	2000.66
581.09	1986.94
581.29	2059.64
581.49	2122.11
581.69	1908.71
581.89	1917.92
582.09	2003.12
582.28	2048.99
582.48	2227.58
582.68	2345.95
582.88	2615.87
583.08	2377.08
583.28	2333.05
583.48	2239.66
583.68	2200.54
583.88	2275.29
584.08	2115.76
584.28	2119.85
584.48	2541.12
584.68	2286.97
584.88	2048.58
585.08	2293.72
585.28	2405.13
585.48	2485.82
585.68	2242.12
585.87	2281.23
586.07	2317.28
586.27	2201.98
586.47	2146.27
586.67	2062.51
586.87	2166.75
587.07	2130.09
587.27	2062.92
587.47	2276.52
587.67	2825.58
587.87	3476.22
588.07	3180.91
588.27	3279.62
588.46	3723.62
588.66	3769.90
588.86	3068.47
589.06	2870.84
589.26	3001.71
589.46	2780.32
589.66	2318.92
589.86	2188.66
590.06	2401.65
590.26	2774.38
590.46	2659.29
590.66	2847.91
590.85	2855.69
591.05	2963.00
591.25	2530.67
591.45	2491.15
591.65	2701.89
591.85	2717.45
592.05	2594.37
592.25	2789.74
592.45	3108.20
592.64	2873.10
592.84	2632.87
593.04	2427.87
593.24	3032.63
593.44	2532.52
593.64	2495.45
593.84	2499.75
594.04	2496.88
594.24	2780.73
594.43	2264.23
594.63	2248.26
594.83	2475.58
595.03	2373.39
595.23	2012.13
595.43	1971.99
595.63	2105.31
595.83	2370.73
596.02	1901.54
596.22	2163.68
596.42	2341.03
596.62	2314.00
596.82	2153.85
597.02	2203.82
597.22	2520.44
597.41	2280.00
597.61	2123.95
597.81	2338.78
598.01	2540.91
598.21	2380.15
598.41	2254.40
598.61	2251.54
598.80	2440.15
599.00	2515.52
599.20	2493.40
599.40	2342.47
599.60	2420.29
599.80	2561.80
599.99	2357.42
600.19	2215.29
600.39	2433.40
600.59	2492.58
600.79	2321.37
600.99	2244.78
601.19	2639.63
601.38	2707.82
601.58	2367.45
601.78	2128.66
601.98	2999.05
602.18	4509.42
602.37	5647.07
602.57	6212.72
602.77	7204.96
602.97	7461.57
603.17	6660.20
603.37	6379.63
603.56	6380.86
603.76	6146.57
603.96	5733.49
604.16	5255.09
604.36	4899.56
604.56	4370.77
604.75	3684.30
604.95	3498.95
605.15	3548.31
605.35	3339.01
605.55	2901.15
605.74	2793.63
605.94	2977.34
606.14	2640.65
606.34	2380.97
606.54	2345.54
606.73	2264.85
606.93	2393.26
607.13	2044.69
607.33	2182.52
607.53	2509.79
607.72	2383.43
607.92	2191.53
608.12	2282.05
608.32	2237.61
608.51	2400.01
608.71	2125.79
608.91	2392.64
609.11	2640.24
609.31	2591.91
609.50	2704.34
609.70	3026.69
609.90	3122.54
610.10	3174.76
610.29	2830.50
610.49	2577.78
610.69	2841.15
610.89	2616.08
611.09	2404.11
611.28	2529.65
611.48	2582.08
611.68	2373.39
611.88	2239.86
612.07	2152.42
612.27	2498.73
612.47	2240.48
612.67	2185.59
612.86	2248.26
613.06	2247.24
613.26	1974.65
613.46	2167.37
613.65	2442.00
613.85	3063.97
614.05	2802.65
614.25	2643.11
614.44	2551.56
614.64	2609.11
614.84	2545.22
615.04	2413.74
615.23	2461.04
615.43	2663.38
615.63	2601.94
615.83	2318.71
616.02	2345.95
616.22	2918.15
616.42	2794.04
616.62	2870.64
616.81	3055.36
617.01	3083.42
617.21	2869.82
617.41	2500.98
617.60	2530.06
617.80	2624.68
618.00	2594.16
618.19	2368.27
618.39	2197.27
618.59	2378.51
618.79	2251.74
618.98	1907.68
619.18	2020.12
619.38	2515.93
619.57	2119.03
619.77	1956.01
619.97	1990.22
620.17	2190.30
620.36	2269.56
620.56	2684.27
620.76	2526.78
620.95	2673.62
621.15	2746.94
621.35	2486.23
621.54	2496.88
621.74	2555.66
621.94	2370.52
622.14	2157.33
622.33	2077.87
622.53	2268.74
622.73	2216.93
622.92	1976.70
623.12	2044.08
623.32	2495.86
623.51	2316.05
623.71	1906.66
623.91	2207.30
624.10	2047.56
624.30	2239.45
624.50	1922.84
624.69	1912.19
624.89	2844.01
625.09	2118.21
625.29	1802.42
625.48	1913.21
625.68	2177.61
625.88	2307.04
626.07	2059.23
626.27	1912.19
626.47	2049.20
626.66	1873.69
626.86	2010.90
627.06	1984.69
627.25	2122.72
627.45	2427.87
627.64	1999.64
627.84	2158.56
628.04	2008.85
628.23	2472.92
628.43	1906.86
628.63	2064.15
628.82	2280.41
629.02	2750.63
629.22	2417.63
629.41	2563.65
629.61	2571.63
629.81	3017.68
630.00	2531.29
630.20	2559.14
630.40	2801.01
630.59	2821.90
630.79	2437.70
630.98	2329.56
631.18	2403.50
631.38	2361.31
631.57	2312.57
631.77	1955.81
631.97	2257.89
632.16	2260.55
632.36	2028.10
632.56	2045.72
632.75	2165.11
632.95	2303.15
633.14	1851.77
633.34	2159.17
633.54	1819.83
633.73	2026.47
633.93	1927.34
634.12	1806.10
634.32	2554.64
634.52	2090.16
634.71	1822.08
634.91	2002.91
635.11	1920.99
635.30	1987.96
635.50	2024.42
635.69	1957.24
635.89	2551.97
636.09	2455.72
636.28	2111.05
636.48	2126.20
636.67	2449.58
636.87	2423.98
637.07	2181.29
637.26	2094.66
637.46	2378.92
637.65	2545.42
637.85	2339.39
638.04	2252.77
638.24	2350.66
638.44	2425.41
638.63	2184.36
638.83	2122.92
639.02	2321.17
639.22	2312.57
639.42	2038.96
639.61	2034.04
639.81	2185.59
640.00	2135.21
640.20	2155.08
640.39	2218.77
640.59	3130.73
640.79	3241.52
640.98	3294.16
641.18	3412.12
641.37	3549.13
641.57	3155.92
641.76	2980.82
641.96	2612.39
642.15	2834.39
642.35	2638.19
642.55	2491.15
642.74	2247.24
642.94	2548.70
643.13	2545.22
643.33	2099.99
643.52	1994.11
643.72	2078.28
643.91	2133.16
644.11	1899.29
644.31	1901.74
644.50	2013.15
644.70	2315.84
644.89	1998.00
645.09	2068.45
645.28	2144.22
645.48	2214.88
645.67	1942.70
645.87	1863.45
646.06	2120.06
646.26	2237.41
646.45	1858.33
646.65	1788.08
646.84	2485.21
647.04	2110.23
647.24	1886.38
647.43	1995.75
647.63	2195.63
647.82	2406.36
648.02	1915.06
648.21	1963.39
648.41	2388.14
648.60	2072.13
648.80	2125.79
648.99	2005.99
649.19	2041.42
649.38	1879.22
649.58	1989.60
649.77	2060.46
649.97	2322.60
650.16	2207.30
650.36	1768.42
650.55	2144.22
650.75	2180.88
650.94	2416.81
651.14	1992.06
651.33	2041.01
651.53	2429.51
651.72	1997.38
651.92	1947.62
652.11	1802.83
652.31	2205.87
652.50	2186.00
652.70	2050.63
652.89	1947.21
653.09	2456.95
653.28	2190.71
653.48	1888.02
653.67	1916.69
653.87	2721.14
654.06	2218.56
654.25	2261.16
654.45	2001.28
654.64	2123.54
654.84	2149.75
655.03	1792.59
655.23	2113.91
655.42	2287.79
655.62	2439.13
655.81	2081.56
656.01	1906.45
656.20	2274.47
656.40	2415.37
656.59	2024.01
656.79	2101.01
656.98	2152.01
657.17	2261.37
657.37	1975.68
657.56	1961.75
657.76	2184.16
657.95	2278.57
658.15	1661.52
658.34	1984.48
658.54	2130.09
658.73	1940.86
658.92	2015.41
659.12	2045.51
659.31	2315.64
659.51	2149.75
659.70	2234.74
659.90	2160.40
660.09	2554.64
660.29	2379.53
660.48	2067.83
660.67	2295.77
660.87	2140.54
661.06	2301.71
661.26	2142.99
661.45	2174.53
661.65	2246.83
661.84	2055.96
662.03	1971.17
662.23	1969.12
662.42	2465.55
662.62	1945.57
662.81	1859.35
663.00	1906.25
663.20	2148.93
663.39	2197.47
663.59	2037.93
663.78	1934.51
663.97	2036.09
664.17	2234.54
664.36	1828.63
664.56	1893.76
664.75	2258.70
664.94	2251.54
665.14	2115.35
665.33	2149.75
665.53	2304.78
665.72	2306.83
665.91	2288.40
666.11	2194.19
666.30	2313.59
666.50	2203.82
666.69	2183.75
666.88	2031.99
667.08	2229.42
667.27	2180.27
667.47	2052.47
667.66	2007.01
667.85	2326.08
668.05	2184.57
668.24	1941.68
668.43	2192.35
668.63	2063.33
668.82	2361.51
669.02	2104.70
669.21	2037.32
669.40	1985.71
669.60	2515.11
669.79	1915.06
669.98	2650.48
670.18	2023.39
670.37	1968.30
670.56	2010.70
670.76	2101.22
670.95	2169.62
671.15	2353.94
671.34	2136.65
671.53	2134.60
671.73	2157.74
671.92	2109.41
672.11	2001.68
672.31	2030.77
672.50	2244.98
672.69	1978.34
672.89	1793.00
673.08	1995.13
673.27	2272.02
673.47	2157.33
673.66	2029.33
673.85	1916.28
674.05	2497.29
674.24	3095.71
674.43	3341.47
674.63	3937.22
674.82	4701.11
675.01	4074.43
675.21	3892.57
675.40	3480.11
675.59	3434.24
675.79	3657.88
675.98	3115.37
676.17	3180.91
676.37	3067.24
676.56	2792.61
676.75	2541.94
676.95	2424.39
677.14	2341.24
677.33	2505.48
677.52	2007.83
677.72	2024.01
677.91	2267.92
678.10	1932.05
678.30	1909.53
678.49	1896.01
678.68	2517.77
678.88	1844.40
679.07	2148.32
679.26	1961.34
679.45	2444.87
679.65	2377.49
679.84	1815.11
680.03	1837.03
680.23	2088.93
680.42	2562.42
680.61	1887.20
680.81	1949.67
681.00	2176.99
681.19	2248.67
681.38	2124.15
681.58	2077.25
681.77	2120.88
681.96	2323.22
682.15	2005.17
682.35	2144.63
682.54	2266.08
682.73	1993.70
682.93	1952.33
683.12	1913.21
683.31	2308.68
683.50	2628.36
683.70	1892.32
683.89	2037.11
684.08	1975.88
684.27	2318.30
684.47	1921.61
684.66	2022.78
684.85	2519.00
685.04	2336.12
685.24	1935.54
685.43	1959.29
685.62	1855.87
685.81	2281.85
686.01	2557.50
686.20	2776.43
686.39	3035.91
686.58	3837.48
686.78	3495.68
686.97	3338.19
687.16	3266.10
687.35	3071.75
687.55	2853.64
687.74	2907.30
687.93	2780.94
688.12	2846.88
688.32	2729.94
688.51	2430.94
688.70	2637.78
688.89	2273.25
689.08	2078.48
689.28	2126.20
689.47	2303.35
689.66	2264.03
689.85	2167.98
690.05	1988.58
690.24	2064.56
690.43	2231.26
690.62	2032.61
690.81	1943.52
691.01	2164.09
691.20	2082.17
691.39	1860.58
691.58	2039.98
691.77	2443.84
691.97	2188.87
692.16	2092.61
692.35	2013.36
692.54	2169.21
692.73	2505.89
692.93	2452.85
693.12	2558.32
693.31	2810.63
693.50	2729.53
693.69	2501.80
693.89	2335.71
694.08	2727.48
694.27	2742.84
694.46	2382.40
694.65	2339.19
694.85	2580.44
695.04	2573.07
695.23	2505.69
695.42	3586.61
695.61	4619.40
695.80	5203.48
696.00	5693.56
696.19	5908.59
696.38	5277.41
696.57	4549.36
696.76	4314.87
696.95	3951.56
697.15	4114.98
697.34	3866.36
697.53	3224.12
697.72	3137.90
697.91	2941.70
698.10	3038.37
698.30	2472.92
698.49	2319.12
698.68	2436.67
698.87	2280.82
699.06	2056.37
699.25	2083.60
699.45	2384.45
699.64	2202.80
699.83	2223.07
700.02	1979.77
700.21	2240.07
700.40	2054.52
700.59	1970.15
700.79	1992.06
700.98	2266.08
701.17	2031.99
701.36	1901.13
701.55	1954.58
701.74	2516.34
701.93	2724.00
702.12	3240.71
702.32	3526.40
702.51	4172.53
702.70	4260.18
702.89	3638.83
703.08	3199.95
703.27	3513.09
703.46	3268.15
703.65	2845.24
703.85	2682.84
704.04	2744.07
704.23	2929.41
704.42	2365.61
704.61	2258.09
704.80	2621.81
704.99	2179.45
705.18	2147.09
705.37	2222.66
705.57	3188.48
705.76	4495.50
705.95	4884.82
706.14	5836.51
706.33	6489.40
706.52	6442.50
706.71	5040.05
706.90	4526.42
707.09	4447.57
707.28	4177.04
707.47	3690.03
707.67	3646.00
707.86	3379.56
708.05	3438.13
708.24	2856.10
708.43	2662.36
708.62	2484.80
708.81	2276.93
709.00	2041.01
709.19	2028.92
709.38	2373.80
709.57	2069.06
709.76	2231.67
709.96	2179.65
710.15	2639.83
710.34	2434.42
710.53	2408.62
710.72	2207.71
710.91	2553.00
711.10	2381.38
711.29	2234.74
711.48	2150.16
711.67	2184.57
711.86	2419.47
712.05	2091.80
712.24	2088.52
712.43	2414.56
712.62	2488.69
712.81	2076.03
713.00	2239.45
713.19	2014.59
713.39	2301.10
713.58	2014.18
713.77	2237.82
713.96	2460.63
714.15	2342.26
714.34	2272.02
714.53	2084.22
714.72	2684.27
714.91	2260.55
715.10	2376.05
715.29	2242.73
715.48	2980.41
715.67	2591.09
715.86	2250.31
716.05	2184.77
716.24	2295.36
716.43	2197.47
716.62	2022.57
716.81	1988.99
717.00	2186.21
717.19	2520.23
717.38	2036.50
717.57	2042.64
717.76	1939.02
717.95	2316.46
718.14	2020.73
718.33	2002.50
718.52	1868.36
718.71	1917.92
718.90	1871.64
719.09	1920.38
719.28	2108.79
719.47	2373.80
719.66	2310.52
719.85	2435.65
720.04	2525.96
720.23	2648.02
720.42	2425.82
720.61	2453.88
720.80	2239.04
720.99	2436.26
721.18	2205.46
721.37	2114.53
721.56	2260.34
721.75	2419.68
721.94	2061.49
722.13	2089.13
722.32	2186.62
722.51	2333.87
722.70	2071.52
722.89	2116.58
723.08	2109.00
723.27	2319.94
723.46	2059.64
723.65	2005.78
723.84	2074.39
724.03	2348.61
724.22	1857.30
724.41	2005.58
724.60	2075.41
724.79	2279.59
724.98	2014.18
725.16	1932.67
725.35	2253.58
725.54	1998.61
725.73	2058.62
725.92	2149.96
726.11	2428.28
726.30	2858.55
726.49	2650.89
726.68	2827.63
726.87	3105.13
727.06	3179.27
727.25	2602.56
727.44	2642.29
727.63	2648.43
727.82	2573.68
728.01	2514.29
728.20	2500.16
728.38	2707.41
728.57	2396.53
728.76	2216.31
728.95	2308.27
729.14	2036.30
729.33	2035.27
729.52	1776.61
729.71	1922.22
729.90	2035.68
730.09	2203.41
730.28	2195.63
730.47	2291.06
730.66	2799.78
730.84	2679.56
731.03	2516.95
731.22	2444.05
731.41	2560.17
731.60	2519.41
731.79	2061.28
731.98	2163.88
732.17	2456.54
732.36	2407.18
732.55	2102.85
732.73	1984.07
732.92	2441.79
733.11	2314.41
733.30	1975.47
733.49	1917.72
733.68	2282.46
733.87	2272.02
734.06	2062.30
734.25	2417.83
734.43	2778.89
734.62	3124.38
734.81	3037.75
735.00	3028.74
735.19	2984.50
735.38	2891.12
735.57	2524.94
735.76	2729.33
735.94	3089.57
736.13	4070.75
736.32	4099.21
736.51	4434.26
736.70	5219.25
736.89	5326.15
737.08	4829.72
737.27	5725.10
737.45	7655.72
737.64	8099.31
737.83	8957.41
738.02	9315.60
738.21	8841.49
738.40	7382.11
738.59	6546.95
738.77	6078.37
738.96	5642.36
739.15	5314.07
739.34	4773.61
739.53	4359.10
739.72	4301.35
739.90	3892.98
740.09	3181.72
740.28	2999.25
740.47	2933.31
740.66	2773.56
740.85	2307.65
741.03	2267.51
741.22	2216.11
741.41	2338.37
741.60	2088.93
741.79	2321.99
741.98	2624.88
742.16	2742.23
742.35	2426.84
742.54	2612.18
742.73	3153.67
742.92	2835.21
743.10	2686.94
743.29	2755.13
743.48	3152.85
743.67	2547.88
743.86	2310.72
744.05	2293.32
744.23	2351.68
744.42	2298.23
744.61	2318.92
744.80	2071.93
744.99	2210.17
745.17	2013.77
745.36	1949.26
745.55	2120.06
745.74	2195.63
745.93	2059.44
746.11	1941.68
746.30	1898.67
746.49	2295.36
746.68	1973.83
746.86	2021.96
747.05	1967.07
747.24	2318.71
747.43	2386.50
747.62	2051.25
747.80	2134.19
747.99	2631.84
748.18	2548.29
748.37	2256.04
748.56	2289.63
748.74	2529.65
748.93	2438.93
749.12	2793.43
749.31	4183.39
749.49	5396.81
749.68	6103.97
749.87	6846.77
750.06	6969.65
750.24	7373.10
750.43	8001.82
750.62	8845.59
750.81	9623.00
750.99	10266.67
751.18	10193.15
751.37	8398.31
751.56	7191.65
751.74	7387.02
751.93	6878.92
752.12	5493.68
752.31	5027.15
752.49	4735.93
752.68	4652.37
752.87	3800.83
753.06	3408.23
753.24	3220.23
753.43	3146.09
753.62	2472.51
753.81	2361.31
753.99	2691.65
754.18	2464.32
754.37	2068.04
754.55	2115.35
754.74	2539.48
754.93	1951.92
755.12	2002.30
755.30	1914.44
755.49	2363.15
755.68	2194.60
755.86	2130.71
756.05	1909.32
756.24	2411.07
756.43	1936.15
756.61	1921.61
756.80	2016.43
756.99	2398.38
757.17	2139.92
757.36	1928.37
757.55	2004.35
757.74	2271.61
757.92	2161.43
758.11	1914.24
758.30	1820.85
758.48	2124.15
758.67	1961.13
758.86	2053.50
759.04	1924.68
759.23	2122.51
759.42	2154.26
759.60	1959.91
759.79	2000.66
759.98	2080.33
760.16	2015.00
760.35	1945.16
760.54	1890.89
760.73	2159.99
760.91	1947.62
761.10	1992.67
761.29	2084.22
761.47	2174.12
761.66	2581.67
761.85	2099.78
762.03	2482.34
762.22	4126.04
762.41	9030.52
762.59	14356.06
762.78	17109.35
762.97	20815.96
763.15	22242.78
763.34	19848.71
763.52	14689.67
763.71	13849.18
763.90	12703.14
764.08	11750.84
764.27	10854.03
764.46	10102.63
764.64	8872.21
764.83	7909.46
765.02	7048.29
765.20	6218.45
765.39	5242.19
765.58	3910.39
765.76	3359.69
765.95	3075.43
766.13	2775.00
766.32	2402.27
766.51	2269.76
766.69	2556.68
766.88	2416.19
767.07	1996.36
767.25	1864.47
767.44	2390.39
767.62	2431.14
767.81	1991.04
768.00	2058.21
768.18	2196.86
768.37	2147.30
768.56	1874.30
768.74	2005.78
768.93	1974.65
769.11	2248.06
769.30	2053.09
769.49	1982.23
769.67	2141.77
769.86	2087.29
770.04	1984.48
770.23	1967.69
770.42	2350.04
770.60	2148.52
770.79	1923.66
770.97	2060.67
771.16	3035.09
771.35	4444.30
771.53	5603.65
771.72	6428.16
771.90	7599.60
772.09	8087.43
772.27	7052.18
772.46	5464.60
772.65	5705.85
772.83	5251.61
773.02	4875.19
773.20	4441.02
773.39	4484.03
773.58	4154.10
773.76	3513.29
773.95	3309.72
774.13	3307.26
774.32	2898.49
774.50	2470.87
774.69	2354.96
774.87	2322.19
775.06	2643.93
775.25	1959.91
775.43	2008.24
775.62	2196.04
775.80	2276.32
775.99	2025.85
776.17	1986.94
776.36	2204.43
776.54	2407.59
776.73	2032.61
776.92	2112.27
777.10	2375.03
777.29	2260.34
777.47	1956.42
777.66	1984.89
777.84	2200.54
778.03	2144.43
778.21	1946.80
778.40	2086.06
778.58	2232.70
778.77	2358.85
778.95	1897.03
779.14	1969.74
779.32	2483.78
779.51	2311.54
779.70	1927.55
779.88	1839.90
780.07	2058.62
780.25	2563.03
780.44	1967.07
780.62	2065.38
780.81	2215.08
780.99	2184.57
781.18	1926.93
781.36	1916.49
781.55	2108.59
781.73	2394.08
781.92	1857.71
782.10	1860.37
782.29	2195.83
782.47	2349.43
782.66	1956.22
782.84	1827.40
783.03	2011.92
783.21	2333.66
783.40	1887.00
783.58	1904.00
783.77	2006.60
783.95	2087.29
784.14	1890.07
784.32	2027.08
784.51	2362.54
784.69	2085.86
784.88	1948.64
785.06	2070.70
785.24	2015.82
785.43	2385.47
785.61	2128.45
785.80	1985.92
785.98	2337.14
786.17	2237.82
786.35	1959.91
786.54	2137.26
786.72	2341.44
786.91	2337.55
787.09	2005.99
787.28	1889.87
787.46	2185.18
787.65	2319.12
787.83	1866.93
788.01	2040.80
788.20	2073.16
788.38	2309.90
788.57	2153.03
788.75	2148.52
788.94	2634.51
789.12	2502.62
789.31	2152.42
789.49	2210.37
789.67	2157.33
789.86	2327.72
790.04	2038.34
790.23	1966.05
790.41	2647.00
790.60	2263.21
790.78	2078.07
790.96	2112.68
791.15	2381.99
791.33	2190.92
791.52	2063.94
791.70	1933.28
791.89	2175.76
792.07	2320.55
792.25	2041.62
792.44	1883.52
792.62	2352.91
792.81	2117.80
792.99	2019.30
793.17	1998.41
793.36	2103.06
793.54	2832.34
793.73	3563.47
793.91	4707.05
794.10	5680.04
794.28	6453.97
794.46	6409.32
794.65	6238.52
794.83	5059.30
795.01	4842.01
795.20	4617.15
795.38	4367.70
795.57	4310.36
795.75	4094.30
795.93	3647.64
796.12	3427.69
796.30	3491.79
796.49	3304.60
796.67	2732.40
796.85	2737.93
797.04	2645.98
797.22	2555.46
797.40	2117.39
797.59	2177.40
797.77	2313.39
797.96	2115.96
798.14	1986.73
798.32	2023.80
798.51	2317.69
798.69	2539.48
798.87	2033.84
799.06	2005.37
799.24	1990.22
799.42	2654.99
799.61	3196.06
799.79	3703.75
799.98	4621.24
800.16	4820.71
800.34	6017.34
800.53	7512.56
800.71	8060.60
800.89	9559.10
801.08	9604.97
801.26	9575.28
801.44	8028.24
801.63	6712.22
801.81	6540.39
801.99	5916.79
802.18	5653.21
802.36	5440.02
802.54	4944.00
802.73	4292.34
802.91	4167.41
803.09	3835.03
803.28	3502.85
803.46	3194.01
803.64	3295.18
803.83	2592.73
804.01	2355.37
804.19	2192.76
804.38	2560.78
804.56	2487.87
804.74	2231.26
804.92	2209.14
805.11	2172.69
805.29	2471.49
805.47	2076.03
805.66	2015.61
805.84	2091.18
806.02	2424.59
806.21	2043.46
806.39	2284.71
806.57	2431.14
806.76	2366.63
806.94	2155.69
807.12	2091.80
807.30	2217.75
807.49	2377.69
807.67	2290.86
807.85	2349.43
808.04	2478.25
808.22	2706.80
808.40	2030.15
808.58	1973.63
808.77	2370.32
808.95	2625.50
809.13	2904.84
809.31	5164.77
809.50	7609.43
809.68	8863.81
809.86	9909.10
810.05	10810.41
810.23	11872.28
810.41	15365.50
810.59	24203.71
810.78	29536.42
810.96	34417.14
811.14	37151.59
811.32	36255.40
811.51	28975.89
811.69	23379.61
811.87	23070.98
812.05	20057.19
812.24	18826.36
812.42	17382.34
812.60	15622.32
812.78	13074.23
812.97	11242.32
813.15	10173.90
813.33	8689.12
813.51	7381.90
813.70	5912.08
813.88	4917.38
814.06	4100.85
814.24	3297.64
814.42	2672.19
814.61	2732.20
814.79	2811.45
814.97	2097.12
815.15	2125.38
815.34	2317.89
815.52	2405.95
815.70	1953.15
815.88	2053.50
816.06	2046.13
816.25	2109.61
816.43	1990.83
816.61	2133.78
816.79	2477.43
816.98	2017.45
817.16	1977.11
817.34	2038.55
817.52	2336.53
817.70	2551.56
817.89	2116.99
818.07	1970.56
818.25	2167.16
818.43	2240.07
818.61	2038.14
818.80	1980.39
818.98	2476.81
819.16	2186.82
819.34	1910.35
819.52	2267.92
819.70	2019.91
819.89	2123.54
820.07	1834.57
820.25	1833.96
820.43	2172.69
820.61	2273.86
820.80	1980.39
820.98	1864.27
821.16	1876.96
821.34	1907.89
821.52	1937.58
821.70	2052.47
821.89	2128.86
822.07	2064.15
822.25	2000.05
822.43	1912.80
822.61	2345.74
822.79	2170.85
822.98	1938.81
823.16	1802.83
823.34	2152.42
823.52	2336.94
823.70	1994.31
823.88	1811.22
824.06	2253.99
824.25	2090.77
824.43	2085.24
824.61	1981.20
824.79	2218.56
824.97	2303.96
825.15	2338.78
825.33	2959.52
825.52	3943.57
825.70	4349.48
825.88	4580.28
826.06	4997.25
826.24	5209.01
826.42	4706.85
826.60	3860.63
826.78	3898.92
826.97	3651.94
827.15	3802.87
827.33	3219.20
827.51	3163.91
827.69	3039.80
827.87	3027.92
828.05	2749.19
828.23	2491.76
828.41	2780.73
828.60	2626.32
828.78	2144.63
828.96	2261.16
829.14	2164.09
829.32	2167.37
829.50	2003.73
829.68	1975.88
829.86	2063.94
830.04	2256.04
830.22	2072.13
830.41	1881.26
830.59	2098.96
830.77	2203.61
830.95	1906.66
831.13	1922.22
831.31	1978.13
831.49	2260.96
831.67	2094.66
831.85	2106.13
832.03	2055.96
832.21	2249.08
832.39	1881.67
832.57	1914.03
832.76	2331.41
832.94	2122.31
833.12	1816.55
833.30	1975.27
833.48	2329.15
833.66	2194.19
833.84	1930.21
834.02	1994.11
834.20	2290.65
834.38	2263.82
834.56	1814.30
834.74	1875.53
834.92	1930.21
835.10	2451.01
835.28	1982.43
835.46	1996.56
835.64	2076.64
835.82	2016.63
836.01	2230.03
836.19	2164.09
836.37	2062.92
836.55	1966.66
836.73	1877.78
836.91	1844.61
837.09	2220.82
837.27	2370.73
837.45	1855.25
837.63	1890.68
837.81	1966.25
837.99	2180.68
838.17	2112.89
838.35	2051.04
838.53	2706.60
838.71	2419.06
838.89	2140.13
839.07	2115.55
839.25	2349.43
839.43	2506.92
839.61	2647.61
839.79	4178.47
839.97	6023.49
840.15	6941.39
840.33	7614.35
840.51	8094.80
840.69	7914.78
840.87	6529.33
841.05	5759.30
841.23	6268.83
841.41	7995.68
841.59	11073.57
841.77	12360.72
841.95	13521.51
842.13	14542.01
842.31	13814.57
842.49	11090.16
842.67	9310.68
842.85	9321.53
843.03	8089.07
843.21	7546.56
843.39	7064.47
843.57	6508.24
843.75	5901.63
843.93	4944.62
844.11	4500.82
844.29	4256.29
844.47	3858.78
844.65	3627.57
844.83	3214.29
845.01	2996.18
845.19	2914.26
845.36	2449.17
845.54	2297.41
845.72	2338.17
845.90	2349.02
846.08	1979.36
846.26	2041.21
846.44	2239.04
846.62	2228.39
846.80	2060.67
846.98	1889.66
847.16	2077.66
847.34	2143.61
847.52	1879.22
847.70	1805.49
847.88	2082.17
848.06	2366.63
848.24	2045.31
848.41	1859.35
848.59	2290.65
848.77	2169.82
848.95	1925.50
849.13	1914.44
849.31	2226.96
849.49	2140.95
849.67	1857.51
849.85	1825.35
850.03	2150.37
850.21	2148.93
850.39	1851.36
850.57	2052.68
850.74	2355.37
850.92	2443.02
851.10	2626.11
851.28	3110.45
851.46	3740.41
851.64	4387.16
851.82	3991.70
852.00	4096.35
852.18	3983.30
852.36	3517.59
852.53	3161.65
852.71	3107.79
852.89	3199.34
853.07	3102.67
853.25	2685.09
853.43	2525.35
853.61	2693.28
853.79	2619.97
853.97	2244.57
854.14	2208.94
854.32	2608.09
854.50	2414.56
854.68	2093.02
854.86	2018.68
855.04	2070.70
855.22	2304.78
855.40	1818.60
855.57	1893.35
855.75	2273.45
855.93	2187.23
856.11	1801.19
856.29	1900.52
856.47	2010.70
856.65	2128.86
856.82	1829.04
857.00	1827.81
857.18	2102.04
857.36	2042.44
857.54	1987.14
857.72	2031.38
857.89	2214.26
858.07	2117.60
858.25	2105.72
858.43	1820.03
858.61	2058.82
858.79	2080.53
858.97	1842.56
859.14	1969.74
859.32	2053.29
859.50	2054.32
859.68	2046.54
859.86	1976.09
860.03	2207.10
860.21	2329.77
860.39	2024.62
860.57	2175.15
860.75	2242.12
860.93	2513.06
861.10	2213.85
861.28	1952.53
861.46	2256.66
861.64	2300.28
861.82	2048.99
861.99	2120.26
862.17	2325.26
862.35	2314.41
862.53	2005.78
862.71	1985.51
862.88	2186.00
863.06	2225.32
863.24	1939.22
863.42	1894.78
863.60	2075.00
863.77	2208.94
863.95	1774.97
864.13	1888.02
864.31	2041.42
864.49	2197.06
864.66	1804.47
864.84	1853.62
865.02	2096.10
865.20	2548.49
865.37	1991.24
865.55	1864.47
865.73	1965.64
865.91	2373.19
866.09	2299.05
866.26	2276.93
866.44	2617.51
866.62	2448.96
866.80	2152.21
866.97	2167.98
867.15	2314.61
867.33	2357.42
867.51	2193.99
867.68	2141.56
867.86	2185.80
868.04	2117.19
868.22	1839.08
868.39	1966.46
868.57	2223.27
868.75	2377.08
868.93	1839.49
869.10	1890.68
869.28	2451.21
869.46	2349.63
869.64	1936.15
869.81	1903.38
869.99	2141.15
870.17	2137.06
870.35	1829.66
870.52	1899.70
870.70	2270.17
870.88	1998.61
871.05	1857.51
871.23	1751.22
871.41	2079.92
871.59	2090.57
871.76	1866.31
871.94	1816.75
872.12	2079.71
872.29	1870.82
872.47	1879.42
872.65	1825.97
872.83	2165.93
873.00	2328.54
873.18	1945.37
873.36	1892.94
873.53	2218.77
873.71	1901.33
873.89	1803.24
874.06	1930.01
874.24	2153.03
874.42	2320.96
874.60	2070.70
874.77	1972.81
874.95	1967.69
875.13	2285.53
875.30	1933.28
875.48	1913.21
875.66	2435.85
875.83	2026.47
876.01	1938.40
876.19	2073.77
876.36	1931.03
876.54	2115.35
876.72	1863.45
876.89	2024.01
877.07	2230.65
877.25	1836.21
877.42	1946.80
877.60	1913.62
877.78	2387.32
877.95	2042.23
878.13	1807.95
878.31	2029.13
878.48	2243.14
878.66	2190.51
878.84	1876.55
879.01	1920.59
879.19	2202.18
879.37	2187.85
879.54	1933.08
879.72	1795.66
879.90	1802.21
880.07	2227.78
880.25	1671.96
880.42	2036.91
880.60	2138.28
880.78	2212.83
880.95	1867.54
881.13	1947.62
881.31	2069.68
881.48	2013.56
881.66	1836.41
881.83	1993.49
882.01	1956.01
882.19	1856.28
882.36	1916.08
882.54	1858.33
882.72	2184.36
882.89	2116.99
883.07	1819.21
883.24	1859.76
883.42	2222.66
883.60	2121.70
883.77	1818.19
883.95	1960.11
884.12	2345.74
884.30	2260.75
884.48	2153.03
884.65	2107.97
884.83	2298.44
885.00	2279.18
885.18	1891.50
885.36	1968.71
885.53	2265.46
885.71	2382.81
885.88	1847.68
886.06	1918.95
886.23	2235.77
886.41	2071.32
886.59	1892.32
886.76	1848.09
886.94	2181.09
887.11	2577.16
887.29	1916.90
887.47	1822.49
887.64	2292.29
887.82	2345.13
887.99	1725.82
888.17	1909.53
888.34	2028.72
888.52	1885.16
888.69	1855.46
888.87	1783.78
889.05	2018.27
889.22	2020.12
889.40	1886.59
889.57	2091.39
889.75	2357.01
889.92	2012.74
890.10	1810.20
890.27	1929.19
890.45	1973.42
890.62	1792.38
890.80	1774.56
890.98	1680.97
891.15	2337.96
891.33	2209.14
891.50	1823.10
891.68	1733.61
891.85	2204.02
892.03	2188.25
892.20	1799.55
892.38	1806.31
892.55	2212.83
892.73	2194.19
892.90	1737.70
893.08	1851.98
893.25	2019.09
893.43	2000.87
893.60	1931.23
893.78	1709.44
893.95	2146.89
894.13	2079.51
894.30	1812.04
894.48	1870.41
894.65	2223.48
894.83	2101.22
895.00	1697.97
895.18	1704.73
895.35	2208.73
895.53	2205.05
895.70	1797.91
895.88	2042.03
896.05	2196.86
896.23	1891.91
896.40	1904.82
896.58	1929.80
896.75	2201.98
896.93	2337.76
897.10	1901.33
897.28	1765.76
897.45	2096.30
897.63	2188.05
897.80	1967.07
897.98	1855.46
898.15	2179.65
898.33	1998.00
898.50	1903.38
898.67	1871.43
898.85	2039.98
899.02	2184.77
899.20	2125.79
899.37	1900.92
899.55	2110.23
899.72	2332.02
899.90	1844.20
900.07	1836.62
900.25	2187.03
900.42	2264.85
900.59	1840.71
900.77	1943.93
900.94	2168.18
901.12	2157.94
901.29	1885.56
901.47	2006.39
901.64	2171.05
901.82	2043.46
901.99	1654.76
902.16	1808.56
902.34	2287.58
902.51	2085.24
902.69	1847.06
902.86	1885.97
903.03	2686.94
903.21	2076.23
903.38	1846.04
903.56	1800.57
903.73	2233.72
903.91	2009.26
904.08	1797.30
904.25	1695.92
904.43	1942.91
904.60	2216.31
904.78	1879.83
904.95	1810.20
905.12	2033.84
905.30	2381.79
905.47	2009.06
905.65	2080.12
905.82	2159.17
905.99	2271.20
906.17	2001.89
906.34	1977.11
906.52	2091.39
906.69	2341.03
906.86	2117.60
907.04	2079.71
907.21	2395.51
907.38	2365.81
907.56	1924.27
907.73	1885.97
907.91	2360.90
908.08	2300.48
908.25	1930.42
908.43	1798.94
908.60	2197.27
908.77	2155.08
908.95	1900.72
909.12	1840.10
909.30	2235.97
909.47	1871.23
909.64	1915.47
909.82	2072.13
909.99	2053.09
910.16	2115.35
910.34	1838.67
910.51	1836.21
910.68	2124.77
910.86	2091.80
911.03	1870.82
911.20	2265.46
911.38	3640.88
911.55	5263.69
911.72	5816.64
911.90	6344.40
912.07	6961.86
912.24	6926.03
912.42	5354.00
912.59	4091.84
912.76	4163.52
912.94	3550.77
913.11	3107.79
913.28	2783.80
913.46	2795.89
913.63	2912.21
913.80	2903.00
913.98	2458.79
914.15	2812.27
914.32	2823.53
914.49	2457.15
914.67	2242.32
914.84	2520.84
915.01	2653.55
915.19	2337.55
915.36	2157.54
915.53	2489.92
915.71	2324.24
915.88	2071.93
916.05	1914.85
916.22	2300.28
916.40	2154.46
916.57	1778.46
916.74	2044.28
916.92	2351.89
917.09	1920.79
917.26	1813.48
917.43	1796.48
917.61	2050.63
917.78	1823.92
917.95	1813.68
918.13	1813.89
918.30	2465.14
918.47	2114.32
918.64	1844.40
918.82	1860.78
918.99	2187.85
919.16	2546.65
919.33	2102.44
919.51	2091.18
919.68	2265.26
919.85	2453.88
920.02	1901.74
920.20	1954.79
920.37	2438.93
920.54	2266.90
920.71	1882.49
920.89	1900.31
921.06	2406.98
921.23	1967.69
921.40	1970.56
921.58	2401.04
921.75	3355.39
921.92	2855.28
922.09	2905.25
922.27	2875.14
922.44	2980.00
922.61	2769.26
922.78	2260.34
922.96	2202.59
923.13	2272.02
923.30	2456.13
923.47	1966.05
923.64	1988.37
923.82	2305.60
923.99	2283.49
924.16	2101.22
924.33	1896.01
924.50	2209.76
924.68	2435.65
924.85	1883.11
925.02	1963.18
925.19	2289.42
925.36	2193.99
925.54	1962.36
925.71	1995.95
925.88	2666.86
926.05	2051.66
926.22	1859.76
926.40	1985.30
926.57	2170.85
926.74	2206.69
926.91	1845.83
927.08	2038.55
927.26	2240.89
927.43	2087.49
927.60	1830.88
927.77	1893.14
927.94	2366.63
928.11	2287.58
928.29	1748.15
928.46	1940.45
928.63	1988.78
928.80	2079.92
928.97	1973.42
929.14	1850.34
929.32	2470.26
929.49	2115.35
929.66	1852.39
929.83	1769.04
930.00	1995.75
930.17	2155.49
930.35	1797.30
930.52	1837.64
930.69	2358.03
930.86	1882.08
931.03	1904.41
931.20	1670.53
931.37	2265.26
931.55	2059.23
931.72	1905.43
931.89	1777.43
932.06	1889.25
932.23	2350.66
932.40	1955.81
932.57	1994.11
932.74	2303.76
932.92	2317.48
933.09	2020.12
933.26	1601.51
933.43	1990.22
933.60	2129.07
933.77	1888.23
933.94	1952.74
934.11	2065.17
934.29	2112.27
934.46	1790.54
934.63	1960.32
934.80	1892.32
934.97	2111.25
935.14	1937.79
935.31	1779.89
935.48	1998.20
935.65	2153.44
935.82	1924.89
936.00	1776.00
936.17	2349.84
936.34	2061.49
936.51	1951.10
936.68	1780.09
936.85	2125.59
937.02	2150.98
937.19	1970.97
937.36	1865.49
937.53	2182.32
937.70	2229.83
937.87	1836.62
938.05	2002.30
938.22	2119.24
938.39	1936.56
938.56	1852.39
938.73	1773.75
938.90	2020.73
939.07	1959.09
939.24	1946.59
939.41	1716.61
939.58	2118.83
939.75	2165.93
939.92	1838.05
940.09	2132.75
940.26	2029.54
940.43	2227.17
940.60	1891.09
940.77	1885.36
940.95	2159.79
941.12	2206.69
941.29	1868.16
941.46	1898.06
941.63	2307.24
941.80	2332.64
941.97	1729.30
942.14	1726.64
942.31	2184.57
942.48	2047.15
942.65	1962.36
942.82	1902.15
942.99	2179.45
943.16	2067.63
943.33	1762.69
943.50	1832.11
943.67	2213.65
943.84	2303.15
944.01	1838.67
944.18	1818.39
944.35	2313.18
944.52	1932.87
944.69	1916.08
944.86	1773.13
945.03	2223.07
945.20	2513.47
945.37	1739.14
945.54	1945.16
945.71	2347.38
945.88	2414.56
946.05	1843.38
946.22	1793.82
946.39	2334.68
946.56	2086.47
946.73	1704.32
946.90	1799.55
947.07	2003.12
947.24	2054.93
947.41	1706.57
947.58	1982.23
947.75	2226.55
947.92	2125.18
948.09	1657.83
948.26	1730.74
948.43	2090.77
948.60	2397.35
948.77	1803.85
948.94	1861.19
949.11	2209.55
949.27	2136.44
949.44	1820.64
949.61	1756.34
949.78	2119.85
949.95	2241.50
950.12	1727.46
950.29	1707.39
950.46	1984.69
950.63	2230.85
950.80	1781.53
950.97	1847.27
951.14	2234.95
951.31	2006.19
951.48	1780.50
951.65	1723.16
951.82	2393.46
951.99	2106.54
952.15	1732.38
952.32	1837.85
952.49	1953.56
952.66	2022.57
952.83	1799.75
953.00	1766.99
953.17	2062.10
953.34	2205.05
953.51	1912.80
953.68	1868.57
953.85	2259.93
954.02	2238.63
954.18	1896.42
954.35	1848.70
954.52	1925.50
954.69	2086.68
954.86	1691.62
955.03	1873.07
955.20	2220.20
955.37	2020.32
955.54	1819.42
955.71	1795.86
955.87	2147.09
956.04	2391.00
956.21	1831.29
956.38	1769.45
956.55	2081.56
956.72	2513.68
956.89	1866.11
957.06	1779.89
957.23	1968.51
957.39	2280.00
957.56	1841.12
957.73	1762.28
957.90	1718.66
958.07	2404.32
958.24	1861.19
958.41	1851.16
958.57	2197.06
958.74	2044.90
958.91	1760.43
959.08	1799.55
959.25	2169.00
959.42	2056.78
959.59	1854.23
959.75	1859.35
959.92	2276.32
960.09	2238.43
960.26	1785.01
960.43	1893.14
960.60	2110.43
960.76	2046.94
960.93	1708.62
961.10	1892.73
961.27	2238.84
961.44	2036.09
961.61	1731.76
961.77	1721.73
961.94	2099.78
962.11	2216.11
962.28	1804.06
962.45	1733.81
962.62	2029.74
962.78	2211.19
962.95	1708.01
963.12	1796.07
963.29	2186.00
963.46	2552.38
963.62	1886.38
963.79	1792.79
963.96	2503.23
964.13	2022.78
964.30	1914.03
964.46	1846.65
964.63	1933.08
964.80	2572.25
964.97	1782.35
965.14	2152.62
965.30	2410.66
965.47	2491.76
965.64	2296.59
965.81	2190.10
965.98	2546.24
966.14	2312.98
966.31	1945.16
966.48	1920.59
966.65	2399.20
966.81	2249.49
966.98	1946.59
967.15	1914.24
967.32	2133.78
967.49	2015.41
967.65	1767.40
967.82	1729.51
967.99	2112.07
968.16	1882.08
968.32	2050.43
968.49	1849.32
968.66	2081.35
968.83	2385.88
968.99	1982.64
969.16	1804.47
969.33	2344.51
969.50	2209.76
969.66	1964.62
969.83	2115.96
970.00	2230.65
970.17	2158.15
970.33	1851.16
970.50	1724.18
970.67	2342.06
970.84	2319.94
971.00	1774.97
971.17	1724.39
971.34	2232.49
971.50	2092.61
971.67	1929.39
971.84	1837.64
972.01	1882.70
972.17	1723.57
972.34	1736.47
972.51	1995.13
972.67	2270.79
972.84	2141.56
973.01	1782.76
973.18	1792.79
973.34	2246.83
973.51	1920.18
973.68	1841.74
973.84	1862.83
974.01	2016.43
974.18	2357.62
974.34	1894.78
974.51	1925.50
974.68	1952.12
974.85	2402.47
975.01	1939.22
975.18	1844.40
975.35	2072.75
975.51	1888.23
975.68	1703.71
975.85	1989.19
976.01	1981.82
976.18	2305.81
976.35	1831.50
976.51	1864.06
976.68	2361.31
976.85	2268.33
977.01	1852.80
977.18	1914.44
977.35	2150.16
977.51	1898.26
977.68	1669.50
977.85	1785.83
978.01	2312.98
978.18	2215.29
978.35	1952.53
978.51	1919.36
978.68	2279.59
978.85	2349.02
979.01	1911.98
979.18	1888.64
979.34	2049.61
979.51	2112.27
979.68	1787.26
979.84	1907.48
980.01	2514.70
980.18	2132.75
980.34	1803.03
980.51	1907.27
980.67	2215.70
980.84	2217.95
981.01	1821.67
981.17	1910.35
981.34	1827.20
981.51	2193.17
981.67	1759.41
981.84	1906.86
982.00	2177.81
982.17	2032.61
982.34	1678.52
982.50	1581.85
982.67	2357.83
982.83	1988.58
983.00	1732.58
983.17	1594.55
983.33	2254.20
983.50	1827.81
983.66	1712.92
983.83	1602.74
984.00	1969.33
984.16	2076.23
984.33	1616.26
984.49	1603.35
984.66	1921.61
984.83	2213.24
984.99	1666.64
985.16	1609.09
985.32	2167.98
985.49	2195.63
985.65	1753.88
985.82	1616.67
985.99	2310.72
986.15	2089.95
986.32	1747.33
986.48	1664.38
986.65	1991.04
986.81	2169.62
986.98	1604.17
987.14	1702.27
987.31	2083.40
987.48	1820.23
987.64	1553.18
987.81	1595.78
987.97	2438.11
988.14	1933.69
988.30	1648.82
988.47	1484.37
988.63	2120.47
988.80	1906.25
988.96	1708.01
989.13	1729.51
989.30	2030.36
989.46	2208.53
989.63	1559.73
989.79	1604.17
989.96	2038.75
990.12	2291.68
990.29	1650.46
990.45	1677.49
990.62	2070.29
990.78	2293.73
990.95	1750.60
991.11	1661.93
991.28	1973.42
991.44	2110.02
991.61	1541.30
991.77	1730.53
991.94	2102.85
992.10	2247.44
992.27	1673.60
992.43	1669.50
992.60	2137.06
992.76	1996.16
992.93	1854.44
993.09	1589.22
993.26	2235.77
993.42	2380.15
993.59	1646.16
993.75	1568.95
993.92	1945.78
994.08	1920.59
994.25	1703.30
994.41	1610.93
994.58	2178.01
994.74	2331.82
994.91	1598.03
995.07	1734.42
995.24	2060.05
995.40	2025.03
995.56	1797.71
995.73	1750.81
995.89	2368.27
996.06	2030.15
996.22	1612.57
996.39	1559.73
996.55	2049.40
996.72	2122.11
996.88	1583.08
997.05	1609.29
997.21	2381.58
997.37	2162.45
997.54	1752.45
997.70	1669.71
997.87	2099.99
998.03	2059.23
998.20	1570.18
998.36	1564.44
998.52	2188.66
998.69	2217.54
998.85	1572.64
999.02	1641.65
999.18	2203.61
999.35	2233.72
999.51	1712.92
999.67	1689.98
999.84	1880.65
1000.00	2190.10
1000.17	1730.12
1000.33	1625.88
1000.49	1994.93
1000.66	2039.57
1000.82	1619.74
1000.99	1692.85
1001.15	2242.94
1001.31	2037.11
1001.48	1693.06
1001.64	1726.44
1001.81	2018.89
1001.97	2422.54
1002.13	1687.94
1002.30	1685.07
1002.46	2313.59
1002.63	2007.01
1002.79	1752.86
1002.95	1643.09
1003.12	2243.96
1003.28	2147.91
1003.45	1625.06
1003.61	1601.51
1003.77	2088.52
1003.94	1856.69
1004.10	1645.95
1004.26	1728.69
1004.43	2188.05
1004.59	2375.03
1004.75	1680.77
1004.92	1636.74
1005.08	2005.17
1005.25	2125.38
1005.41	1683.84
1005.57	1737.70
1005.74	2289.22
1005.90	2019.91
1006.06	1773.75
1006.23	1660.29
1006.39	2202.18
1006.55	2532.52
1006.72	1807.13
1006.88	1601.51
1007.04	1941.88
1007.21	2056.57
1007.37	1688.96
1007.53	1662.13
1007.70	2335.50
1007.86	2209.55
1008.02	1752.04
1008.19	1616.46
1008.35	2101.83
1008.51	1920.79
1008.68	1661.93
1008.84	1603.35
1009.00	1935.13
1009.17	2297.82
1009.33	1828.43
1009.49	1766.17
1009.65	1953.56
1009.82	2155.49
1009.98	1729.71
1010.14	1566.08
1010.31	2196.86
1010.47	2149.96
1010.63	1726.85
1010.80	1712.92
1010.96	2163.88
1011.12	2012.54
1011.28	1682.61
1011.45	1651.48
1011.61	2547.26
1011.77	1906.04
1011.94	1642.68
1012.10	1635.30
1012.26	1905.02
1012.42	1982.02
1012.59	1732.17
1012.75	1681.79
1012.91	2042.64
1013.07	2221.02
1013.24	1619.94
1013.40	1628.75
1013.56	2087.70
1013.72	2048.99
1013.89	1689.78
1014.05	1730.33
1014.21	2397.15
1014.37	2472.72
1014.54	1718.04
1014.70	1606.63
1014.86	1999.02
1015.02	1878.81
1015.19	1648.41
1015.35	1618.51
1015.51	2026.47
1015.67	2000.66
1015.84	1654.55
1016.00	1676.88
1016.16	2252.97
1016.32	2180.06
1016.49	1640.22
1016.65	1605.81
1016.81	2021.55
1016.97	2162.25
1017.14	1767.81
1017.30	1653.73
1017.46	2001.89
1017.62	2093.64
1017.78	1708.62
1017.95	1638.17
1018.11	2215.90
1018.27	2488.90
1018.43	1822.49
1018.59	1720.29
1018.76	2209.76
1018.92	2553.00
1019.08	1608.47
1019.24	1688.35
1019.40	2304.58
1019.57	2099.99
1019.73	1785.62
1019.89	1649.84
1020.05	2114.94
1020.21	2419.27
1020.38	1622.81
1020.54	1792.38
1020.70	2162.66
1020.86	2171.26
1021.02	1663.77
1021.18	1641.04
1021.35	1969.94
1021.51	2159.38
1021.67	1826.99
1021.83	1708.01
1021.99	2053.29
1022.15	2105.72
1022.32	1721.93
1022.48	1700.22
1022.64	2286.97
1022.80	2337.14
1022.96	1723.78
1023.12	1596.80
1023.29	2245.80
1023.45	2129.68
1023.61	1649.43
1023.77	1864.27
1023.93	2088.31
1024.09	1953.76
1024.25	1643.09
1024.42	1575.50
1024.58	1985.51
1024.74	2139.72
1024.90	1674.62
1025.06	1739.75
1025.22	1987.35
1025.38	2357.62
1025.54	1607.04
1025.71	1756.75
1025.87	2176.58
1026.03	2174.33
1026.19	1620.15
1026.35	1842.97
1026.51	2173.30
1026.67	2053.09
1026.83	1711.69
1026.99	1800.57
1027.16	2154.26
1027.32	2085.86
1027.48	1689.37
1027.64	1643.49
1027.80	2182.52
1027.96	2102.44
1028.12	1686.71
1028.28	1643.09
1028.44	2120.47
1028.60	2319.94
1028.77	1809.79
1028.93	1705.14
1029.09	2021.75
1029.25	1914.85
1029.41	1717.02
1029.57	1778.25
1029.73	2127.02
1029.89	2288.61
1030.05	1782.55
1030.21	1754.09
1030.37	2488.08
1030.53	2153.03
1030.69	1705.14
1030.85	1602.95
1031.02	1929.60
1031.18	2065.17
1031.34	1671.55
1031.50	1767.60
1031.66	1963.18
1031.82	2306.22
1031.98	1705.14
1032.14	1610.73
1032.30	1913.83
1032.46	2177.61
1032.62	1792.38
1032.78	1596.19
1032.94	1997.59
1033.10	2010.70
1033.26	1747.12
1033.42	1817.98
1033.58	2481.32
1033.74	1986.53
1033.90	1654.55
1034.06	1841.12
1034.22	2454.49
1034.38	2251.54
1034.54	1729.71
1034.70	1708.62
1034.86	2401.65
>>>>>End Processed Spectral Data<<<<<
