SpectraSuite Data File
++++++++++++++++++++++++++++++++++++
Date: Thu Mar 30 16:26:55 PDT 2017
User: UCSD _CER
Dark Spectrum Present: No
Reference Spectrum Present: No
Number of Sampled Component Spectra: 1
Spectrometers: USB4C00073
Integration Time (usec): 250000 (USB4C00073)
Spectra Averaged: 10 (USB4C00073)
Boxcar Smoothing: 0 (USB4C00073)
Correct for Electrical Dark: No (USB4C00073)
Strobe/Lamp Enabled: No (USB4C00073)
Correct for Detector Non-linearity: No (USB4C00073)
Correct for Stray Light: No (USB4C00073)
Number of Pixels in Processed Spectrum: 3648
>>>>>Begin Processed Spectral Data<<<<<
345.37	1292.06
345.58	1292.06
345.80	1292.06
346.01	1263.80
346.22	1277.11
346.43	1974.86
346.65	1787.26
346.86	2150.57
347.07	2094.66
347.28	1821.05
347.50	1788.90
347.71	1932.87
347.92	1709.44
348.13	1784.19
348.35	1725.62
348.56	1930.82
348.77	1772.31
348.98	1832.52
349.20	1681.18
349.41	1932.26
349.62	1973.01
349.83	1842.76
350.05	1760.84
350.26	1959.09
350.47	2080.94
350.68	1784.80
350.90	1728.28
351.11	2097.53
351.32	2077.66
351.53	1805.69
351.75	1724.18
351.96	1955.20
352.17	1909.94
352.38	1853.41
352.60	1858.94
352.81	1923.45
353.02	2132.14
353.23	1758.39
353.44	1824.94
353.66	1829.86
353.87	1860.37
354.08	1915.06
354.29	1812.66
354.51	1828.84
354.72	1887.41
354.93	1759.82
355.14	1725.21
355.35	1751.42
355.57	2028.72
355.78	1793.20
355.99	1889.46
356.20	1930.21
356.42	1906.66
356.63	1902.77
356.84	1854.03
357.05	2019.30
357.26	2223.89
357.48	1884.95
357.69	1839.90
357.90	1942.50
358.11	1853.00
358.32	1812.04
358.54	1848.09
358.75	1859.97
358.96	1994.31
359.17	1786.24
359.38	1782.55
359.60	1996.77
359.81	1920.59
360.02	1806.51
360.23	1765.55
360.44	1836.41
360.66	2017.45
360.87	1757.36
361.08	1743.03
361.29	1963.80
361.50	1899.70
361.72	1771.29
361.93	1853.21
362.14	1923.66
362.35	1735.24
362.56	1903.79
362.77	1743.23
362.99	1992.26
363.20	1912.39
363.41	1872.87
363.62	1701.66
363.83	1960.32
364.05	2034.45
364.26	1710.05
364.47	1771.90
364.68	2061.69
364.89	1810.61
365.10	1727.67
365.32	1815.32
365.53	1809.99
365.74	1872.66
365.95	1788.29
366.16	1674.83
366.37	1888.02
366.59	1894.17
366.80	1795.86
367.01	1680.97
367.22	2154.46
367.43	2298.44
367.64	1802.62
367.86	1794.23
368.07	1963.80
368.28	2091.59
368.49	1748.97
368.70	1829.45
368.91	1850.13
369.12	1903.38
369.34	1722.75
369.55	1728.28
369.76	1889.66
369.97	1851.77
370.18	1736.06
370.39	1743.03
370.60	1738.73
370.82	1777.02
371.03	1790.95
371.24	1756.34
371.45	1987.35
371.66	1994.31
371.87	1789.11
372.08	1761.66
372.30	1777.23
372.51	1979.77
372.72	1872.46
372.93	1759.00
373.14	2096.92
373.35	1827.61
373.56	1740.98
373.78	1812.04
373.99	1989.60
374.20	2265.46
374.41	1800.98
374.62	1818.39
374.83	2092.41
375.04	1864.68
375.25	1789.52
375.47	1790.13
375.68	1879.01
375.89	1996.56
376.10	1816.55
376.31	1904.20
376.52	1954.58
376.73	1946.59
376.94	1813.68
377.15	1793.00
377.37	1922.22
377.58	1884.75
377.79	1680.36
378.00	1764.12
378.21	1948.85
378.42	1973.01
378.63	1843.17
378.84	1848.29
379.05	2037.52
379.27	1911.16
379.48	1904.61
379.69	1753.88
379.90	2039.78
380.11	1658.45
380.32	1774.16
380.53	1872.05
380.74	2075.21
380.95	1930.01
381.16	1806.51
381.37	1794.02
381.59	2095.89
381.80	2041.21
382.01	1745.28
382.22	1691.01
382.43	1981.20
382.64	1946.18
382.85	1742.21
383.06	1845.02
383.27	2031.18
383.48	1859.56
383.69	1841.74
383.91	1742.62
384.12	1970.97
384.33	1955.61
384.54	1804.26
384.75	1686.91
384.96	2296.18
385.17	2018.27
385.38	1766.37
385.59	1771.49
385.80	1991.04
386.01	2086.27
386.22	1895.60
386.43	1805.28
386.64	2174.12
386.86	1911.16
387.07	1906.86
387.28	1717.63
387.49	1840.71
387.70	2063.53
387.91	1870.41
388.12	1741.18
388.33	1962.77
388.54	1839.90
388.75	1783.58
388.96	1874.30
389.17	1852.18
389.38	1906.45
389.59	1865.49
389.80	1825.15
390.01	1892.32
390.22	1864.27
390.43	1904.82
390.64	1684.25
390.86	1966.05
391.07	2030.36
391.28	1794.02
391.49	1823.31
391.70	1753.27
391.91	1817.57
392.12	1818.80
392.33	1777.84
392.54	1895.80
392.75	1889.87
392.96	1871.84
393.17	1729.30
393.38	2217.75
393.59	2050.22
393.80	1732.58
394.01	1852.18
394.22	1960.32
394.43	2212.63
394.64	1832.32
394.85	1994.31
395.06	1962.36
395.27	1975.47
395.48	1845.42
395.69	1731.97
395.90	1885.77
396.11	1912.39
396.32	1761.05
396.53	1884.54
396.74	1869.18
396.95	2050.43
397.16	1763.92
397.37	1718.66
397.58	2038.75
397.79	1920.59
398.00	1836.41
398.21	1815.73
398.42	1962.36
398.63	2169.00
398.84	1815.73
399.05	1784.80
399.26	2071.32
399.47	1940.25
399.68	1651.48
399.89	1751.63
400.10	1761.87
400.31	1843.58
400.52	1825.97
400.73	1802.62
400.94	1714.15
401.15	1935.54
401.36	1811.22
401.57	1847.47
401.78	2054.73
401.99	2030.77
402.20	1748.76
402.41	1936.56
402.62	2092.00
402.83	1893.14
403.04	1772.72
403.25	1960.73
403.46	1998.82
403.67	2161.84
403.88	1916.08
404.09	1918.13
404.30	1965.64
404.51	1926.73
404.72	1836.82
404.93	1949.67
405.14	1848.70
405.35	1922.43
405.56	1807.74
405.77	1765.55
405.98	1934.10
406.19	1894.99
406.40	1745.48
406.61	1780.71
406.82	1809.79
407.03	2193.17
407.24	1730.33
407.45	1819.62
407.66	1955.61
407.87	2017.66
408.08	1854.85
408.29	1887.61
408.49	1973.01
408.70	1916.90
408.91	1813.27
409.12	1901.33
409.33	1787.26
409.54	2071.73
409.75	1762.07
409.96	1807.33
410.17	2021.35
410.38	1880.44
410.59	1756.75
410.80	1891.71
411.01	1885.16
411.22	1876.35
411.43	1850.95
411.64	1767.81
411.85	1803.03
412.06	1789.31
412.27	1643.09
412.47	1778.46
412.68	1891.09
412.89	1959.91
413.10	1752.45
413.31	1699.40
413.52	2155.08
413.73	2144.02
413.94	1764.94
414.15	1912.60
414.36	1838.46
414.57	1806.92
414.78	1790.54
414.99	2135.42
415.19	2587.20
415.40	2679.56
415.61	2783.39
415.82	2644.75
416.03	2613.62
416.24	2402.06
416.45	2136.44
416.66	1952.53
416.87	1827.81
417.08	2033.02
417.29	1827.81
417.50	1951.30
417.70	2097.53
417.91	2110.02
418.12	2024.62
418.33	2110.02
418.54	2287.79
418.75	2409.03
418.96	2455.31
419.17	2630.82
419.38	3121.92
419.59	3118.85
419.79	2977.13
420.00	2849.13
420.21	2984.30
420.42	2393.26
420.63	2092.20
420.84	2044.49
421.05	1937.38
421.26	1903.59
421.47	1744.25
421.67	2050.43
421.88	1825.76
422.09	1741.80
422.30	1947.62
422.51	1818.19
422.72	2113.30
422.93	1987.55
423.14	1796.27
423.35	1687.32
423.55	1731.97
423.76	1786.03
423.97	1821.26
424.18	1699.40
424.39	1907.27
424.60	2079.92
424.81	1884.54
425.02	2048.17
425.22	2111.25
425.43	2129.89
425.64	2257.68
425.85	2237.00
426.06	2536.41
426.27	2416.19
426.48	2424.18
426.68	2355.98
426.89	2467.19
427.10	2576.75
427.31	2128.45
427.52	1949.46
427.73	2113.91
427.94	2028.31
428.14	1919.15
428.35	1776.20
428.56	2072.75
428.77	2031.38
428.98	1893.35
429.19	2012.95
429.40	2118.01
429.60	2150.78
429.81	2221.23
430.02	2166.34
430.23	2059.85
430.44	2124.36
430.65	1884.34
430.85	1902.56
431.06	1984.89
431.27	1730.74
431.48	1814.71
431.69	1855.05
431.90	1922.63
432.10	1900.11
432.31	1859.76
432.52	1878.81
432.73	2487.05
432.94	2406.16
433.15	2280.82
433.35	2191.74
433.56	2363.97
433.77	2116.17
433.98	2090.77
434.19	1976.49
434.40	2011.31
434.60	1984.07
434.81	1848.91
435.02	1882.70
435.23	1910.14
435.44	1876.76
435.64	1718.04
435.85	1787.47
436.06	1885.16
436.27	1876.76
436.48	1744.46
436.68	1759.61
436.89	2103.26
437.10	1977.72
437.31	1819.01
437.52	1891.30
437.73	1945.16
437.93	1905.43
438.14	1856.28
438.35	1693.06
438.56	1857.71
438.77	1882.08
438.97	1918.54
439.18	1749.78
439.39	2042.03
439.60	1734.63
439.80	1707.60
440.01	1817.16
440.22	1822.28
440.43	1981.41
440.64	1725.21
440.84	1860.37
441.05	1761.66
441.26	2230.85
441.47	1848.91
441.68	1775.79
441.88	1877.99
442.09	1884.54
442.30	1952.53
442.51	1834.16
442.71	1853.21
442.92	1941.06
443.13	1757.16
443.34	1749.58
443.55	1774.36
443.75	1988.37
443.96	1748.76
444.17	1750.81
444.38	2059.03
444.58	1791.77
444.79	1873.69
445.00	1823.10
445.21	1881.06
445.41	1873.28
445.62	1651.07
445.83	1871.64
446.04	1911.78
446.24	1755.11
446.45	1649.84
446.66	1801.80
446.87	1965.64
447.07	1853.41
447.28	1988.78
447.49	1827.81
447.70	2028.31
447.90	2034.66
448.11	1824.33
448.32	1881.88
448.53	2075.41
448.73	2081.76
448.94	1807.54
449.15	1946.18
449.36	1928.16
449.56	1951.51
449.77	1786.03
449.98	1716.20
450.19	1897.44
450.39	1966.05
450.60	1988.17
450.81	1960.11
451.02	2024.21
451.22	2157.13
451.43	1872.46
451.64	1862.22
451.84	1945.37
452.05	2122.72
452.26	1907.68
452.47	1841.33
452.67	1881.26
452.88	2110.23
453.09	1786.03
453.30	1759.41
453.50	1982.64
453.71	2081.15
453.92	1790.95
454.12	1911.16
454.33	1831.50
454.54	1867.75
454.75	1730.94
454.95	1741.18
455.16	1944.34
455.37	1974.04
455.57	1832.73
455.78	1798.53
455.99	1883.93
456.19	1930.62
456.40	1747.12
456.61	1850.75
456.82	1892.12
457.02	2011.51
457.23	1873.07
457.44	1985.51
457.64	1856.48
457.85	1958.47
458.06	1846.04
458.26	2005.58
458.47	1920.38
458.68	2047.97
458.89	1783.78
459.09	2000.46
459.30	2253.38
459.51	2000.87
459.71	1778.25
459.92	1834.98
460.13	2040.19
460.33	2175.56
460.54	1802.42
460.75	1835.18
460.95	1788.90
461.16	1961.13
461.37	1811.63
461.57	1836.21
461.78	1911.16
461.99	1802.83
462.19	2070.09
462.40	1816.96
462.61	2245.80
462.81	2103.47
463.02	1782.14
463.23	1821.46
463.43	2008.24
463.64	1888.84
463.85	2714.17
464.05	1797.30
464.26	2349.02
464.47	2119.44
464.67	2026.47
464.88	1884.54
465.09	1823.10
465.29	1908.09
465.50	1933.49
465.71	1800.98
465.91	1843.99
466.12	1921.20
466.33	1872.46
466.53	1812.04
466.74	2059.64
466.94	1880.65
467.15	1822.28
467.36	2012.33
467.56	1817.16
467.77	1922.84
467.98	1847.68
468.18	1780.30
468.39	1844.81
468.60	2152.42
468.80	1864.88
469.01	1751.83
469.21	1988.37
469.42	2069.88
469.63	1906.86
469.83	1834.98
470.04	2078.28
470.25	2192.15
470.45	1940.66
470.66	1836.21
470.86	2003.12
471.07	1903.79
471.28	1921.40
471.48	1967.28
471.69	1957.86
471.90	2389.98
472.10	1812.86
472.31	1849.32
472.51	1829.86
472.72	1821.05
472.93	1743.23
473.13	1947.82
473.34	1966.66
473.54	1890.48
473.75	1847.88
473.96	2013.56
474.16	1933.08
474.37	2030.56
474.57	1918.33
474.78	1858.12
474.99	2034.04
475.19	1988.58
475.40	1863.04
475.60	1747.74
475.81	2118.62
476.02	1919.97
476.22	1927.55
476.43	2076.03
476.63	1947.21
476.84	2130.30
477.05	1724.18
477.25	1800.16
477.46	2320.96
477.66	1936.56
477.87	1746.51
478.08	1837.85
478.28	2054.52
478.49	1899.29
478.69	1785.01
478.90	1814.91
479.10	2013.36
479.31	2140.95
479.52	1900.52
479.72	1945.78
479.93	1996.77
480.13	1853.00
480.34	1824.74
480.54	1896.21
480.75	1808.97
480.96	2056.98
481.16	1805.90
481.37	1939.02
481.57	2021.35
481.78	2009.26
481.98	1997.59
482.19	1872.25
482.40	2186.21
482.60	2013.36
482.81	1935.13
483.01	1864.06
483.22	2080.74
483.42	2085.04
483.63	1967.89
483.83	1934.10
484.04	1865.29
484.24	2025.85
484.45	1890.07
484.66	1750.19
484.86	1978.75
485.07	1831.29
485.27	1895.60
485.48	1821.87
485.68	2081.15
485.89	1817.78
486.09	1911.98
486.30	1831.09
486.50	1928.98
486.71	1972.40
486.91	1989.60
487.12	2028.31
487.33	2302.94
487.53	2287.58
487.74	2095.07
487.94	2014.59
488.15	2122.72
488.35	2176.99
488.56	2092.82
488.76	2050.02
488.97	2063.53
489.17	2124.77
489.38	1952.74
489.58	1909.94
489.79	2028.31
489.99	2015.61
490.20	1905.63
490.40	1981.82
490.61	2000.66
490.81	1912.19
491.02	1869.39
491.22	1947.00
491.43	2036.30
491.63	1943.93
491.84	1993.29
492.04	1762.28
492.25	2017.66
492.45	1884.95
492.66	1822.28
492.86	1741.39
493.07	1908.91
493.27	2188.46
493.48	1736.06
493.68	1870.41
493.89	1899.90
494.09	1983.87
494.30	1812.25
494.50	2103.47
494.71	2010.49
494.91	1845.02
495.12	1925.30
495.32	2018.48
495.53	2019.30
495.73	1773.54
495.94	1882.49
496.14	1717.63
496.35	2152.82
496.55	1922.63
496.76	1846.24
496.96	1919.97
497.17	1937.17
497.37	2004.55
497.58	1831.70
497.78	1772.93
497.98	1916.08
498.19	1925.91
498.39	1923.25
498.60	1965.85
498.80	1781.94
499.01	2044.28
499.21	1808.77
499.42	1850.13
499.62	1893.76
499.83	2214.88
500.03	1757.57
500.24	1928.78
500.44	2105.93
500.64	2055.96
500.85	1835.80
501.05	1961.13
501.26	1743.85
501.46	2104.08
501.67	1804.47
501.87	1779.48
502.08	1804.06
502.28	1901.95
502.48	1951.51
502.69	1987.76
502.89	1787.88
503.10	1903.38
503.30	1937.58
503.51	1895.60
503.71	1782.14
503.92	2035.07
504.12	1997.79
504.32	1969.33
504.53	2137.06
504.73	2171.05
504.94	2103.26
505.14	2234.33
505.35	2235.15
505.55	2213.44
505.75	2153.03
505.96	2246.83
506.16	2343.90
506.37	2009.06
506.57	1918.33
506.78	2000.66
506.98	2148.32
507.18	1866.31
507.39	1820.85
507.59	1923.86
507.80	1897.65
508.00	1998.00
508.20	2070.29
508.41	1975.47
508.61	2153.44
508.82	2057.39
509.02	1986.53
509.22	1785.83
509.43	1816.96
509.63	1835.39
509.84	1880.24
510.04	1771.08
510.24	2116.78
510.45	2035.07
510.65	1777.64
510.86	1929.80
511.06	1846.65
511.26	2077.87
511.47	2002.71
511.67	1847.88
511.88	2059.64
512.08	2083.81
512.28	1788.70
512.49	1951.92
512.69	1941.27
512.90	1971.99
513.10	1814.91
513.30	1902.36
513.51	2006.80
513.71	2123.33
513.91	1940.04
514.12	1952.94
514.32	2062.51
514.53	1974.45
514.73	2094.46
514.93	2042.03
515.14	2125.18
515.34	2389.57
515.54	2214.88
515.75	2349.84
515.95	2472.92
516.15	2509.99
516.36	2200.75
516.56	2148.52
516.77	1828.63
516.97	2122.51
517.17	1964.21
517.38	2048.38
517.58	2215.70
517.78	2093.02
517.99	2277.34
518.19	2338.58
518.39	2605.22
518.60	2459.41
518.80	2254.81
519.00	2246.62
519.21	2098.96
519.41	2296.18
519.61	1952.74
519.82	2015.41
520.02	2018.68
520.22	2010.29
520.43	1974.65
520.63	1978.75
520.83	1954.79
521.04	1875.32
521.24	2213.85
521.44	2235.77
521.65	2326.70
521.85	2498.32
522.05	2269.56
522.26	2178.63
522.46	2401.04
522.66	2173.92
522.87	1970.97
523.07	2097.73
523.27	1984.48
523.48	2217.54
523.68	2032.61
523.88	2003.94
524.09	2175.56
524.29	2089.75
524.49	1908.50
524.70	2236.18
524.90	2371.14
525.10	2304.17
525.31	2011.31
525.51	1936.35
525.71	2106.13
525.91	2076.64
526.12	1860.58
526.32	1801.19
526.52	1904.20
526.73	1881.26
526.93	1949.87
527.13	1754.90
527.34	1934.10
527.54	1947.82
527.74	1912.19
527.94	1846.86
528.15	1858.53
528.35	1984.28
528.55	2018.89
528.76	1990.42
528.96	1753.27
529.16	2071.32
529.36	2003.73
529.57	1804.87
529.77	2087.49
529.97	1831.29
530.18	1974.45
530.38	1873.48
530.58	1996.56
530.78	1938.81
530.99	1868.16
531.19	1989.19
531.39	1868.77
531.60	1944.55
531.80	1844.20
532.00	2028.92
532.20	1970.76
532.41	1861.40
532.61	1850.13
532.81	1882.08
533.01	1905.43
533.22	1988.17
533.42	1978.13
533.62	1758.39
533.82	2089.13
534.03	1918.74
534.23	1948.03
534.43	1820.03
534.63	1888.02
534.84	1946.39
535.04	1928.57
535.24	1868.36
535.44	2254.81
535.65	1884.54
535.85	1838.87
536.05	1819.42
536.25	1948.23
536.46	1844.81
536.66	2082.37
536.86	1988.37
537.06	2084.83
537.27	2153.44
537.47	2018.89
537.67	1875.94
537.87	2153.03
538.08	1956.83
538.28	1841.12
538.48	1849.52
538.68	1950.90
538.88	2062.10
539.09	1807.13
539.29	1915.06
539.49	2096.51
539.69	1993.90
539.90	1982.23
540.10	1838.05
540.30	2151.19
540.50	1920.18
540.70	1861.60
540.91	1975.47
541.11	2154.87
541.31	2316.25
541.51	2163.27
541.72	2178.01
541.92	2248.26
542.12	2062.10
542.32	2008.65
542.52	1946.80
542.73	1898.06
542.93	2066.20
543.13	1933.08
543.33	2043.26
543.53	2179.24
543.74	2197.47
543.94	2043.05
544.14	2213.85
544.34	2413.74
544.54	2258.70
544.75	2386.91
544.95	2542.55
545.15	2434.01
545.35	2465.55
545.55	2268.33
545.75	2067.01
545.96	2391.21
546.16	1969.12
546.36	2044.08
546.56	2001.68
546.76	2153.64
546.97	2248.67
547.17	1944.34
547.37	2014.79
547.57	1898.47
547.77	2051.66
547.97	1948.03
548.18	1957.86
548.38	2007.83
548.58	2480.50
548.78	2538.66
548.98	2904.84
549.18	3223.50
549.39	3356.83
549.59	3027.72
549.79	2757.18
549.99	2829.06
550.19	2640.86
550.39	2483.57
550.60	2246.62
550.80	2228.19
551.00	2230.65
551.20	2031.99
551.40	1986.53
551.60	2103.47
551.80	2055.96
552.01	2085.65
552.21	2001.07
552.41	2076.85
552.61	2216.11
552.81	2005.17
553.01	1859.56
553.21	2048.58
553.42	1873.69
553.62	1884.75
553.82	1871.23
554.02	2178.83
554.22	2042.44
554.42	1830.68
554.62	1987.76
554.83	2329.56
555.03	2571.84
555.23	2532.11
555.43	2938.84
555.63	2892.35
555.83	2753.70
556.03	2481.93
556.23	2293.93
556.44	2428.28
556.64	2519.62
556.84	2122.11
557.04	2323.83
557.24	2343.29
557.44	2217.54
557.64	2140.54
557.84	1937.99
558.04	2007.01
558.25	2111.05
558.45	1934.92
558.65	2029.33
558.85	2038.75
559.05	1849.32
559.25	2007.21
559.45	2168.18
559.65	2568.36
559.85	3065.40
560.05	2523.71
560.26	2646.59
560.46	2614.03
560.66	2408.21
560.86	2263.82
561.06	2182.32
561.26	2398.99
561.46	2214.47
561.66	2055.34
561.86	2140.74
562.06	1972.60
562.26	2045.72
562.47	1994.11
562.67	1851.57
562.87	2052.68
563.07	1837.64
563.27	2016.84
563.47	1993.90
563.67	1975.68
563.87	2150.57
564.07	2008.65
564.27	2192.76
564.47	2255.63
564.67	2317.48
564.87	2178.63
565.08	2241.30
565.28	2150.16
565.48	2220.41
565.68	2140.54
565.88	2096.51
566.08	2287.38
566.28	1997.79
566.48	1829.04
566.68	1905.23
566.88	1904.00
567.08	2046.54
567.28	1934.92
567.48	1987.14
567.68	2092.61
567.88	1881.47
568.08	2111.46
568.28	2195.22
568.48	2069.88
568.68	2219.18
568.89	2051.25
569.09	1816.55
569.29	2113.30
569.49	2093.64
569.69	1847.06
569.89	1864.06
570.09	1739.75
570.29	1867.54
570.49	1789.11
570.69	1855.66
570.89	2047.76
571.09	2191.94
571.29	1749.58
571.49	2045.31
571.69	1973.42
571.89	1941.06
572.09	1859.56
572.29	1816.96
572.49	2005.58
572.69	1986.32
572.89	1923.66
573.09	1751.01
573.29	2081.97
573.49	2111.05
573.69	2128.45
573.89	2193.37
574.09	1992.26
574.29	2172.28
574.49	1906.86
574.69	1875.12
574.89	1815.32
575.09	1825.35
575.29	1827.61
575.49	1906.66
575.69	1998.82
575.89	1787.88
576.09	1922.84
576.29	1952.33
576.49	1843.99
576.69	1979.77
576.89	1925.91
577.09	1970.56
577.29	1806.31
577.49	2200.54
577.69	1894.58
577.89	2013.15
578.09	1967.48
578.29	1767.60
578.49	1922.43
578.69	1846.65
578.89	2082.37
579.09	1953.15
579.29	1839.28
579.49	2041.42
579.69	1927.14
579.89	2195.83
580.09	1763.30
580.29	1775.79
580.49	1873.69
580.69	1827.61
580.89	1896.21
581.09	1852.39
581.29	1861.19
581.49	1889.05
581.69	1787.67
581.89	1816.96
582.09	1808.97
582.28	1846.24
582.48	2017.86
582.68	2139.72
582.88	2214.06
583.08	2022.37
583.28	2024.62
583.48	2017.86
583.68	1893.76
583.88	1981.20
584.08	1951.71
584.28	1924.07
584.48	2207.10
584.68	1981.00
584.88	1870.61
585.08	2067.63
585.28	2079.71
585.48	2126.61
585.68	1999.02
585.87	2059.03
586.07	2041.21
586.27	1930.21
586.47	1998.20
586.67	1926.11
586.87	1918.74
587.07	1880.04
587.27	1841.53
587.47	1994.93
587.67	2310.52
587.87	2634.71
588.07	2456.13
588.27	2436.88
588.46	2677.31
588.66	2719.91
588.86	2418.04
589.06	2367.04
589.26	2332.84
589.46	2248.26
589.66	1973.83
589.86	1926.11
590.06	2042.85
590.26	2211.40
590.46	2127.43
590.66	2259.32
590.85	2172.49
591.05	2314.61
591.25	2057.80
591.45	2092.41
591.65	2208.32
591.85	2174.94
592.05	2152.62
592.25	2299.46
592.45	2389.37
592.64	2241.30
592.84	2169.41
593.04	2038.34
593.24	2450.80
593.44	2076.23
593.64	2160.81
593.84	2166.55
594.04	2106.13
594.24	2266.28
594.43	1980.80
594.63	2016.23
594.83	2112.89
595.03	2089.54
595.23	1860.17
595.43	1794.02
595.63	1873.28
595.83	2064.15
596.02	1730.12
596.22	1956.22
596.42	2040.39
596.62	2006.80
596.82	1923.04
597.02	2051.66
597.22	2127.23
597.41	2003.53
597.61	1865.90
597.81	2062.51
598.01	2180.88
598.21	2006.60
598.41	2006.39
598.61	1957.45
598.80	2026.06
599.00	2064.76
599.20	2192.96
599.40	2001.68
599.60	2026.67
599.80	2148.93
599.99	2180.88
600.19	2042.23
600.39	2050.63
600.59	2104.90
600.79	2037.52
600.99	2054.73
601.19	2261.78
601.38	2264.64
601.58	2032.61
601.78	1838.26
601.98	2322.60
602.18	3038.37
602.37	3748.81
602.57	3895.24
602.77	4343.33
602.97	4462.11
603.17	4200.18
603.37	3975.93
603.56	4023.23
603.76	3871.68
603.96	3742.25
604.16	3489.12
604.36	3308.08
604.56	3046.35
604.75	2615.05
604.95	2609.73
605.15	2642.08
605.35	2497.70
605.55	2263.21
605.74	2170.03
605.94	2350.04
606.14	2161.63
606.34	2095.28
606.54	2012.54
606.73	1959.70
606.93	2061.89
607.13	1898.06
607.33	1964.21
607.53	2157.74
607.72	2076.03
607.92	2019.30
608.12	2073.57
608.32	1960.93
608.51	2052.68
608.71	1907.27
608.91	2088.31
609.11	2193.99
609.31	2095.69
609.50	2240.48
609.70	2481.32
609.90	2395.30
610.10	2407.80
610.29	2268.74
610.49	2110.02
610.69	2275.70
610.89	2153.23
611.09	2109.00
611.28	2176.38
611.48	2175.15
611.68	2012.54
611.88	1931.23
612.07	1924.68
612.27	2131.32
612.47	1923.04
612.67	2015.82
612.86	2071.93
613.06	1975.27
613.26	1797.71
613.46	1949.46
613.65	2044.49
613.85	2455.72
614.05	2247.03
614.25	2201.98
614.44	2117.39
614.64	2142.18
614.84	2097.32
615.04	2039.98
615.23	2061.28
615.43	2175.56
615.63	2140.74
615.83	1975.06
616.02	1960.32
616.22	2305.40
616.42	2164.50
616.62	2230.24
616.81	2326.29
617.01	2372.16
617.21	2291.27
617.41	2112.07
617.60	2140.33
617.80	2177.40
618.00	2163.27
618.19	2051.66
618.39	2042.85
618.59	2041.21
618.79	1915.26
618.98	1758.18
619.18	1895.60
619.38	2225.12
619.57	1873.07
619.77	1892.73
619.97	1878.40
620.17	1924.48
620.36	1931.44
620.56	2243.75
620.76	2071.93
620.95	2132.75
621.15	2201.57
621.35	2076.85
621.54	2096.10
621.74	2127.02
621.94	1997.79
622.14	1923.86
622.33	1866.11
622.53	1970.97
622.73	1925.71
622.92	1794.64
623.12	1957.65
623.32	2164.91
623.51	2038.34
623.71	1746.71
623.91	2042.85
624.10	1838.46
624.30	1924.07
624.50	1802.83
624.69	1795.45
624.89	2398.17
625.09	1883.93
625.29	1695.72
625.48	1777.23
625.68	1946.80
625.88	2077.05
626.07	1936.76
626.27	1792.59
626.47	1856.89
626.66	1712.31
626.86	1887.82
627.06	1887.41
627.25	1913.62
627.45	2121.29
627.64	1880.44
627.84	2065.99
628.04	1803.03
628.23	2157.94
628.43	1818.60
628.63	1884.54
628.82	1959.29
629.02	2293.11
629.22	2145.25
629.41	2254.61
629.61	2106.75
629.81	2367.86
630.00	2071.93
630.20	2048.99
630.40	2252.15
630.59	2228.80
630.79	2070.50
630.98	2043.26
631.18	2041.82
631.38	2031.18
631.57	2108.59
631.77	1814.71
631.97	1990.83
632.16	1970.15
632.36	1930.01
632.56	1907.07
632.75	1916.28
632.95	2028.72
633.14	1788.70
633.34	2050.43
633.54	1693.06
633.73	1868.16
633.93	1835.39
634.12	1743.03
634.32	2228.60
634.52	1900.11
634.71	1755.72
634.91	1947.00
635.11	1776.82
635.30	1812.45
635.50	1921.40
635.69	1816.55
635.89	2215.70
636.09	2096.51
636.28	1873.28
636.48	1904.82
636.67	2030.56
636.87	2059.64
637.07	2026.06
637.26	1903.38
637.46	2033.43
637.65	2142.58
637.85	2033.02
638.04	1933.90
638.24	1954.79
638.44	2049.40
638.63	1956.42
638.83	1934.31
639.02	2013.97
639.22	2028.92
639.42	1880.24
639.61	1910.35
639.81	1950.69
640.00	1894.58
640.20	2003.94
640.39	1986.32
640.59	2403.29
640.79	2400.22
640.98	2412.51
641.18	2446.30
641.37	2486.85
641.57	2323.01
641.76	2241.30
641.96	2043.26
642.15	2201.77
642.35	2085.65
642.55	2075.00
642.74	1905.63
642.94	2105.72
643.13	2149.96
643.33	1919.77
643.52	1849.32
643.72	1860.17
643.91	1904.00
644.11	1839.28
644.31	1802.42
644.50	1814.50
644.70	2046.33
644.89	1885.56
645.09	1947.00
645.28	1924.07
645.48	1954.17
645.67	1807.54
645.87	1723.98
646.06	1872.66
646.26	1974.45
646.45	1690.39
646.65	1677.90
646.84	2172.28
647.04	1899.90
647.24	1773.95
647.43	1904.20
647.63	1933.28
647.82	2096.92
648.02	1753.06
648.21	1823.51
648.41	2072.75
648.60	1842.56
648.80	2011.51
648.99	1936.15
649.19	1845.22
649.38	1737.29
649.58	1872.87
649.77	1921.20
649.97	2048.99
650.16	1967.48
650.36	1664.59
650.55	1995.95
650.75	1934.72
650.94	2080.94
651.14	1892.32
651.33	1950.69
651.53	2101.83
651.72	1821.87
651.92	1866.52
652.11	1716.40
652.31	1966.87
652.50	1926.93
652.70	1926.93
652.89	1790.95
653.09	2141.97
653.28	1917.51
653.48	1723.57
653.67	1768.22
653.87	2336.53
654.06	1963.39
654.25	2068.86
654.45	1831.09
654.64	1870.21
654.84	1906.66
655.03	1666.84
655.23	2003.32
655.42	1988.17
655.62	2091.59
655.81	1884.13
656.01	1813.07
656.20	2009.67
656.40	2071.11
656.59	1905.43
656.79	2011.51
656.98	1944.14
657.17	2012.74
657.37	1901.54
657.56	1812.86
657.76	1949.46
657.95	2037.93
658.15	1567.72
658.34	1886.38
658.54	1909.12
658.73	1785.42
658.92	1839.90
659.12	1914.24
659.31	2013.97
659.51	1841.12
659.70	2025.85
659.90	1941.47
660.09	2143.81
660.29	2008.85
660.48	1844.20
660.67	2087.08
660.87	1887.61
661.06	1995.13
661.26	1982.23
661.45	1993.70
661.65	1970.56
661.84	1863.65
662.03	1834.98
662.23	1865.29
662.42	2155.08
662.62	1764.33
662.81	1781.73
663.00	1822.90
663.20	1888.84
663.39	1931.64
663.59	1982.02
663.78	1831.70
663.97	1848.50
664.17	1989.81
664.36	1726.44
664.56	1805.69
664.75	1995.95
664.94	1980.80
665.14	1926.52
665.33	1908.30
665.53	1961.95
665.72	1967.69
665.91	2044.28
666.11	1956.63
666.30	1997.18
666.50	1909.12
666.69	1961.95
666.88	1870.21
667.08	1956.42
667.27	1896.01
667.47	1934.72
667.66	1862.42
667.85	2037.32
668.05	1920.18
668.24	1811.84
668.43	2008.85
668.63	1849.11
668.82	2050.02
669.02	1980.80
669.21	1909.94
669.40	1786.03
669.60	2166.55
669.79	1770.88
669.98	2346.36
670.18	1828.84
670.37	1777.64
670.56	1828.22
670.76	1933.08
670.95	1906.45
671.15	2071.52
671.34	1971.58
671.53	1939.84
671.73	1910.14
671.92	1878.81
672.11	1791.56
672.31	1889.05
672.50	1950.08
672.69	1793.61
672.89	1685.07
673.08	1859.35
673.27	2020.53
673.47	1939.02
673.66	1953.35
673.85	1795.86
674.05	2055.75
674.24	2337.14
674.43	2350.25
674.63	2760.66
674.82	3090.59
675.01	2576.14
675.21	2715.81
675.40	2487.67
675.59	2423.57
675.79	2619.76
675.98	2302.33
676.17	2425.41
676.37	2325.88
676.56	2192.56
676.75	2150.37
676.95	2037.32
677.14	1995.95
677.33	2116.99
677.52	1864.27
677.72	1864.47
677.91	2006.39
678.10	1779.68
678.30	1806.51
678.49	1781.32
678.68	2183.95
678.88	1697.56
679.07	1998.82
679.26	1848.29
679.45	2152.82
679.65	2035.68
679.84	1676.26
680.03	1750.60
680.23	1865.09
680.42	2233.11
680.61	1771.29
680.81	1841.12
681.00	1906.25
681.19	1967.69
681.38	1980.80
681.58	1963.39
681.77	1898.47
681.96	2033.22
682.15	1868.16
682.35	1951.51
682.54	1998.00
682.73	1798.53
682.93	1826.79
683.12	1822.28
683.31	1998.20
683.50	2289.63
683.70	1815.52
683.89	1895.40
684.08	1788.70
684.27	2024.83
684.47	1740.36
684.66	1916.49
684.85	2163.68
685.04	2064.76
685.24	1824.54
685.43	1880.24
685.62	1719.68
685.81	1980.59
686.01	2074.18
686.20	2135.62
686.39	2200.75
686.58	2691.85
686.78	2485.82
686.97	2435.44
687.16	2420.90
687.35	2325.88
687.55	2231.26
687.74	2208.94
687.93	2107.77
688.12	2189.07
688.32	2179.24
688.51	1972.81
688.70	2126.20
688.89	1910.75
689.08	1849.52
689.28	1873.89
689.47	1971.37
689.66	1976.29
689.85	2010.70
690.05	1862.63
690.24	1832.93
690.43	1944.14
690.62	1934.72
690.81	1808.36
691.01	1940.25
691.20	1880.44
691.39	1793.20
691.58	1942.09
691.77	2120.67
691.97	1910.75
692.16	1951.92
692.35	1855.25
692.54	1887.61
692.73	2080.94
692.93	2051.04
693.12	2139.72
693.31	2176.99
693.50	2154.67
693.69	2153.23
693.89	2016.02
694.08	2208.12
694.27	2229.42
694.46	1957.65
694.65	2043.46
694.85	2106.54
695.04	2072.34
695.23	2027.08
695.42	2508.35
695.61	2813.91
695.80	3095.50
696.00	3364.40
696.19	3467.42
696.38	3043.49
696.57	2887.02
696.76	2784.01
696.95	2604.40
697.15	2723.80
697.34	2641.67
697.53	2326.70
697.72	2290.45
697.91	2192.96
698.10	2344.31
698.30	2026.06
698.49	2008.24
698.68	2031.38
698.87	1950.28
699.06	1854.64
699.25	1900.92
699.45	2043.26
699.64	1966.46
699.83	1997.18
700.02	1802.42
700.21	1992.67
700.40	1853.62
700.59	1878.81
700.79	1885.97
700.98	1974.65
701.17	1823.92
701.36	1825.35
701.55	1812.66
701.74	2095.28
701.93	2074.39
702.12	2389.77
702.32	2445.27
702.51	2763.73
702.70	2776.23
702.89	2563.44
703.08	2324.44
703.27	2537.02
703.46	2375.23
703.65	2219.79
703.85	2097.53
704.04	2134.19
704.23	2282.87
704.42	1989.60
704.61	1970.76
704.80	2213.65
704.99	1867.13
705.18	1986.32
705.37	1937.58
705.57	2306.83
705.76	2831.73
705.95	2934.12
706.14	3430.55
706.33	3660.13
706.52	3782.60
706.71	3118.24
706.90	2839.30
707.09	2863.06
707.28	2714.38
707.47	2476.20
707.67	2586.99
707.86	2351.89
708.05	2502.62
708.24	2245.60
708.43	2163.68
708.62	2019.50
708.81	1924.89
709.00	1815.73
709.19	1860.37
709.38	2058.82
709.57	1826.17
709.76	2019.91
709.96	1944.34
710.15	2218.97
710.34	2024.83
710.53	2105.72
710.72	1976.09
710.91	2148.93
711.10	2055.14
711.29	2053.50
711.48	1914.03
711.67	1863.86
711.86	2052.88
712.05	1876.14
712.24	1878.81
712.43	2052.47
712.62	2146.48
712.81	1952.94
713.00	2050.63
713.19	1802.21
713.39	1984.07
713.58	1790.33
713.77	1956.22
713.96	2061.08
714.15	1977.11
714.34	1948.64
714.53	1845.42
714.72	2212.63
714.91	1888.02
715.10	1997.79
715.29	1895.60
715.48	2422.34
715.67	2146.07
715.86	2005.99
716.05	1959.91
716.24	1961.34
716.43	1923.04
716.62	1802.01
716.81	1826.58
717.00	1902.56
717.19	2140.95
717.38	1957.65
717.57	1896.01
717.76	1755.93
717.95	2039.37
718.14	1908.50
718.33	1838.67
718.52	1697.15
718.71	1727.46
718.90	1746.10
719.09	1839.69
719.28	1912.39
719.47	2044.08
719.66	2067.83
719.85	2097.94
720.04	2031.58
720.23	2121.90
720.42	2024.62
720.61	2136.85
720.80	1881.47
720.99	2058.00
721.18	1946.39
721.37	1882.08
721.56	1940.86
721.75	2084.83
721.94	1860.58
722.13	1918.13
722.32	1921.20
722.51	2019.50
722.70	1898.06
722.89	1924.48
723.08	1887.00
723.27	2017.66
723.46	1925.30
723.65	1855.25
723.84	1836.82
724.03	2078.07
724.22	1756.75
724.41	1930.62
724.60	1870.21
724.79	2012.74
724.98	1954.58
725.16	1839.28
725.35	1986.32
725.54	1796.07
725.73	1914.44
725.92	1935.94
726.11	1974.65
726.30	2202.18
726.49	2059.44
726.68	2195.83
726.87	2309.70
727.06	2371.96
727.25	2038.34
727.44	2163.06
727.63	2086.88
727.82	2047.15
728.01	2054.11
728.20	2072.95
728.38	2216.52
728.57	1978.13
728.76	1956.22
728.95	2071.11
729.14	1816.14
729.33	1808.15
729.52	1669.09
729.71	1824.54
729.90	1797.50
730.09	1885.36
730.28	1950.90
730.47	1973.01
730.66	2190.92
730.84	2148.11
731.03	2104.90
731.22	2132.14
731.41	2075.62
731.60	2094.05
731.79	1825.76
731.98	1900.72
732.17	2083.19
732.36	2022.16
732.55	1902.97
732.73	1831.50
732.92	2107.77
733.11	1959.29
733.30	1843.17
733.49	1750.40
733.68	1992.67
733.87	1968.71
734.06	1873.28
734.25	2011.51
734.43	2152.82
734.62	2324.03
734.81	2343.90
735.00	2310.31
735.19	2252.77
735.38	2265.46
735.57	2045.31
735.76	2219.79
735.94	2366.02
736.13	2843.40
736.32	2835.41
736.51	2965.87
736.70	3308.90
736.89	3381.40
737.08	3203.23
737.27	3427.28
737.45	4174.58
737.64	4288.24
737.83	4655.44
738.02	4769.92
738.21	4573.73
738.40	4077.30
738.59	3655.42
738.77	3538.28
738.96	3232.31
739.15	3130.73
739.34	2991.67
739.53	2825.99
739.72	2774.59
739.90	2660.52
740.09	2298.44
740.28	2260.96
740.47	2289.42
740.66	2185.18
740.85	1969.12
741.03	2028.31
741.22	1875.12
741.41	1963.39
741.60	1856.07
741.79	2042.64
741.98	2170.44
742.16	2265.46
742.35	2121.08
742.54	2076.03
742.73	2434.22
742.92	2140.33
743.10	2065.58
743.29	2132.14
743.48	2458.38
743.67	2043.67
743.86	1923.66
744.05	1916.28
744.23	1942.09
744.42	1928.16
744.61	1990.22
744.80	1871.64
744.99	1910.55
745.17	1723.98
745.36	1777.84
745.55	1955.61
745.74	1930.42
745.93	1833.96
746.11	1821.46
746.30	1789.92
746.49	2032.40
746.68	1780.50
746.86	1892.53
747.05	1860.99
747.24	1973.83
747.43	2048.38
747.62	1802.42
747.80	1914.24
747.99	2181.29
748.18	2134.19
748.37	2078.07
748.56	2040.19
748.74	2121.70
748.93	2027.69
749.12	2186.82
749.31	2709.05
749.49	3088.13
749.68	3374.64
749.87	3696.79
750.06	3718.70
750.24	3802.67
750.43	4192.40
750.62	4506.35
750.81	4765.62
750.99	5017.93
751.18	5032.47
751.37	4349.48
751.56	3947.66
751.74	4112.53
751.93	3986.58
752.12	3241.52
752.31	3019.73
752.49	2914.46
752.68	2973.24
752.87	2641.88
753.06	2419.27
753.24	2331.82
753.43	2342.47
753.62	2084.42
753.81	2018.27
753.99	2223.68
754.18	2062.51
754.37	1833.55
754.55	1953.15
754.74	2167.77
754.93	1740.16
755.12	1870.21
755.30	1810.61
755.49	2034.25
755.68	1964.00
755.86	1960.32
756.05	1787.06
756.24	2089.54
756.43	1747.74
756.61	1785.01
756.80	1915.26
756.99	2096.10
757.17	1902.97
757.36	1781.73
757.55	1889.05
757.74	1955.20
757.92	1914.85
758.11	1746.10
758.30	1713.95
758.48	1861.40
758.67	1776.00
758.86	1890.07
759.04	1788.49
759.23	1840.30
759.42	1886.18
759.60	1823.72
759.79	1884.34
759.98	1857.51
760.16	1802.01
760.35	1808.97
760.54	1735.45
760.73	1920.99
760.91	1723.98
761.10	1904.82
761.29	1909.53
761.47	1925.50
761.66	2176.99
761.85	1943.11
762.03	2088.52
762.22	2676.08
762.41	4623.49
762.59	6712.01
762.78	7738.66
762.97	9345.70
763.15	9928.96
763.34	9069.63
763.52	6984.19
763.71	6596.71
763.90	6222.34
764.08	5755.82
764.27	5459.88
764.46	5254.47
764.64	4577.21
764.83	4252.81
765.02	3907.93
765.20	3539.50
765.39	3204.25
765.58	2636.76
765.76	2464.94
765.95	2336.73
766.13	2156.31
766.32	2054.93
766.51	2031.99
766.69	2554.43
766.88	2017.04
767.07	1853.00
767.25	1749.37
767.44	2073.57
767.62	2063.12
767.81	1830.06
768.00	1919.36
768.18	1936.76
768.37	1855.87
768.56	1758.80
768.74	1842.35
768.93	1779.07
769.11	1959.50
769.30	1908.50
769.49	1835.39
769.67	1913.01
769.86	1888.84
770.04	1873.28
770.23	1862.83
770.42	2051.45
770.60	1916.28
770.79	1798.73
770.97	1853.41
771.16	2301.71
771.35	2781.35
771.53	3269.99
771.72	3588.66
771.90	4024.67
772.09	4327.77
772.27	3951.15
772.46	3260.98
772.65	3392.05
772.83	3136.26
773.02	3063.97
773.20	2777.46
773.39	2838.48
773.58	2769.88
773.76	2388.14
773.95	2383.63
774.13	2375.44
774.32	2187.23
774.50	2020.12
774.69	2036.70
774.87	1920.38
775.06	2236.59
775.25	1855.25
775.43	1885.97
775.62	1946.18
775.80	1995.34
775.99	1928.98
776.17	1790.95
776.36	1907.07
776.54	2039.57
776.73	1822.69
776.92	1921.81
777.10	2012.13
777.29	1959.50
777.47	1793.20
777.66	1828.43
777.84	1902.36
778.03	1907.27
778.21	1790.74
778.40	1904.82
778.58	1957.86
778.77	2026.67
778.95	1772.11
779.14	1805.28
779.32	2110.43
779.51	2010.70
779.70	1856.28
779.88	1731.35
780.07	1829.66
780.25	2239.86
780.44	1854.85
780.62	1977.52
780.81	1963.80
780.99	1944.96
781.18	1812.45
781.36	1829.86
781.55	1902.77
781.73	2084.63
781.92	1788.29
782.10	1738.73
782.29	1985.71
782.47	2095.07
782.66	1898.88
782.84	1748.56
783.03	1828.22
783.21	2063.74
783.40	1843.58
783.58	1829.04
783.77	1808.56
783.95	1868.16
784.14	1766.78
784.32	1886.18
784.51	2071.52
784.69	1841.12
784.88	1775.79
785.06	1922.43
785.24	1776.82
785.43	2064.56
785.61	1972.19
785.80	1818.60
785.98	2017.66
786.17	1916.08
786.35	1824.33
786.54	1946.18
786.72	2037.93
786.91	2051.25
787.09	1888.43
787.28	1765.14
787.46	1937.58
787.65	2021.14
787.83	1766.17
788.01	1916.49
788.20	1806.10
788.38	1948.23
788.57	1889.05
788.75	1894.17
788.94	2234.13
789.12	2106.13
789.31	1918.33
789.49	1996.77
789.67	1868.36
789.86	1988.78
790.04	1846.24
790.23	1755.31
790.41	2246.42
790.60	1935.54
790.78	1924.48
790.96	1901.95
791.15	2014.38
791.33	1927.96
791.52	1915.26
791.70	1824.94
791.89	1921.20
792.07	2035.68
792.25	1872.87
792.44	1752.45
792.62	2038.55
792.81	1822.69
792.99	1900.52
793.17	1817.37
793.36	1839.90
793.54	2237.00
793.73	2540.91
793.91	2825.38
794.10	3333.68
794.28	3637.60
794.46	3536.64
794.65	3507.76
794.83	3005.39
795.01	2906.89
795.20	2986.35
795.38	2758.00
795.57	2763.12
795.75	2697.17
795.93	2485.21
796.12	2449.37
796.30	2440.56
796.49	2370.11
796.67	2102.24
796.85	2215.29
797.04	2083.40
797.22	2107.16
797.40	1821.87
797.59	1970.97
797.77	1966.05
797.96	1854.23
798.14	1811.22
798.32	1818.39
798.51	2036.70
798.69	2171.87
798.87	1890.48
799.06	1857.30
799.24	1783.37
799.42	2178.42
799.61	2310.93
799.79	2512.04
799.98	2964.84
800.16	2925.11
800.34	3461.48
800.53	4083.04
800.71	4272.68
800.89	4967.55
801.08	5043.94
801.26	4971.85
801.44	4335.96
801.63	3771.74
801.81	3710.92
801.99	3482.98
802.18	3373.00
802.36	3276.34
802.54	3111.27
802.73	2735.47
802.91	2719.91
803.09	2614.44
803.28	2496.27
803.46	2388.96
803.64	2422.54
803.83	2030.77
804.01	1976.90
804.19	1888.02
804.38	2091.59
804.56	2049.40
804.74	1952.53
804.92	1945.57
805.11	1847.88
805.29	2097.12
805.47	1875.12
805.66	1799.96
805.84	1808.15
806.02	2053.09
806.21	1884.95
806.39	2037.73
806.57	2057.80
806.76	2044.08
806.94	1910.55
807.12	1868.57
807.30	1912.60
807.49	2011.31
807.67	1983.25
807.85	2072.13
808.04	2110.02
808.22	2271.40
808.40	1796.89
808.58	1806.31
808.77	2027.08
808.95	2175.56
809.13	2229.01
809.31	3203.84
809.50	4097.17
809.68	4639.47
809.86	4944.41
810.05	5259.80
810.23	5896.31
810.41	7213.36
810.59	11147.30
810.78	13517.00
810.96	15377.17
811.14	16684.39
811.32	16268.65
811.51	13379.99
811.69	10959.09
811.87	10907.07
812.05	9594.94
812.24	9026.22
812.42	8446.23
812.60	7736.82
812.78	6582.58
812.97	5807.63
813.15	5450.67
813.33	4743.30
813.51	4249.54
813.70	3522.10
813.88	3072.16
814.06	2764.96
814.24	2481.52
814.42	2132.14
814.61	2180.88
814.79	2294.13
814.97	1854.85
815.15	1912.19
815.34	2013.77
815.52	2060.87
815.70	1774.36
815.88	1854.23
816.06	1795.45
816.25	1882.90
816.43	1780.09
816.61	1983.66
816.79	2108.38
816.98	1764.33
817.16	1877.58
817.34	1828.63
817.52	2009.06
817.70	2160.40
817.89	1902.77
818.07	1809.59
818.25	1931.03
818.43	1952.12
818.61	1895.60
818.80	1853.41
818.98	2129.27
819.16	1918.13
819.34	1792.18
819.52	2079.10
819.70	1803.44
819.89	1892.53
820.07	1754.29
820.25	1744.46
820.43	1920.38
820.61	1988.17
820.80	1882.29
820.98	1804.26
821.16	1692.44
821.34	1762.28
821.52	1825.76
821.70	1896.01
821.89	1893.76
822.07	1855.87
822.25	1813.89
822.43	1805.28
822.61	2084.42
822.79	1924.48
822.98	1847.68
823.16	1664.59
823.34	1928.98
823.52	2038.14
823.70	1950.90
823.88	1710.67
824.06	1971.58
824.25	1888.43
824.43	1991.85
824.61	1804.06
824.79	1943.32
824.97	2000.46
825.15	2097.94
825.33	2371.55
825.52	2665.64
825.70	2729.53
825.88	2853.23
826.06	3061.71
826.24	3053.11
826.42	2972.22
826.60	2626.93
826.78	2658.88
826.97	2471.49
827.15	2596.82
827.33	2295.77
827.51	2382.40
827.69	2180.47
827.87	2243.96
828.05	2207.92
828.23	1988.17
828.41	2188.05
828.60	2132.96
828.78	1842.76
828.96	1988.37
829.14	1879.01
829.32	1878.19
829.50	1849.32
829.68	1842.35
829.86	1858.12
830.04	1989.40
830.22	1908.09
830.41	1778.66
830.59	1874.92
830.77	1982.64
830.95	1814.09
831.13	1789.72
831.31	1801.19
831.49	1990.83
831.67	1998.20
831.85	1964.21
832.03	1865.49
832.21	2008.44
832.39	1754.49
832.57	1742.00
832.76	2041.01
832.94	1917.72
833.12	1708.42
833.30	1850.34
833.48	2049.61
833.66	1933.28
833.84	1793.00
834.02	1873.89
834.20	2039.16
834.38	1991.44
834.56	1724.39
834.74	1755.93
834.92	1771.49
835.10	2149.55
835.28	1922.22
835.46	1875.32
835.64	1889.25
835.82	1802.21
836.01	2071.73
836.19	1976.09
836.37	1816.75
836.55	1789.72
836.73	1807.95
836.91	1756.34
837.09	1986.32
837.27	2088.72
837.45	1731.97
837.63	1779.28
837.81	1761.66
837.99	1921.40
838.17	1898.47
838.35	1829.45
838.53	2271.20
838.71	2073.16
838.89	1926.32
839.07	1880.44
839.25	2008.85
839.43	2115.96
839.61	2079.30
839.79	2796.71
839.97	3435.67
840.15	3797.96
840.33	4022.21
840.51	4438.15
840.69	4140.79
840.87	3629.21
841.05	3444.48
841.23	3505.92
841.41	4191.17
841.59	5509.86
841.77	5984.37
841.95	6461.55
842.13	6978.25
842.31	6644.43
842.49	5514.16
842.67	4919.84
842.85	4879.29
843.03	4305.04
843.21	4126.45
843.39	4034.29
843.57	3723.00
843.75	3485.44
843.93	3128.68
844.11	2928.80
844.29	2795.68
844.47	2596.21
844.65	2645.36
844.83	2348.61
845.01	2252.97
845.19	2308.47
845.36	2042.64
845.54	2049.81
845.72	1985.10
845.90	2034.04
846.08	1774.16
846.26	1863.45
846.44	1977.72
846.62	1971.78
846.80	1907.48
846.98	1823.92
847.16	1886.18
847.34	1919.15
847.52	1764.73
847.70	1778.46
847.88	1863.04
848.06	2070.29
848.24	1910.35
848.41	1716.40
848.59	2013.97
848.77	1936.76
848.95	1832.32
849.13	1795.66
849.31	1961.34
849.49	1934.10
849.67	1781.94
849.85	1751.83
850.03	1925.30
850.21	1901.13
850.39	1815.32
850.57	1927.75
850.74	2071.73
850.92	2109.82
851.10	2072.13
851.28	2308.68
851.46	2560.17
851.64	2890.50
851.82	2632.25
852.00	2715.61
852.18	2702.50
852.36	2463.50
852.53	2307.04
852.71	2345.33
852.89	2344.72
853.07	2300.48
853.25	2124.15
853.43	1987.55
853.61	2147.70
853.79	2118.01
853.97	1949.46
854.14	1908.71
854.32	2161.63
854.50	2070.29
854.68	1864.06
854.86	1867.75
855.04	1818.39
855.22	1991.04
855.40	1739.75
855.57	1816.14
855.75	2011.92
855.93	1962.98
856.11	1724.80
856.29	1770.88
856.47	1794.43
856.65	1917.72
856.82	1784.40
857.00	1706.37
857.18	1858.94
857.36	1807.74
857.54	1875.94
857.72	1959.09
857.89	1965.44
858.07	1897.03
858.25	2002.91
858.43	1722.34
858.61	1856.28
858.79	1887.00
858.97	1756.13
859.14	1902.77
859.32	1864.88
859.50	1849.32
859.68	1928.78
859.86	1842.97
860.03	1946.18
860.21	2020.73
860.39	1842.56
860.57	1912.80
860.75	1951.30
860.93	2145.25
861.10	2002.50
861.28	1817.78
861.46	1978.95
861.64	2008.65
861.82	1862.01
861.99	1932.46
862.17	2018.07
862.35	2028.92
862.53	1885.56
862.71	1850.54
862.88	1941.27
863.06	1978.54
863.24	1825.97
863.42	1783.37
863.60	1862.01
863.77	1958.06
863.95	1673.40
864.13	1859.56
864.31	1829.04
864.49	1974.24
864.66	1725.82
864.84	1827.20
865.02	1933.28
865.20	2203.82
865.37	1878.19
865.55	1809.79
865.73	1776.41
865.91	2015.20
866.09	2008.24
866.26	2006.19
866.44	2112.27
866.62	1994.72
866.80	1842.56
866.97	1945.57
867.15	1941.47
867.33	1987.35
867.51	1977.72
867.68	1913.42
867.86	1894.78
868.04	1852.39
868.22	1727.87
868.39	1836.21
868.57	1931.64
868.75	2070.50
868.93	1743.64
869.10	1802.42
869.28	2142.38
869.46	2065.38
869.64	1845.22
869.81	1823.51
869.99	1911.78
870.17	1896.83
870.35	1765.35
870.52	1760.43
870.70	1992.67
870.88	1835.80
871.05	1744.25
871.23	1631.62
871.41	1868.98
871.59	1899.70
871.76	1837.44
871.94	1789.31
872.12	1875.32
872.29	1715.38
872.47	1790.13
872.65	1756.54
872.83	1907.89
873.00	2053.29
873.18	1843.58
873.36	1811.02
873.53	2019.09
873.71	1747.53
873.89	1782.14
874.06	1843.38
874.24	1927.14
874.42	2059.85
874.60	1938.81
874.77	1889.46
874.95	1807.95
875.13	2035.48
875.30	1780.09
875.48	1853.00
875.66	2113.50
875.83	1841.53
876.01	1831.09
876.19	1960.11
876.36	1752.86
876.54	1932.67
876.72	1764.53
876.89	1909.53
877.07	1995.13
877.25	1722.14
877.42	1870.41
877.60	1835.80
877.78	2118.01
877.95	1819.83
878.13	1805.69
878.31	1907.07
878.48	1989.19
878.66	1981.61
878.84	1799.14
879.01	1868.36
879.19	1914.65
879.37	1973.42
879.54	1814.09
879.72	1713.95
879.90	1652.51
880.07	1984.89
880.25	1615.44
880.42	1943.93
880.60	1905.02
880.78	1974.86
880.95	1824.74
881.13	1853.41
881.31	1869.80
881.48	1814.71
881.66	1773.54
881.83	1855.87
882.01	1779.28
882.19	1748.35
882.36	1859.35
882.54	1825.76
882.72	1981.61
882.89	1890.48
883.07	1751.63
883.24	1787.06
883.42	1983.25
883.60	1904.20
883.77	1739.95
883.95	1843.58
884.12	2039.16
884.30	1982.23
884.48	2034.86
884.65	1947.00
884.83	1998.00
885.00	1985.92
885.18	1796.48
885.36	1841.94
885.53	1993.70
885.71	2080.53
885.88	1757.98
886.06	1832.32
886.23	1976.70
886.41	1852.18
886.59	1805.49
886.76	1778.05
886.94	1967.89
887.11	2238.02
887.29	1825.15
887.47	1710.46
887.64	2032.81
887.82	2042.64
887.99	1710.67
888.17	1842.35
888.34	1856.69
888.52	1739.34
888.69	1871.84
888.87	1737.91
889.05	1808.36
889.22	1839.08
889.40	1792.38
889.57	1970.35
889.75	2105.93
889.92	1865.49
890.10	1729.92
890.27	1798.53
890.45	1816.96
890.62	1698.38
890.80	1755.72
890.98	1689.57
891.15	2045.72
891.33	1974.04
891.50	1764.73
891.68	1699.81
891.85	1956.42
892.03	1960.11
892.20	1765.76
892.38	1764.53
892.55	1980.59
892.73	1949.46
892.90	1737.09
893.08	1806.72
893.25	1820.23
893.43	1812.45
893.60	1918.13
893.78	1641.45
893.95	1911.78
894.13	1867.95
894.30	1747.12
894.48	1832.11
894.65	2003.12
894.83	1884.54
895.00	1659.88
895.18	1664.38
895.35	1995.54
895.53	2000.66
895.70	1723.16
895.88	1925.30
896.05	1981.41
896.23	1743.03
896.40	1804.87
896.58	1882.29
896.75	1996.97
896.93	2055.34
897.10	1774.97
897.28	1727.87
897.45	1913.62
897.63	1977.11
897.80	1926.93
897.98	1817.16
898.15	1911.37
898.33	1776.61
898.50	1882.08
898.67	1837.44
898.85	1855.05
899.02	1941.68
899.20	1956.42
899.37	1839.08
899.55	1912.60
899.72	2059.64
899.90	1744.05
900.07	1775.59
900.25	1946.39
900.42	2029.33
900.59	1829.25
900.77	1904.20
900.94	1959.91
901.12	1926.52
901.29	1771.08
901.47	1922.43
901.64	1941.68
901.82	1886.18
901.99	1612.78
902.16	1743.03
902.34	2025.44
902.51	1890.28
902.69	1795.04
902.86	1841.33
903.03	2319.73
903.21	1886.79
903.38	1841.33
903.56	1771.29
903.73	2013.97
903.91	1830.68
904.08	1744.87
904.25	1631.62
904.43	1783.99
904.60	1957.04
904.78	1820.03
904.95	1726.23
905.12	1869.18
905.30	2077.05
905.47	1916.49
905.65	1922.84
905.82	1893.35
905.99	1986.32
906.17	1904.82
906.34	1821.67
906.52	1844.40
906.69	2021.14
906.86	2021.14
907.04	1942.70
907.21	2035.89
907.38	2076.85
907.56	1824.94
907.73	1808.97
907.91	2095.28
908.08	2055.34
908.25	1764.73
908.43	1781.53
908.60	1981.00
908.77	1935.74
908.95	1797.30
909.12	1770.26
909.30	1969.53
909.47	1712.10
909.64	1829.86
909.82	1958.88
909.99	1858.12
910.16	1870.61
910.34	1778.46
910.51	1834.16
910.68	1898.88
910.86	1898.67
911.03	1770.88
911.20	1925.09
911.38	2514.70
911.55	3257.29
911.72	3529.88
911.90	3595.21
912.07	3940.50
912.24	3978.38
912.42	3255.04
912.59	2706.60
912.76	2781.55
912.94	2513.47
913.11	2329.15
913.28	2199.11
913.46	2067.83
913.63	2230.65
913.80	2357.01
913.98	2064.56
914.15	2182.11
914.32	2222.05
914.49	2071.93
914.67	1941.47
914.84	2061.08
915.01	2120.06
915.19	2033.63
915.36	1919.97
915.53	2099.58
915.71	2005.99
915.88	1927.14
916.05	1801.80
916.22	2034.45
916.40	1918.13
916.57	1757.36
916.74	1902.77
916.92	2086.47
917.09	1770.88
917.26	1766.78
917.43	1748.56
917.61	1820.64
917.78	1692.85
917.95	1653.33
918.13	1741.80
918.30	2168.39
918.47	1902.36
918.64	1777.02
918.82	1749.99
918.99	1895.60
919.16	2164.50
919.33	1899.29
919.51	1848.29
919.68	1959.29
919.85	2093.84
920.02	1748.97
920.20	1852.18
920.37	2112.89
920.54	2012.95
920.71	1776.20
920.89	1823.31
921.06	2125.38
921.23	1833.75
921.40	1777.23
921.58	2049.81
921.75	2558.53
921.92	2132.14
922.09	2234.54
922.27	2207.30
922.44	2224.71
922.61	2148.32
922.78	1998.20
922.96	1934.10
923.13	1952.53
923.30	2085.86
923.47	1766.37
923.64	1853.21
923.82	1988.78
923.99	1977.31
924.16	1888.84
924.33	1756.13
924.50	1909.53
924.68	2126.00
924.85	1764.53
925.02	1842.15
925.19	2003.94
925.36	1954.99
925.54	1875.73
925.71	1868.36
925.88	2286.56
926.05	1854.85
926.22	1765.35
926.40	1826.99
926.57	1912.19
926.74	1966.46
926.91	1772.93
927.08	1978.95
927.26	2008.65
927.43	1901.33
927.60	1750.40
927.77	1813.68
927.94	2100.81
928.11	2021.14
928.29	1729.30
928.46	1833.34
928.63	1808.77
928.80	1827.61
928.97	1900.11
929.14	1760.84
929.32	2139.10
929.49	1873.07
929.66	1748.15
929.83	1715.38
930.00	1836.62
930.17	1934.92
930.35	1687.32
930.52	1784.19
930.69	2056.16
930.86	1788.08
931.03	1864.27
931.20	1646.36
931.37	2047.56
931.55	1864.27
931.72	1863.24
931.89	1698.59
932.06	1760.64
932.23	2067.22
932.40	1892.73
932.57	1870.61
932.74	2047.56
932.92	2036.50
933.09	1928.16
933.26	1592.91
933.43	1822.69
933.60	1898.26
933.77	1828.63
933.94	1874.51
934.11	1833.75
934.29	1884.13
934.46	1743.23
934.63	1867.54
934.80	1718.45
934.97	1899.08
935.14	1834.57
935.31	1693.06
935.48	1783.58
935.65	1919.77
935.82	1880.85
936.00	1752.04
936.17	2067.22
936.34	1856.28
936.51	1909.32
936.68	1718.04
936.85	1905.84
937.02	1895.80
937.19	1904.00
937.36	1817.57
937.53	1953.15
937.70	1962.16
937.87	1847.06
938.05	1895.80
938.22	1885.16
938.39	1747.53
938.56	1822.90
938.73	1746.30
938.90	1870.82
939.07	1782.96
939.24	1842.56
939.41	1660.08
939.58	1940.45
939.75	1978.95
939.92	1780.91
940.09	1968.92
940.26	1868.98
940.43	1979.77
940.60	1807.95
940.77	1790.54
940.95	1925.91
941.12	1962.16
941.29	1784.19
941.46	1843.38
941.63	2031.18
941.80	2092.20
941.97	1696.54
942.14	1702.27
942.31	1972.19
942.48	1847.68
942.65	1848.29
942.82	1823.92
942.99	1959.70
943.16	1886.38
943.33	1745.89
943.50	1755.31
943.67	1960.52
943.84	2016.84
944.01	1794.23
944.18	1741.18
944.35	2030.56
944.52	1781.73
944.69	1862.42
944.86	1699.20
945.03	1988.58
945.20	2187.23
945.37	1668.68
945.54	1846.24
945.71	2054.11
945.88	2111.46
946.05	1745.89
946.22	1721.93
946.39	2069.88
946.56	1869.59
946.73	1713.74
946.90	1746.30
947.07	1862.22
947.24	1891.09
947.41	1657.01
947.58	1916.28
947.75	1959.29
947.92	1915.87
948.09	1598.03
948.26	1701.25
948.43	1920.99
948.60	2107.16
948.77	1747.12
948.94	1791.36
949.11	1959.29
949.27	1947.62
949.44	1752.45
949.61	1759.61
949.78	1944.14
949.95	1982.23
950.12	1723.98
950.29	1686.50
950.46	1815.93
950.63	2011.31
950.80	1753.47
950.97	1817.78
951.14	1991.65
951.31	1858.12
951.48	1755.11
951.65	1682.20
951.82	2111.87
951.99	1901.95
952.15	1707.80
952.32	1802.62
952.49	1830.06
952.66	1813.48
952.83	1771.90
953.00	1726.64
953.17	1856.69
953.34	1981.00
953.51	1834.16
953.68	1803.24
953.85	2012.33
954.02	2048.38
954.18	1811.63
954.35	1820.03
954.52	1776.82
954.69	1899.49
954.86	1631.62
955.03	1823.72
955.20	1954.17
955.37	1882.08
955.54	1784.19
955.71	1758.39
955.87	1927.96
956.04	2097.94
956.21	1803.24
956.38	1729.10
956.55	1906.25
956.72	2194.40
956.89	1825.15
957.06	1740.36
957.23	1812.66
957.39	2034.25
957.56	1781.53
957.73	1714.35
957.90	1650.05
958.07	2114.73
958.24	1845.63
958.41	1769.24
958.57	1967.69
958.74	1887.00
958.91	1698.99
959.08	1764.12
959.25	1965.85
959.42	1874.71
959.59	1817.37
959.75	1763.10
959.92	2019.30
960.09	2010.70
960.26	1734.63
960.43	1818.19
960.60	1893.96
960.76	1859.76
960.93	1692.03
961.10	1838.05
961.27	1997.18
961.44	1852.59
961.61	1718.86
961.77	1731.56
961.94	1896.21
962.11	1996.97
962.28	1806.51
962.45	1723.78
962.62	1847.47
962.78	2010.29
962.95	1719.06
963.12	1767.60
963.29	1962.57
963.46	2256.45
963.62	1845.22
963.79	1788.08
963.96	2190.10
964.13	1846.45
964.30	1881.67
964.46	1768.83
964.63	1784.19
964.80	2238.23
964.97	1682.00
965.14	1926.32
965.30	1988.58
965.47	2054.73
965.64	1996.97
965.81	1955.20
965.98	2142.79
966.14	1940.04
966.31	1853.41
966.48	1825.76
966.65	2101.63
966.81	1968.92
966.98	1838.26
967.15	1850.13
967.32	1907.27
967.49	1805.28
967.65	1658.65
967.82	1651.07
967.99	1884.34
968.16	1717.84
968.32	1939.84
968.49	1788.49
968.66	1889.25
968.83	2103.26
968.99	1839.28
969.16	1721.32
969.33	2050.84
969.50	1962.77
969.66	1931.85
969.83	2001.28
970.00	1973.83
970.17	1958.68
970.33	1795.86
970.50	1711.90
970.67	2091.80
970.84	2061.28
971.00	1724.59
971.17	1717.43
971.34	1965.23
971.50	1864.06
971.67	1912.60
971.84	1839.49
972.01	1742.21
972.17	1643.70
972.34	1721.11
972.51	1898.47
972.67	1997.79
972.84	1916.69
973.01	1733.81
973.18	1766.37
973.34	1991.85
973.51	1796.07
973.68	1811.63
973.84	1818.19
974.01	1846.86
974.18	2119.65
974.34	1843.38
974.51	1860.58
974.68	1794.43
974.85	2154.26
975.01	1915.06
975.18	1828.43
975.35	1885.36
975.51	1795.25
975.68	1679.74
975.85	1904.00
976.01	1801.19
976.18	2034.25
976.35	1776.20
976.51	1765.55
976.68	2069.68
976.85	2013.15
977.01	1817.78
977.18	1892.32
977.35	1951.51
977.51	1750.81
977.68	1672.99
977.85	1682.82
978.01	1994.72
978.18	1978.34
978.35	1823.31
978.51	1832.52
978.68	2032.40
978.85	2072.13
979.01	1794.43
979.18	1832.93
979.34	1858.53
979.51	1902.97
979.68	1729.30
979.84	1804.06
980.01	2197.27
980.18	1893.35
980.34	1755.31
980.51	1866.52
980.67	1988.78
980.84	1990.42
981.01	1800.37
981.17	1851.77
981.34	1681.38
981.51	1965.03
981.67	1740.57
981.84	1884.75
982.00	1941.06
982.17	1857.10
982.34	1666.64
982.50	1574.48
982.67	2061.89
982.83	1812.45
983.00	1708.21
983.17	1622.40
983.33	2002.50
983.50	1689.78
983.66	1684.86
983.83	1604.38
984.00	1839.49
984.16	1893.35
984.33	1619.74
984.49	1593.73
984.66	1784.80
984.83	1968.71
984.99	1652.30
985.16	1617.08
985.32	1949.26
985.49	1991.24
985.65	1727.05
985.82	1596.19
985.99	2046.54
986.15	1892.53
986.32	1689.16
986.48	1667.46
986.65	1810.40
986.81	1983.46
986.98	1625.27
987.14	1664.38
987.31	1906.45
987.48	1698.59
987.64	1547.45
987.81	1587.99
987.97	2148.11
988.14	1797.50
988.30	1635.71
988.47	1523.89
988.63	1937.79
988.80	1759.00
988.96	1682.00
989.13	1745.28
989.30	1848.70
989.46	1990.42
989.63	1596.39
989.79	1600.49
989.96	1852.59
990.12	2076.03
990.29	1647.18
990.45	1676.67
990.62	1877.99
990.78	2018.48
990.95	1741.59
991.11	1660.29
991.28	1784.40
991.44	1909.94
991.61	1558.71
991.77	1705.55
991.94	1909.94
992.10	2014.18
992.27	1725.82
992.43	1670.94
992.60	1920.18
992.76	1824.94
992.93	1790.33
993.09	1615.44
993.26	1999.23
993.42	2086.88
993.59	1657.01
993.75	1594.55
993.92	1773.54
994.08	1820.44
994.25	1735.65
994.41	1635.71
994.58	1966.05
994.74	2059.44
994.91	1612.57
995.07	1701.04
995.24	1871.02
995.40	1892.94
995.56	1788.90
995.73	1732.17
995.89	2068.24
996.06	1849.73
996.22	1630.80
996.39	1561.58
996.55	1862.01
996.72	1918.33
996.88	1563.62
997.05	1626.09
997.21	2136.65
997.37	1939.84
997.54	1716.40
997.70	1656.81
997.87	1926.11
998.03	1885.16
998.20	1571.00
998.36	1598.85
998.52	1961.13
998.69	1975.68
998.85	1568.33
999.02	1680.97
999.18	1982.23
999.35	1992.67
999.51	1666.23
999.67	1669.91
999.84	1750.60
1000.00	1982.84
1000.17	1719.06
1000.33	1614.00
1000.49	1813.27
1000.66	1839.49
1000.82	1624.04
1000.99	1727.46
1001.15	2038.14
1001.31	1830.88
1001.48	1662.54
1001.64	1730.94
1001.81	1830.47
1001.97	2127.63
1002.13	1629.98
1002.30	1654.76
1002.46	2036.70
1002.63	1828.63
1002.79	1716.81
1002.95	1639.40
1003.12	2013.36
1003.28	1943.52
1003.45	1636.94
1003.61	1603.15
1003.77	1903.18
1003.94	1730.74
1004.10	1634.69
1004.26	1704.73
1004.43	1964.82
1004.59	2095.48
1004.75	1664.79
1004.92	1631.21
1005.08	1835.80
1005.25	1916.28
1005.41	1636.33
1005.57	1732.38
1005.74	2023.60
1005.90	1845.63
1006.06	1755.52
1006.23	1683.43
1006.39	1946.80
1006.55	2218.36
1006.72	1802.01
1006.88	1624.24
1007.04	1772.52
1007.21	1837.23
1007.37	1687.32
1007.53	1656.81
1007.70	2053.70
1007.86	1988.99
1008.02	1700.84
1008.19	1625.27
1008.35	1885.77
1008.51	1766.58
1008.68	1659.06
1008.84	1575.50
1009.00	1757.77
1009.17	2000.25
1009.33	1796.48
1009.49	1712.10
1009.65	1758.80
1009.82	1913.01
1009.98	1719.06
1010.14	1549.70
1010.31	1969.53
1010.47	1931.44
1010.63	1725.41
1010.80	1720.91
1010.96	1932.26
1011.12	1863.24
1011.28	1655.58
1011.45	1635.92
1011.61	2216.72
1011.77	1761.05
1011.94	1635.51
1012.10	1586.56
1012.26	1745.69
1012.42	1823.31
1012.59	1680.36
1012.75	1702.68
1012.91	1840.92
1013.07	1991.04
1013.24	1613.39
1013.40	1654.76
1013.56	1881.06
1013.72	1851.36
1013.89	1711.90
1014.05	1714.56
1014.21	2126.20
1014.37	2183.95
1014.54	1706.78
1014.70	1594.96
1014.86	1860.58
1015.02	1751.01
1015.19	1669.91
1015.35	1604.38
1015.51	1849.32
1015.67	1795.86
1015.84	1668.89
1016.00	1644.72
1016.16	1990.63
1016.32	1954.79
1016.49	1639.81
1016.65	1621.17
1016.81	1871.64
1016.97	1941.47
1017.14	1764.73
1017.30	1645.13
1017.46	1812.86
1017.62	1896.21
1017.78	1730.94
1017.95	1632.23
1018.11	1993.70
1018.27	2175.97
1018.43	1766.99
1018.59	1727.05
1018.76	1971.78
1018.92	2209.96
1019.08	1621.58
1019.24	1641.24
1019.40	2056.57
1019.57	1904.20
1019.73	1737.91
1019.89	1637.15
1020.05	1908.91
1020.21	2132.55
1020.38	1616.26
1020.54	1798.12
1020.70	1961.75
1020.86	1947.62
1021.02	1661.72
1021.18	1647.80
1021.35	1815.11
1021.51	1939.84
1021.67	1788.70
1021.83	1655.58
1021.99	1887.20
1022.15	1908.91
1022.32	1740.57
1022.48	1706.37
1022.64	2060.46
1022.80	2047.56
1022.96	1686.50
1023.12	1589.84
1023.29	1998.00
1023.45	1911.16
1023.61	1667.46
1023.77	1808.97
1023.93	1909.94
1024.09	1777.02
1024.25	1623.22
1024.42	1588.20
1024.58	1821.87
1024.74	1913.42
1024.90	1682.82
1025.06	1713.95
1025.22	1798.94
1025.38	2069.88
1025.54	1620.97
1025.71	1736.27
1025.87	1958.88
1026.03	1954.99
1026.19	1601.72
1026.35	1772.31
1026.51	1950.49
1026.67	1888.43
1026.83	1701.86
1026.99	1761.46
1027.16	1921.81
1027.32	1859.15
1027.48	1696.74
1027.64	1624.45
1027.80	1959.29
1027.96	1877.58
1028.12	1673.19
1028.28	1618.10
1028.44	1931.85
1028.60	2076.44
1028.77	1779.28
1028.93	1715.99
1029.09	1837.44
1029.25	1762.48
1029.41	1722.75
1029.57	1719.88
1029.73	1923.25
1029.89	2070.09
1030.05	1810.20
1030.21	1732.99
1030.37	2163.68
1030.53	1949.46
1030.69	1688.14
1030.85	1603.56
1031.02	1779.07
1031.18	1888.23
1031.34	1673.80
1031.50	1747.33
1031.66	1807.13
1031.82	2054.52
1031.98	1708.42
1032.14	1630.80
1032.30	1739.14
1032.46	1983.46
1032.62	1780.91
1032.78	1601.72
1032.94	1811.43
1033.10	1836.21
1033.26	1725.21
1033.42	1743.44
1033.58	2169.62
1033.74	1818.60
1033.90	1644.31
1034.06	1827.40
1034.22	2164.09
1034.38	2025.24
1034.54	1685.89
1034.70	1703.91
1034.86	2101.83
>>>>>End Processed Spectral Data<<<<<
