SpectraSuite Data File
++++++++++++++++++++++++++++++++++++
Date: Thu Mar 30 14:35:28 PDT 2017
User: UCSD _CER
Dark Spectrum Present: No
Reference Spectrum Present: No
Number of Sampled Component Spectra: 1
Spectrometers: USB4C00073
Integration Time (usec): 380000 (USB4C00073)
Spectra Averaged: 10 (USB4C00073)
Boxcar Smoothing: 0 (USB4C00073)
Correct for Electrical Dark: No (USB4C00073)
Strobe/Lamp Enabled: No (USB4C00073)
Correct for Detector Non-linearity: No (USB4C00073)
Correct for Stray Light: No (USB4C00073)
Number of Pixels in Processed Spectrum: 3648
>>>>>Begin Processed Spectral Data<<<<<
345.37	1237.79
345.58	1237.79
345.80	1237.79
346.01	1231.44
346.22	1276.09
346.43	2047.76
346.65	1934.10
346.86	2481.73
347.07	2434.01
347.28	1858.53
347.50	1845.22
347.71	2188.87
347.92	1884.95
348.13	1822.28
348.35	1850.95
348.56	2182.11
348.77	1963.80
348.98	1850.75
349.20	1684.86
349.41	2188.66
349.62	2314.41
349.83	1968.10
350.05	1839.49
350.26	2249.49
350.47	2410.46
350.68	1859.15
350.90	1769.85
351.11	2416.40
351.32	2418.45
351.53	1909.12
351.75	1823.72
351.96	2205.46
352.17	2156.31
352.38	1926.32
352.60	1910.35
352.81	2203.82
353.02	2485.01
353.23	1826.58
353.44	1862.63
353.66	2046.74
353.87	2127.23
354.08	1920.59
354.29	1852.59
354.51	2041.82
354.72	2087.90
354.93	1811.84
355.14	1808.56
355.35	1904.00
355.57	2325.88
355.78	1852.39
355.99	1938.61
356.20	2150.16
356.42	2129.07
356.63	1936.56
356.84	1839.69
357.05	2294.34
357.26	2560.78
357.48	2014.18
357.69	1890.89
357.90	2219.18
358.11	2100.60
358.32	1867.75
358.54	1904.82
358.75	2082.58
358.96	2307.45
359.17	1829.86
359.38	1873.28
359.60	2267.72
359.81	2122.51
360.02	1853.21
360.23	1806.10
360.44	2043.67
360.66	2341.03
360.87	1819.21
361.08	1807.33
361.29	2226.96
361.50	2181.91
361.72	1820.23
361.93	1939.43
362.14	2164.50
362.35	1889.05
362.56	2023.60
362.77	1740.57
362.99	2277.75
363.20	2157.33
363.41	1944.55
363.62	1709.23
363.83	2270.99
364.05	2346.77
364.26	1810.81
364.47	1802.01
364.68	2331.41
364.89	2012.13
365.10	1763.51
365.32	1885.77
365.53	1991.85
365.74	2046.13
365.95	1842.35
366.16	1725.82
366.37	2131.94
366.59	2127.23
366.80	1849.93
367.01	1750.19
367.22	2502.21
367.43	2673.01
367.64	1924.68
367.86	1878.19
368.07	2231.67
368.28	2366.22
368.49	1765.14
368.70	1890.28
368.91	2102.24
369.12	2142.99
369.34	1759.82
369.55	1754.29
369.76	2168.59
369.97	2085.45
370.18	1761.05
370.39	1819.62
370.60	1915.87
370.82	1969.94
371.03	1887.41
371.24	1839.90
371.45	2301.10
371.66	2256.45
371.87	1819.42
372.08	1852.59
372.30	1968.71
372.51	2331.20
372.72	1985.30
372.93	1843.99
373.14	2448.14
373.35	2025.24
373.56	1796.07
373.78	1862.42
373.99	2324.03
374.20	2667.27
374.41	1831.91
374.62	1864.06
374.83	2423.98
375.04	2083.19
375.25	1889.46
375.47	1898.26
375.68	2070.09
375.89	2292.09
376.10	1891.91
376.31	1915.87
376.52	2220.41
376.73	2224.71
376.94	1901.13
377.15	1805.90
377.37	2165.52
377.58	2115.96
377.79	1734.83
378.00	1795.66
378.21	2220.41
378.42	2260.75
378.63	1893.14
378.84	1939.22
379.05	2345.95
379.27	2157.74
379.48	1962.98
379.69	1815.32
379.90	2384.04
380.11	1856.69
380.32	1858.53
380.53	2017.45
380.74	2423.98
380.95	2167.57
381.16	1903.79
381.37	1892.53
381.59	2416.60
381.80	2334.27
382.01	1838.46
382.22	1775.18
382.43	2265.05
382.64	2147.91
382.85	1781.53
383.06	1912.60
383.27	2268.74
383.48	2105.93
383.69	1889.87
383.91	1813.27
384.12	2272.63
384.33	2238.43
384.54	1901.95
384.75	1793.41
384.96	2736.09
385.17	2349.84
385.38	1888.02
385.59	1853.21
385.80	2315.23
386.01	2429.51
386.22	1974.65
386.43	1888.84
386.64	2599.90
386.86	2150.16
387.07	1972.19
387.28	1811.63
387.49	2102.85
387.70	2426.43
387.91	1991.85
388.12	1875.32
388.33	2267.31
388.54	2069.27
388.75	1829.25
388.96	1945.78
389.17	2056.98
389.38	2146.27
389.59	1934.72
389.80	1959.50
390.01	2132.14
390.22	2099.78
390.43	1959.09
390.64	1772.11
390.86	2267.10
391.07	2361.10
391.28	1875.12
391.49	1918.95
391.70	1952.74
391.91	2030.77
392.12	1854.64
392.33	1930.62
392.54	2162.65
392.75	2131.94
392.96	1939.63
393.17	1841.94
393.38	2574.09
393.59	2346.36
393.80	1787.47
394.01	1890.07
394.22	2129.27
394.43	2466.78
394.64	1748.97
394.85	1952.12
395.06	2110.02
395.27	2184.57
395.48	1848.29
395.69	1771.49
395.90	2104.70
396.11	2147.70
396.32	1855.05
396.53	1947.62
396.74	2124.77
396.95	2369.09
397.16	1860.78
397.37	1731.76
397.58	2310.93
397.79	2153.44
398.00	1917.10
398.21	1875.94
398.42	2224.30
398.63	2549.31
398.84	1842.15
399.05	1841.53
399.26	2388.55
399.47	2237.20
399.68	1709.03
399.89	1793.20
400.10	1946.80
400.31	2081.15
400.52	1926.73
400.73	1834.37
400.94	1933.69
401.15	2207.30
401.36	1894.99
401.57	1915.26
401.78	2357.01
401.99	2330.59
402.20	1806.72
402.41	1982.64
402.62	2426.84
402.83	2122.11
403.04	1829.86
403.25	2039.37
403.46	2218.97
403.67	2415.17
403.88	1865.49
404.09	1822.90
404.30	2022.78
404.51	2037.73
404.72	1800.16
404.93	2019.09
405.14	2027.28
405.35	2156.31
405.56	1883.93
405.77	1807.74
405.98	2206.89
406.19	2127.84
406.40	1805.69
406.61	1829.25
406.82	2064.76
407.03	2610.55
407.24	1778.66
407.45	1897.85
407.66	2240.48
407.87	2341.03
408.08	1950.28
408.29	1951.30
408.49	2263.21
408.70	2129.68
408.91	1838.26
409.12	2002.30
409.33	1986.94
409.54	2377.08
409.75	1803.85
409.96	1900.92
410.17	2312.57
410.38	2140.33
410.59	1810.40
410.80	1972.81
411.01	2114.12
411.22	2104.29
411.43	1936.15
411.64	1831.91
411.85	2012.33
412.06	1982.23
412.27	1675.65
412.47	1845.63
412.68	2146.89
412.89	2222.87
413.10	1855.46
413.31	1767.81
413.52	2547.88
413.73	2508.56
413.94	1837.23
414.15	2012.54
414.36	2043.05
414.57	1978.95
414.78	1795.04
414.99	1814.91
415.19	2271.40
415.40	2171.05
415.61	2024.83
415.82	1977.72
416.03	2279.59
416.24	2247.44
416.45	1893.96
416.66	1776.82
416.87	1924.27
417.08	2241.30
417.29	1806.72
417.50	1915.06
417.70	2237.20
417.91	2215.70
418.12	1933.90
418.33	1855.25
418.54	2246.83
418.75	2364.58
418.96	2038.34
419.17	1978.13
419.38	2440.15
419.59	2325.26
419.79	2024.83
420.00	1963.80
420.21	2642.08
420.42	2183.75
420.63	1855.05
420.84	1918.33
421.05	2148.73
421.26	2165.11
421.47	1789.11
421.67	2243.75
421.88	2007.62
422.09	1967.89
422.30	2092.82
422.51	1893.14
422.72	2500.98
422.93	2335.30
423.14	1918.33
423.35	1771.90
423.55	1889.25
423.76	2043.05
423.97	1876.96
424.18	1769.85
424.39	2118.83
424.60	2304.78
424.81	1880.04
425.02	1969.12
425.22	2119.65
425.43	2117.80
425.64	2073.57
425.85	1938.81
426.06	2528.63
426.27	2338.17
426.48	2027.69
426.68	1983.87
426.89	2327.93
427.10	2490.33
427.31	1932.46
427.52	1843.99
427.73	2302.12
427.94	2236.18
428.14	2044.69
428.35	1927.14
428.56	2404.11
428.77	2306.83
428.98	1916.69
429.19	1902.56
429.40	2097.12
429.60	2127.02
429.81	2006.60
430.02	1905.84
430.23	2148.52
430.44	2300.48
430.65	1819.01
430.85	1878.19
431.06	2240.89
431.27	1888.64
431.48	1870.21
431.69	1914.65
431.90	2181.09
432.10	2205.25
432.31	1930.62
432.52	1853.21
432.73	2590.27
432.94	2411.89
433.15	2038.55
433.35	1855.46
433.56	2390.59
433.77	2187.64
433.98	2105.31
434.19	2008.65
434.40	2342.67
434.60	2330.59
434.81	2123.95
435.02	2021.14
435.23	2217.54
435.44	2094.25
435.64	1822.28
435.85	1834.98
436.06	2124.15
436.27	2086.88
436.48	1799.55
436.68	1851.16
436.89	2513.27
437.10	2321.37
437.31	1939.84
437.52	2077.46
437.73	2263.01
437.93	2250.51
438.14	1975.47
438.35	1764.73
438.56	2092.20
438.77	2151.60
438.97	2050.84
439.18	1874.92
439.39	2366.43
439.60	1972.81
439.80	1857.51
440.01	1904.00
440.22	2078.89
440.43	2284.10
440.64	1852.80
440.84	1948.44
441.05	1964.82
441.26	2658.06
441.47	1970.56
441.68	1911.57
441.88	2213.85
442.09	2195.22
442.30	2152.62
442.51	2182.32
442.71	2262.80
442.92	2313.80
443.13	1969.53
443.34	1897.85
443.55	2027.28
443.75	2264.64
443.96	1860.78
444.17	1807.95
444.38	2361.31
444.58	1999.64
444.79	1995.13
445.00	1936.76
445.21	2118.62
445.41	2108.59
445.62	1738.93
445.83	2018.07
446.04	2181.29
446.24	1942.29
446.45	1744.25
446.66	1889.05
446.87	2233.11
447.07	2071.52
447.28	2115.96
447.49	1928.98
447.70	2307.24
447.90	2380.15
448.11	1953.76
448.32	2039.57
448.53	2405.54
448.73	2376.67
448.94	1873.89
449.15	2057.39
449.36	2171.87
449.56	2232.70
449.77	1887.41
449.98	1796.07
450.19	2078.07
450.39	2099.99
450.60	1973.42
450.81	1994.52
451.02	2126.82
451.22	2432.99
451.43	1873.69
451.64	1897.24
451.84	2076.85
452.05	2356.19
452.26	1924.68
452.47	1934.31
452.67	2097.32
452.88	2394.28
453.09	1807.74
453.30	1813.27
453.50	2309.49
453.71	2498.11
453.92	1956.01
454.12	2124.15
454.33	2162.45
454.54	2211.40
454.75	1919.36
454.95	1921.81
455.16	2218.15
455.37	2305.40
455.57	2015.20
455.78	1921.40
455.99	2132.96
456.19	2172.89
456.40	1847.06
456.61	1919.36
456.82	2154.05
457.02	2305.60
457.23	2019.71
457.44	2187.44
457.64	2173.71
457.85	2334.68
458.06	2019.09
458.26	2113.91
458.47	2156.10
458.68	2349.63
458.89	1883.52
459.09	2064.97
459.30	2534.57
459.51	2173.30
459.71	1774.77
459.92	1862.42
460.13	2312.98
460.33	2576.34
460.54	1982.02
460.75	1979.16
460.95	2002.50
461.16	2259.11
461.37	1911.78
461.57	1899.90
461.78	2193.17
461.99	1958.88
462.19	2171.26
462.40	1873.89
462.61	2538.66
462.81	2340.21
463.02	1871.23
463.23	1906.25
463.43	2300.69
463.64	2067.01
463.85	3199.95
464.05	1868.36
464.26	2737.93
464.47	2403.09
464.67	2085.86
464.88	2060.05
465.09	2072.34
465.29	2273.86
465.50	2109.82
465.71	2060.05
465.91	2119.44
466.12	2179.65
466.33	1987.96
466.53	1878.19
466.74	2416.40
466.94	2104.90
467.15	1982.84
467.36	2101.83
467.56	1988.17
467.77	2201.36
467.98	1940.04
468.18	1916.90
468.39	2056.16
468.60	2481.32
468.80	1923.04
469.01	1872.05
469.21	2233.11
469.42	2392.64
469.63	1956.22
469.83	1878.81
470.04	2293.72
470.25	2445.27
470.45	2032.40
470.66	1940.25
470.86	2223.07
471.07	2086.06
471.28	1977.11
471.48	2007.83
471.69	2119.03
471.90	2894.19
472.10	2054.93
472.31	2026.06
472.51	2197.88
472.72	2179.24
472.93	1957.04
473.13	2119.85
473.34	2284.51
473.54	2217.13
473.75	2028.51
473.96	2155.69
474.16	2148.73
474.37	2246.42
474.57	2029.13
474.78	1867.95
474.99	2206.89
475.19	2175.15
475.40	1953.76
475.60	1912.19
475.81	2542.76
476.02	2244.78
476.22	2121.49
476.43	2174.94
476.63	2197.68
476.84	2428.48
477.05	1872.25
477.25	1916.69
477.46	2699.43
477.66	2203.00
477.87	1891.50
478.08	1912.39
478.28	2303.35
478.49	2093.84
478.69	1921.20
478.90	1934.72
479.10	2263.42
479.31	2463.50
479.52	1993.08
479.72	2056.37
479.93	2304.58
480.13	2125.59
480.34	2002.50
480.54	2044.69
480.75	2054.93
480.96	2374.21
481.16	1895.40
481.37	2041.01
481.57	2335.09
481.78	2275.29
481.98	2158.15
482.19	2056.57
482.40	2507.74
482.60	2279.59
482.81	2068.04
483.01	1843.58
483.22	2321.17
483.42	2327.93
483.63	2039.37
483.83	1961.34
484.04	2081.35
484.24	2311.54
484.45	2111.05
484.66	1897.44
484.86	2236.59
485.07	2062.51
485.27	2004.14
485.48	1892.94
485.68	2379.33
485.89	2022.78
486.09	2058.00
486.30	1927.75
486.50	2187.03
486.71	2152.21
486.91	2027.08
487.12	2164.91
487.33	2708.03
487.53	2794.25
487.74	2443.02
487.94	2301.10
488.15	2404.52
488.35	2368.48
488.56	2056.57
488.76	1946.18
488.97	2164.29
489.17	2289.42
489.38	2047.97
489.58	1958.68
489.79	2261.57
489.99	2220.82
490.20	1965.64
490.40	2063.33
490.61	2271.20
490.81	2078.28
491.02	1996.56
491.22	2002.91
491.43	2299.66
491.63	2151.19
491.84	2096.30
492.04	1855.66
492.25	2268.74
492.45	2131.32
492.66	1919.15
492.86	1856.28
493.07	2126.41
493.27	2519.62
493.48	1833.75
493.68	1903.18
493.89	2136.44
494.09	2286.97
494.30	1976.29
494.50	2179.86
494.71	2238.02
494.91	1890.89
495.12	1976.09
495.32	1996.97
495.53	2148.52
495.73	1958.27
495.94	2112.48
496.14	1909.12
496.35	2617.71
496.55	2225.12
496.76	1981.82
496.96	2024.83
497.17	2170.85
497.37	2235.56
497.58	1931.03
497.78	1859.76
497.98	2118.42
498.19	2113.71
498.39	1921.40
498.60	1962.36
498.80	1858.53
499.01	2270.17
499.21	1839.08
499.42	2028.51
499.62	2136.24
499.83	2543.37
500.03	1829.25
500.24	2091.59
500.44	2412.10
500.64	2351.07
500.85	1911.16
501.05	2088.72
501.26	1903.79
501.46	2379.74
501.67	1902.36
501.87	1847.47
502.08	2010.08
502.28	2115.76
502.48	2020.53
502.69	2049.81
502.89	1916.28
503.10	2021.35
503.30	2012.95
503.51	1992.26
503.71	1949.67
503.92	2261.98
504.12	1993.90
504.32	1880.65
504.53	2281.64
504.73	2227.17
504.94	2084.22
505.14	2166.75
505.35	2275.50
505.55	2224.09
505.75	1946.18
505.96	2141.77
506.16	2504.26
506.37	2067.22
506.57	1894.78
506.78	2051.45
506.98	2333.46
507.18	1918.33
507.39	1861.40
507.59	1934.31
507.80	2031.18
508.00	2158.76
508.20	2146.68
508.41	1961.54
508.61	2367.86
508.82	2299.25
509.02	2099.37
509.22	1890.28
509.43	1965.64
509.63	2053.29
509.84	1970.35
510.04	1828.63
510.24	2420.90
510.45	2273.25
510.65	1876.14
510.86	2029.95
511.06	1982.43
511.26	2285.74
511.47	2132.35
511.67	1906.04
511.88	2233.72
512.08	2351.27
512.28	1875.32
512.49	2040.19
512.69	2191.94
512.90	2175.76
513.10	1939.43
513.30	2021.14
513.51	2253.99
513.71	2442.00
513.91	2044.69
514.12	2016.43
514.32	2314.00
514.53	2041.82
514.73	2024.21
514.93	1949.26
515.14	2148.73
515.34	2348.82
515.54	1917.51
515.75	1994.72
515.95	2261.16
516.15	2399.60
516.36	1989.81
516.56	2007.42
516.77	1788.08
516.97	2252.97
517.17	1966.87
517.38	2077.25
517.58	2397.97
517.78	2096.51
517.99	2043.26
518.19	1940.45
518.39	2354.96
518.60	2033.22
518.80	1851.77
519.00	1997.79
519.21	2092.00
519.41	2454.08
519.61	1884.34
519.82	2062.71
520.02	2167.57
520.22	2133.57
520.43	1914.24
520.63	2040.80
520.83	2067.42
521.04	1885.36
521.24	2065.38
521.44	1985.30
521.65	1989.81
521.85	2247.65
522.05	1919.77
522.26	1901.33
522.46	2487.67
522.66	2286.97
522.87	1971.99
523.07	2146.89
523.27	2089.54
523.48	2385.47
523.68	1979.57
523.88	2043.26
524.09	2344.72
524.29	2193.99
524.49	1826.38
524.70	2036.70
524.90	2369.09
525.10	2220.41
525.31	1867.54
525.51	1850.95
525.71	2296.39
525.91	2250.72
526.12	1953.35
526.32	1877.99
526.52	2085.24
526.73	2045.10
526.93	2038.34
527.13	1867.95
527.34	2134.80
527.54	2120.67
527.74	1986.73
527.94	1870.00
528.15	1986.32
528.35	2162.45
528.55	2088.93
528.76	2019.91
528.96	1893.96
529.16	2305.81
529.36	2069.47
529.57	1870.82
529.77	2371.55
529.97	2016.63
530.18	2077.46
530.38	1946.59
530.58	2248.67
530.78	2126.61
530.99	1957.24
531.19	2055.14
531.39	2051.04
531.60	2156.10
531.80	2024.21
532.00	2135.83
532.20	2181.50
532.41	2045.51
532.61	1924.48
532.81	1944.34
533.01	2095.69
533.22	2227.78
533.42	2106.34
533.62	1826.79
533.82	2371.55
534.03	2103.06
534.23	2091.18
534.43	1923.66
534.63	2047.97
534.84	2183.34
535.04	2085.24
535.24	2012.33
535.44	2623.65
535.65	2092.20
535.85	1959.09
536.05	1922.84
536.25	2160.61
536.46	1984.89
536.66	2106.75
536.86	2023.39
537.06	2273.65
537.27	2351.27
537.47	2005.37
537.67	1970.97
537.87	2423.36
538.08	2129.48
538.28	1876.55
538.48	1865.29
538.68	2097.32
538.88	2272.22
539.09	1844.40
539.29	1985.10
539.49	2309.49
539.69	2217.34
539.90	2052.47
540.10	1891.50
540.30	2366.22
540.50	2073.16
540.70	1842.35
540.91	1923.66
541.11	2308.68
541.31	2418.04
541.51	2033.22
541.72	2056.57
541.92	2185.18
542.12	2019.71
542.32	1979.36
542.52	1954.38
542.73	2038.96
542.93	2261.98
543.13	1962.16
543.33	2079.30
543.53	2295.16
543.74	2264.64
543.94	1916.28
544.14	2070.09
544.34	2354.55
544.54	2152.82
544.75	2029.33
544.95	2147.50
545.15	2267.51
545.35	2409.84
545.55	2100.60
545.75	1998.41
545.96	2542.76
546.16	2035.48
546.36	1982.02
546.56	2034.45
546.76	2331.00
546.97	2465.96
547.17	2010.90
547.37	2095.28
547.57	2075.41
547.77	2293.52
547.97	2081.56
548.18	2059.03
548.38	2137.87
548.58	2376.67
548.78	1898.06
548.98	1969.33
549.18	2257.48
549.39	2394.28
549.59	2045.72
549.79	2005.17
549.99	2383.84
550.19	2291.68
550.39	2138.49
550.60	2017.04
550.80	2203.82
551.00	2222.66
551.20	1970.76
551.40	1983.46
551.60	2233.51
551.80	2210.58
552.01	2074.39
552.21	1994.31
552.41	2175.35
552.61	2472.92
552.81	2087.08
553.01	1924.89
553.21	2238.23
553.42	1980.39
553.62	1973.22
553.82	1917.10
554.02	2389.57
554.22	2302.53
554.42	1916.69
554.62	2097.12
554.83	2393.46
555.03	2387.52
555.23	1979.98
555.43	2214.88
555.63	2169.82
555.83	2147.50
556.03	2085.65
556.23	1852.80
556.44	2165.52
556.64	2340.42
556.84	1746.30
557.04	1989.40
557.24	2181.50
557.44	2165.93
557.64	2048.17
557.84	1926.73
558.04	2077.66
558.25	2284.51
558.45	1892.12
558.65	2022.16
558.85	2164.09
559.05	1850.13
559.25	1990.01
559.45	2055.55
559.65	2507.74
559.85	3004.17
560.05	2018.27
560.26	2028.72
560.46	2129.27
560.66	2032.81
560.86	1961.34
561.06	1923.04
561.26	2401.04
561.46	2265.26
561.66	1983.66
561.86	2107.16
562.06	2015.61
562.26	2124.77
562.47	2028.72
562.67	1878.40
562.87	2309.08
563.07	1906.25
563.27	2033.63
563.47	2000.87
563.67	2108.18
563.87	2253.18
564.07	1926.73
564.27	1966.87
564.47	2148.32
564.67	2187.03
564.87	1956.22
565.08	2039.16
565.28	2053.09
565.48	2237.61
565.68	2060.46
565.88	2124.77
566.08	2513.06
566.28	2143.40
566.48	1873.89
566.68	2002.71
566.88	2128.04
567.08	2302.94
567.28	2057.39
567.48	2025.24
567.68	2235.56
567.88	1942.50
568.08	2021.14
568.28	2130.50
568.48	2122.31
568.68	2338.78
568.89	2025.03
569.09	1857.92
569.29	2293.32
569.49	2298.64
569.69	1924.48
569.89	1915.47
570.09	1857.71
570.29	2024.21
570.49	1877.17
570.69	1997.79
570.89	2295.36
571.09	2486.85
571.29	1872.46
571.49	2160.81
571.69	2256.66
571.89	2254.61
572.09	1994.11
572.29	2063.94
572.49	2326.08
572.69	2288.20
572.89	2032.61
573.09	1734.83
573.29	2125.79
573.49	2144.22
573.69	1988.78
573.89	2033.63
574.09	2072.54
574.29	2369.09
574.49	2021.55
574.69	1911.78
574.89	1942.09
575.09	1988.17
575.29	1871.64
575.49	2020.53
575.69	2216.31
575.89	1965.23
576.09	2025.85
576.29	2027.08
576.49	1973.83
576.69	2112.89
576.89	1949.05
577.09	2014.38
577.29	1923.86
577.49	2489.72
577.69	1984.89
577.89	2153.03
578.09	2176.99
578.29	1893.14
578.49	2028.92
578.69	1921.40
578.89	2358.24
579.09	2158.56
579.29	1930.42
579.49	2122.31
579.69	2071.52
579.89	2447.73
580.09	1790.13
580.29	1857.71
580.49	2061.28
580.69	1970.15
580.89	1941.68
581.09	1986.12
581.29	2086.47
581.49	2124.77
581.69	1891.30
581.89	1929.80
582.09	2023.60
582.28	2001.28
582.48	2100.81
582.68	2104.70
582.88	2388.55
583.08	2103.47
583.28	2039.57
583.48	2014.79
583.68	2020.32
583.88	2158.56
584.08	2020.12
584.28	2062.71
584.48	2500.98
584.68	2239.45
584.88	1971.58
585.08	2192.96
585.28	2321.37
585.48	2359.87
585.68	2090.98
585.87	2144.02
586.07	2260.96
586.27	2153.23
586.47	2042.23
586.67	2014.38
586.87	2134.60
587.07	2077.25
587.27	1897.44
587.47	2045.31
587.67	2445.68
587.87	2647.20
588.07	2063.94
588.27	1954.38
588.46	2304.37
588.66	2290.24
588.86	2003.94
589.06	2047.97
589.26	2301.92
589.46	2259.52
589.66	1936.97
589.86	1915.06
590.06	2102.24
590.26	2181.70
590.46	1952.74
590.66	2068.86
590.85	2015.20
591.05	2142.38
591.25	1908.71
591.45	1998.20
591.65	2245.19
591.85	2161.84
592.05	1931.44
592.25	2048.17
592.45	2305.60
592.64	2065.99
592.84	2018.27
593.04	1903.79
593.24	2613.00
593.44	2040.19
593.64	2011.11
593.84	2084.63
594.04	2068.65
594.24	2437.49
594.43	1988.78
594.63	2014.18
594.83	2358.44
595.03	2283.08
595.23	1941.47
595.43	1877.58
595.63	2041.42
595.83	2299.87
596.02	1774.16
596.22	2014.79
596.42	2172.69
596.62	2152.82
596.82	1975.68
597.02	2044.28
597.22	2381.79
597.41	2176.99
597.61	1952.53
597.81	2122.31
598.01	2285.12
598.21	2085.65
598.41	1901.95
598.61	1900.72
598.80	2132.75
599.00	2187.85
599.20	2156.10
599.40	2005.58
599.60	2101.42
599.80	2286.97
599.99	2145.25
600.19	1965.85
600.39	2136.85
600.59	2259.32
600.79	2099.37
600.99	2022.98
601.19	2452.03
601.38	2497.91
601.58	2096.30
601.78	1774.16
601.98	2222.05
602.18	2198.49
602.37	2246.21
602.57	2024.83
602.77	2297.21
602.97	2191.53
603.17	2184.16
603.37	2119.85
603.56	2310.93
603.76	2268.33
603.96	2026.26
604.16	2044.90
604.36	2378.92
604.56	2300.69
604.75	1938.20
604.95	2054.93
605.15	2376.67
605.35	2313.18
605.55	1974.65
605.74	1929.80
605.94	2349.02
606.14	2169.21
606.34	2020.73
606.54	2084.01
606.73	2073.98
606.93	2272.63
607.13	1973.63
607.33	2077.46
607.53	2426.02
607.72	2348.61
607.92	2103.26
608.12	2167.77
608.32	2144.22
608.51	2294.13
608.71	1867.34
608.91	2085.65
609.11	2264.64
609.31	2088.93
609.50	1980.80
609.70	2202.39
609.90	2300.89
610.10	2332.64
610.29	1965.64
610.49	1891.30
610.69	2260.34
610.89	2159.79
611.09	1980.39
611.28	2197.47
611.48	2335.30
611.68	2111.25
611.88	2005.17
612.07	1909.94
612.27	2295.36
612.47	2013.56
612.67	2031.18
612.86	2122.11
613.06	2149.34
613.26	1934.31
613.46	1947.00
613.65	2064.15
613.85	2659.70
614.05	2244.98
614.25	2143.20
614.44	2011.31
614.64	2127.23
614.84	2055.75
615.04	1938.61
615.23	1968.51
615.43	2241.50
615.63	2255.22
615.83	1927.75
616.02	1814.91
616.22	2265.67
616.42	1908.71
616.62	1858.74
616.81	2008.85
617.01	2187.44
617.21	2128.25
617.41	1850.95
617.60	2031.99
617.80	2213.04
618.00	2251.54
618.19	2099.78
618.39	1984.69
618.59	2248.87
618.79	2209.35
618.98	1841.33
619.18	1997.79
619.38	2564.67
619.57	2122.92
619.77	1985.51
619.97	1994.31
620.17	2042.64
620.36	1925.50
620.56	2170.85
620.76	1874.30
620.95	1937.79
621.15	2046.74
621.35	1876.55
621.54	2004.96
621.74	2171.87
621.94	2024.83
622.14	1850.54
622.33	1852.80
622.53	2129.89
622.73	2105.52
622.92	1877.58
623.12	1983.46
623.32	2468.42
623.51	2300.48
623.71	1874.71
623.91	2164.50
624.10	1988.78
624.30	2150.16
624.50	1852.59
624.69	1843.99
624.89	2825.17
625.09	2078.07
625.29	1780.91
625.48	1872.46
625.68	2192.35
625.88	2326.29
626.07	2031.38
626.27	1937.99
626.47	2066.81
626.66	1901.54
626.86	1996.16
627.06	1995.54
627.25	2152.01
627.45	2452.03
627.64	1999.64
627.84	2154.46
628.04	2018.27
628.23	2538.25
628.43	1887.00
628.63	1912.60
628.82	2061.69
629.02	2475.99
629.22	2041.82
629.41	2138.28
629.61	2177.81
629.81	2492.99
630.00	1944.34
630.20	1882.08
630.40	2161.43
630.59	2218.36
630.79	1977.11
630.98	1959.70
631.18	2104.90
631.38	2138.28
631.57	2134.60
631.77	1845.83
631.97	2170.64
632.16	2208.73
632.36	2015.41
632.56	2032.81
632.75	2197.47
632.95	2357.83
633.14	1908.91
633.34	2191.53
633.54	1880.04
633.73	2068.45
633.93	1944.96
634.12	1853.82
634.32	2642.70
634.52	2147.50
634.71	1825.56
634.91	2027.08
635.11	1945.16
635.30	2013.56
635.50	2022.57
635.69	1896.42
635.89	2494.02
636.09	2300.48
636.28	1912.60
636.48	1916.28
636.67	2219.59
636.87	2255.43
637.07	2074.39
637.26	1952.94
637.46	2161.63
637.65	2304.58
637.85	2049.20
638.04	1932.67
638.24	2066.61
638.44	2222.05
638.63	2028.72
638.83	1974.65
639.02	2226.35
639.22	2265.46
639.42	1972.81
639.61	1960.32
639.81	2158.56
640.00	2128.66
640.20	2140.74
640.39	2035.89
640.59	2477.22
640.79	2285.33
640.98	2058.41
641.18	1921.61
641.37	2108.59
641.57	2030.36
641.76	2041.42
641.96	1774.36
642.15	2147.91
642.35	2038.96
642.55	2034.45
642.74	1872.66
642.94	2252.15
643.13	2406.16
643.33	1966.05
643.52	1904.00
643.72	2088.52
643.91	2179.24
644.11	1882.49
644.31	1911.37
644.50	2042.23
644.70	2354.75
644.89	2030.56
645.09	2079.10
645.28	2155.69
645.48	2265.26
645.67	1929.80
645.87	1823.10
646.06	2085.65
646.26	2210.17
646.45	1816.55
646.65	1768.63
646.84	2481.93
647.04	2092.00
647.24	1862.01
647.43	1962.77
647.63	2189.69
647.82	2417.42
648.02	1885.36
648.21	1984.07
648.41	2378.31
648.60	2080.12
648.80	2111.46
648.99	2022.98
649.19	2042.64
649.38	1900.52
649.58	1994.11
649.77	2044.69
649.97	2352.50
650.16	2261.37
650.36	1761.87
650.55	2164.29
650.75	2204.23
650.94	2442.82
651.14	1999.02
651.33	2032.81
651.53	2479.68
651.72	2028.31
651.92	1973.22
652.11	1826.99
652.31	2231.06
652.50	2216.11
652.70	2004.76
652.89	1859.15
653.09	2383.22
653.28	2101.01
653.48	1819.01
653.67	1828.43
653.87	2661.34
654.06	2154.05
654.25	2192.56
654.45	1927.96
654.64	2100.19
654.84	2124.15
655.03	1778.87
655.23	2116.78
655.42	2280.82
655.62	2481.73
655.81	2100.40
656.01	1976.29
656.20	2290.65
656.40	2428.48
656.59	2019.09
656.79	2120.67
656.98	2195.63
657.17	2301.92
657.37	2008.65
657.56	1962.16
657.76	2210.78
657.95	2359.87
658.15	1636.33
658.34	2047.15
658.54	2145.04
658.73	1951.10
658.92	2021.35
659.12	1999.84
659.31	2270.58
659.51	1954.38
659.70	2041.42
659.90	1904.61
660.09	2284.92
660.29	2129.07
660.48	1915.87
660.67	2137.87
660.87	2058.21
661.06	2214.26
661.26	2067.63
661.45	2098.35
661.65	2216.93
661.84	2064.15
662.03	1908.30
662.23	1935.74
662.42	2507.74
662.62	1984.07
662.81	1855.25
663.00	1953.97
663.20	2167.57
663.39	2244.16
663.59	2083.40
663.78	1949.46
663.97	2107.36
664.17	2312.57
664.36	1856.07
664.56	1904.00
664.75	2318.51
664.94	2256.25
665.14	2034.25
665.33	1993.08
665.53	2157.33
665.72	2121.08
665.91	2080.12
666.11	2027.69
666.30	2171.26
666.50	2101.63
666.69	2041.42
666.88	1957.24
667.08	2156.31
667.27	2076.03
667.47	1978.13
667.66	1938.20
667.85	2292.70
668.05	2130.09
668.24	1902.77
668.43	2171.46
668.63	2078.28
668.82	2309.49
669.02	2089.54
669.21	1962.16
669.40	1956.63
669.60	2469.65
669.79	1852.39
669.98	2647.41
670.18	2003.12
670.37	1964.62
670.56	1969.53
670.76	2070.50
670.95	2088.31
671.15	2293.73
671.34	2003.53
671.53	1999.23
671.73	2041.82
671.92	2008.03
672.11	1914.24
672.31	1940.04
672.50	2190.92
672.69	1915.67
672.89	1767.81
673.08	1971.58
673.27	2263.01
673.47	2189.48
673.66	2009.67
673.85	1878.19
674.05	2153.64
674.24	2141.97
674.43	1863.04
674.63	2062.71
674.82	2544.81
675.01	1829.04
675.21	2082.99
675.40	1950.90
675.59	2062.51
675.79	2389.16
675.98	1964.00
676.17	2133.16
676.37	2182.52
676.56	2031.38
676.75	1956.83
676.95	2023.80
677.14	2074.39
677.33	2335.09
677.52	1885.16
677.72	1931.85
677.91	2214.26
678.10	1900.92
678.30	1873.89
678.49	1900.31
678.68	2539.48
678.88	1858.74
679.07	2132.75
679.26	1951.71
679.45	2476.61
679.65	2372.16
679.84	1815.73
680.03	1808.36
680.23	2077.87
680.42	2596.82
680.61	1868.98
680.81	1937.38
681.00	2126.20
681.19	2207.10
681.38	2090.36
681.58	2012.74
681.77	2071.32
681.96	2260.14
682.15	1868.57
682.35	2039.57
682.54	2204.64
682.73	1942.50
682.93	1847.47
683.12	1875.53
683.31	2273.04
683.50	2630.00
683.70	1860.78
683.89	2017.86
684.08	1944.55
684.27	2314.00
684.47	1826.17
684.66	1948.23
684.85	2499.14
685.04	2347.38
685.24	1885.97
685.43	1936.56
685.62	1853.00
685.81	2214.06
686.01	2050.63
686.20	1870.82
686.39	1910.14
686.58	2481.73
686.78	2024.42
686.97	1976.29
687.16	2290.04
687.35	2200.13
687.55	1935.33
687.74	2005.58
687.93	1910.96
688.12	2082.78
688.32	1973.83
688.51	1807.13
688.70	2165.52
688.89	1935.13
689.08	1814.50
689.28	1942.29
689.47	2147.70
689.66	2135.21
689.85	2050.43
690.05	1903.79
690.24	1994.93
690.43	2192.35
690.62	2010.90
690.81	1922.84
691.01	2121.49
691.20	2078.69
691.39	1829.45
691.58	2009.26
691.77	2461.04
691.97	2139.31
692.16	2009.88
692.35	1946.59
692.54	2030.97
692.73	2206.07
692.93	1980.39
693.12	2030.97
693.31	2185.39
693.50	2123.74
693.69	2085.65
693.89	1911.98
694.08	2353.94
694.27	2364.38
694.46	1924.07
694.65	1973.01
694.85	2237.20
695.04	2202.59
695.23	1913.83
695.42	2299.05
695.61	2522.69
695.80	2704.14
696.00	2721.55
696.19	2770.90
696.38	2550.95
696.57	2610.75
696.76	2415.99
696.95	2267.10
697.15	2634.30
697.34	2591.70
697.53	2116.37
697.72	2238.84
697.91	2193.99
698.10	2479.68
698.30	2033.63
698.49	1992.88
698.68	2230.03
698.87	2068.65
699.06	1906.86
699.25	1998.82
699.45	2322.40
699.64	2130.71
699.83	2140.54
700.02	1901.33
700.21	2228.19
700.40	2042.85
700.59	1911.98
700.79	1975.68
700.98	2234.74
701.17	2028.31
701.36	1936.97
701.55	1912.60
701.74	2310.93
701.93	1913.42
702.12	1936.35
702.32	1893.96
702.51	2255.63
702.70	2225.32
702.89	2012.13
703.08	1943.93
703.27	2321.37
703.46	2216.31
703.65	1884.34
703.85	1848.29
704.04	2009.26
704.23	2323.22
704.42	1884.95
704.61	1935.33
704.80	2419.27
704.99	1998.41
705.18	2037.73
705.37	1972.60
705.57	2288.20
705.76	2581.26
705.95	2280.82
706.14	2659.29
706.33	2929.82
706.52	3142.81
706.71	2424.59
706.90	2274.47
707.09	2510.60
707.28	2395.10
707.47	2091.80
707.67	2244.57
707.86	2139.72
708.05	2432.17
708.24	2033.84
708.43	2069.06
708.62	2106.34
708.81	2019.30
709.00	1907.89
709.19	1915.26
709.38	2299.05
709.57	1926.32
709.76	1998.00
709.96	1900.31
710.15	2364.79
710.34	2116.99
710.53	2060.87
710.72	1953.76
710.91	2361.10
711.10	2226.96
711.29	2029.95
711.48	1945.16
711.67	1915.87
711.86	2173.71
712.05	1834.98
712.24	1868.77
712.43	2253.58
712.62	2373.19
712.81	1967.89
713.00	2160.61
713.19	1925.91
713.39	2212.01
713.58	1841.74
713.77	2035.89
713.96	2216.72
714.15	2089.13
714.34	1975.68
714.53	1826.38
714.72	2494.63
714.91	1960.52
715.10	2044.69
715.29	1877.58
715.48	2639.22
715.67	2232.90
715.86	1981.61
716.05	1945.37
716.24	2070.91
716.43	2026.06
716.62	1845.63
716.81	1814.50
717.00	2042.85
717.19	2413.12
717.38	1918.54
717.57	1927.55
717.76	1847.47
717.95	2301.10
718.14	1958.27
718.33	1983.46
718.52	1865.29
718.71	1892.32
718.90	1873.69
719.09	1909.12
719.28	2122.72
719.47	2284.51
719.66	2023.80
719.85	2064.76
720.04	2052.88
720.23	2102.85
720.42	1883.31
720.61	2014.79
720.80	1893.55
720.99	2167.77
721.18	1919.56
721.37	1854.23
721.56	2060.05
721.75	2259.11
721.94	1874.51
722.13	1915.87
722.32	2073.77
722.51	2252.56
722.70	1983.25
722.89	2042.44
723.08	2094.05
723.27	2287.79
723.46	2018.48
723.65	1982.43
723.84	2031.58
724.03	2359.06
724.22	1855.87
724.41	1972.19
724.60	2078.48
724.79	2254.81
724.98	1991.65
725.16	1934.92
725.35	2237.00
725.54	1939.63
725.73	1951.92
725.92	2006.19
726.11	2090.98
726.30	2290.04
726.49	1942.09
726.68	2028.31
726.87	2291.88
727.06	2442.82
727.25	2034.86
727.44	2107.36
727.63	2169.62
727.82	2084.63
728.01	2048.17
728.20	2082.37
728.38	2405.75
728.57	2107.56
728.76	1925.09
728.95	2105.52
729.14	1936.56
729.33	1956.22
729.52	1718.86
729.71	1894.58
729.90	1957.24
730.09	2044.49
730.28	1887.20
730.47	1900.52
730.66	2326.08
730.84	2113.50
731.03	1973.22
731.22	1983.25
731.41	2141.77
731.60	2182.32
731.79	1750.40
731.98	1847.27
732.17	2247.85
732.36	2205.05
732.55	1906.04
732.73	1817.16
732.92	2341.24
733.11	2180.06
733.30	1881.88
733.49	1802.62
733.68	2212.01
733.87	2173.10
734.06	1815.93
734.25	1859.97
734.43	1983.66
734.62	2173.10
734.81	1929.80
735.00	1906.86
735.19	2019.09
735.38	2170.44
735.57	1834.98
735.76	2034.66
735.94	2196.24
736.13	2511.83
736.32	2021.96
736.51	1964.21
736.70	2467.39
736.89	2486.03
737.08	2203.20
737.27	2502.82
737.45	3035.50
737.64	2951.53
737.83	3078.30
738.02	3148.96
738.21	3243.98
738.40	3115.17
738.59	2554.84
738.77	2578.60
738.96	2483.98
739.15	2540.91
739.34	2468.01
739.53	2354.75
739.72	2579.21
739.90	2510.60
740.09	2048.38
740.28	2107.56
740.47	2316.46
740.66	2247.65
740.85	1879.01
741.03	1938.81
741.22	1963.80
741.41	2090.36
741.60	1791.77
741.79	2009.88
741.98	2363.97
742.16	2435.85
742.35	1971.37
742.54	1999.84
742.73	2462.68
742.92	2063.12
743.10	1783.78
743.29	1938.61
743.48	2544.81
743.67	2016.84
743.86	1802.62
744.05	1866.11
744.23	1940.86
744.42	1963.59
744.61	1973.01
744.80	1807.33
744.99	2009.26
745.17	1836.62
745.36	1786.44
745.55	2022.16
745.74	2115.76
745.93	2000.87
746.11	1881.26
746.30	1832.11
746.49	2303.35
746.68	1963.59
746.86	1948.85
747.05	1928.57
747.24	2234.95
747.43	2281.23
747.62	1831.50
747.80	1909.53
747.99	2331.00
748.18	2232.49
748.37	1974.65
748.56	2044.90
748.74	2301.71
748.93	2163.06
749.12	2337.35
749.31	3061.51
749.49	3757.20
749.68	4173.76
749.87	4489.97
750.06	4396.17
750.24	4445.94
750.43	4286.19
750.62	4274.11
750.81	4464.16
750.99	4728.35
751.18	4639.06
751.37	3945.00
751.56	3764.37
751.74	4113.96
751.93	4057.03
752.12	3002.73
752.31	2847.91
752.49	2820.26
752.68	2978.98
752.87	2426.02
753.06	2313.39
753.24	2378.72
753.43	2522.48
753.62	2027.49
753.81	1997.18
753.99	2458.79
754.18	2263.01
754.37	1914.24
754.55	1940.04
754.74	2444.46
754.93	1849.52
755.12	1925.91
755.30	1843.38
755.49	2276.32
755.68	2162.66
755.86	2024.83
756.05	1864.47
756.24	2380.56
756.43	1913.83
756.61	1901.54
756.80	1996.16
756.99	2367.45
757.17	2102.04
757.36	1899.49
757.55	1940.25
757.74	2216.11
757.92	2131.32
758.11	1860.78
758.30	1792.18
758.48	2076.23
758.67	1915.87
758.86	1974.86
759.04	1855.87
759.23	2046.13
759.42	2110.02
759.60	1892.32
759.79	1955.61
759.98	2049.81
760.16	1994.72
760.35	1921.40
760.54	1860.37
760.73	2175.76
760.91	1917.31
761.10	1923.25
761.29	2038.55
761.47	2101.63
761.66	2518.80
761.85	2005.78
762.03	2194.40
762.22	2645.98
762.41	3790.79
762.59	4865.77
762.78	5459.88
762.97	6665.52
763.15	6790.65
763.34	6180.97
763.52	4932.12
763.71	4888.30
763.90	4765.01
764.08	4208.58
764.27	4053.75
764.46	4152.05
764.64	3652.14
764.83	3343.10
765.02	3096.73
765.20	3091.82
765.39	2943.14
765.58	2320.55
765.76	2238.02
765.95	2330.79
766.13	2244.98
766.32	1992.88
766.51	1966.05
766.69	2936.58
766.88	2219.59
767.07	1830.47
767.25	1739.14
767.44	2297.41
767.62	2319.94
767.81	1860.78
768.00	1929.60
768.18	2118.42
768.37	1957.04
768.56	1752.24
768.74	1891.71
768.93	1924.07
769.11	2199.52
769.30	1982.43
769.49	1901.74
769.67	2089.13
769.86	1997.79
770.04	1905.63
770.23	1856.48
770.42	2359.06
770.60	2121.70
770.79	1858.74
770.97	1929.60
771.16	2425.82
771.35	2506.10
771.53	2603.58
771.72	2747.15
771.90	3114.76
772.09	3419.08
772.27	3050.86
772.46	2636.35
772.65	2969.76
772.83	2798.14
773.02	2633.89
773.20	2364.38
773.39	2622.83
773.58	2622.22
773.76	2159.17
773.95	2102.44
774.13	2380.56
774.32	2224.91
774.50	1991.04
774.69	2064.15
774.87	2113.09
775.06	2551.77
775.25	1923.25
775.43	1969.12
775.62	2187.03
775.80	2216.11
775.99	1988.78
776.17	1933.28
776.36	2149.34
776.54	2338.78
776.73	1924.68
776.92	1991.04
777.10	2294.54
777.29	2176.58
777.47	1927.96
777.66	1917.10
777.84	2152.82
778.03	2099.58
778.21	1846.04
778.40	2024.01
778.58	2189.07
778.77	2339.60
778.95	1861.19
779.14	1897.44
779.32	2434.42
779.51	2263.01
779.70	1884.95
779.88	1826.79
780.07	2031.18
780.25	2544.81
780.44	1959.70
780.62	2039.57
780.81	2209.55
780.99	2167.16
781.18	1901.13
781.36	1863.04
781.55	2120.67
781.73	2385.88
781.92	1794.84
782.10	1851.98
782.29	2188.66
782.47	2372.98
782.66	1911.16
782.84	1799.96
783.03	1987.96
783.21	2342.47
783.40	1877.37
783.58	1879.63
783.77	2022.78
783.95	2072.75
784.14	1867.13
784.32	1983.87
784.51	2302.94
784.69	1982.43
784.88	1795.66
785.06	1908.09
785.24	1865.70
785.43	2260.14
785.61	1997.59
785.80	1846.86
785.98	2209.96
786.17	2104.08
786.35	1812.25
786.54	2028.31
786.72	2263.62
786.91	2306.22
787.09	1916.28
787.28	1788.29
787.46	2141.77
787.65	2273.86
787.83	1786.44
788.01	1926.32
788.20	1899.49
788.38	2118.01
788.57	1882.90
788.75	1851.16
788.94	2436.47
789.12	2321.58
789.31	1976.29
789.49	2034.66
789.67	2020.32
789.86	2166.96
790.04	1855.87
790.23	1785.62
790.41	2496.88
790.60	2044.28
790.78	1909.94
790.96	1917.10
791.15	2212.42
791.33	2057.39
791.52	1930.62
791.70	1846.86
791.89	2096.10
792.07	2251.54
792.25	1963.39
792.44	1792.38
792.62	2322.60
792.81	2031.58
792.99	1923.04
793.17	1903.79
793.36	1960.93
793.54	2477.63
793.73	2322.19
793.91	2448.76
794.10	2948.87
794.28	3187.87
794.46	2890.30
794.65	2856.51
794.83	2608.29
795.01	2649.46
795.20	2600.31
795.38	2483.16
795.57	2617.30
795.75	2562.42
795.93	2257.07
796.12	2210.78
796.30	2458.18
796.49	2419.27
796.67	1986.32
796.85	2162.45
797.04	2232.29
797.22	2281.03
797.40	1888.02
797.59	2002.91
797.77	2164.50
797.96	1993.90
798.14	1869.18
798.32	1907.27
798.51	2248.06
798.69	2492.99
798.87	1945.78
799.06	1929.39
799.24	1914.85
799.42	2312.36
799.61	2206.48
799.79	2274.06
799.98	2903.20
800.16	2588.02
800.34	2802.85
800.53	3122.13
800.71	3329.79
800.89	3946.23
801.08	3641.90
801.26	3616.71
801.44	3321.81
801.63	2996.59
801.81	2898.90
801.99	2728.10
802.18	2759.43
802.36	2759.64
802.54	2577.16
802.73	2310.11
802.91	2499.14
803.09	2449.37
803.28	2306.63
803.46	2244.98
803.64	2580.03
803.83	2041.01
804.01	1936.97
804.19	1881.47
804.38	2269.56
804.56	2216.52
804.74	1965.03
804.92	1970.35
805.11	1937.79
805.29	2280.82
805.47	1877.78
805.66	1820.64
805.84	1902.56
806.02	2270.58
806.21	1871.02
806.39	2124.97
806.57	2241.71
806.76	2249.49
806.94	1962.57
807.12	1891.50
807.30	1998.20
807.49	2114.94
807.67	1970.15
807.85	2029.95
808.04	2253.99
808.22	2478.25
808.40	1839.08
808.58	1785.83
808.77	2183.54
808.95	2379.53
809.13	2057.18
809.31	2658.06
809.50	3185.62
809.68	3466.80
809.86	3318.94
810.05	3557.12
810.23	4263.87
810.41	5167.84
810.59	7913.76
810.78	9614.39
810.96	11205.67
811.14	12120.08
811.32	11498.53
811.51	9383.59
811.69	7934.24
811.87	8024.97
812.05	6943.43
812.24	6622.31
812.42	6512.54
812.60	6028.20
812.78	4994.59
812.97	4502.66
813.15	4586.43
813.33	4016.27
813.51	3624.29
813.70	3006.21
813.88	2797.93
814.06	2700.04
814.24	2383.84
814.42	2055.75
814.61	2342.06
814.79	2547.88
814.97	1879.83
815.15	1939.63
815.34	2212.63
815.52	2296.80
815.70	1885.56
815.88	1963.18
816.06	1947.00
816.25	2056.98
816.43	1901.54
816.61	2037.32
816.79	2382.20
816.98	1845.83
817.16	1838.05
817.34	1854.23
817.52	2146.07
817.70	2388.96
817.89	1949.87
818.07	1856.07
818.25	2062.51
818.43	2136.24
818.61	1927.75
818.80	1884.54
818.98	2402.27
819.16	2146.48
819.34	1846.86
819.52	2162.04
819.70	1975.27
819.89	2090.57
820.07	1790.95
820.25	1779.68
820.43	2147.70
820.61	2262.80
820.80	1922.22
820.98	1799.96
821.16	1822.08
821.34	1901.13
821.52	1905.43
821.70	2041.21
821.89	2138.28
822.07	2059.64
822.25	1981.41
822.43	1868.98
822.61	2375.03
822.79	2170.03
822.98	1919.15
823.16	1759.61
823.34	2163.88
823.52	2332.84
823.70	2005.17
823.88	1773.13
824.06	2184.77
824.25	2101.22
824.43	2030.56
824.61	1827.81
824.79	2116.78
824.97	2145.86
825.15	2031.59
825.33	2277.55
825.52	2560.58
825.70	2470.67
825.88	2392.03
826.06	2511.22
826.24	2666.46
826.42	2684.68
826.60	2309.08
826.78	2357.42
826.97	2343.70
827.15	2592.32
827.33	2094.25
827.51	2141.15
827.69	2153.85
827.87	2276.11
828.05	2116.78
828.23	1959.29
828.41	2314.82
828.60	2306.42
828.78	1870.61
828.96	2062.92
829.14	2056.16
829.32	2104.49
829.50	1913.21
829.68	1907.89
829.86	2021.55
830.04	2206.89
830.22	2028.10
830.41	1858.74
830.59	2081.76
830.77	2230.85
830.95	1878.81
831.13	1877.58
831.31	1989.60
831.49	2262.39
831.67	2079.71
831.85	2055.55
832.03	2067.01
832.21	2205.46
832.39	1830.88
832.57	1839.90
832.76	2266.08
832.94	2045.10
833.12	1754.09
833.30	1919.77
833.48	2283.69
833.66	2146.27
833.84	1883.11
834.02	1936.35
834.20	2270.99
834.38	2240.07
834.56	1777.43
834.74	1861.40
834.92	1901.33
835.10	2389.98
835.28	1925.30
835.46	1964.62
835.64	2080.33
835.82	1992.06
836.01	2212.42
836.19	2140.95
836.37	2038.96
836.55	1936.97
836.73	1872.25
836.91	1818.39
837.09	2232.29
837.27	2353.12
837.45	1788.49
837.63	1809.18
837.81	1915.87
837.99	2073.36
838.17	2014.79
838.35	1853.62
838.53	2494.43
838.71	2219.59
838.89	1871.64
839.07	1879.42
839.25	2119.65
839.43	2269.15
839.61	1992.67
839.79	2438.52
839.97	2918.56
840.15	3061.10
840.33	2961.36
840.51	3241.93
840.69	3143.22
840.87	2896.44
841.05	2732.81
841.23	2749.81
841.41	3194.83
841.59	4003.37
841.77	4035.73
841.95	4251.99
842.13	4831.16
842.31	4476.04
842.49	3806.56
842.67	3561.83
842.85	3701.29
843.03	3219.61
843.21	3006.01
843.39	3086.29
843.57	3025.05
843.75	2948.05
843.93	2523.51
844.11	2486.44
844.29	2569.38
844.47	2430.53
844.65	2408.82
844.83	2179.86
845.01	2248.46
845.19	2394.49
845.36	2057.59
845.54	2080.12
845.72	2178.22
845.90	2254.81
846.08	1879.83
846.26	2007.83
846.44	2177.20
846.62	2186.00
846.80	2028.72
846.98	1874.92
847.16	2079.51
847.34	2161.43
847.52	1880.24
847.70	1810.20
847.88	2102.24
848.06	2376.46
848.24	2037.11
848.41	1812.86
848.59	2286.97
848.77	2179.86
848.95	1939.22
849.13	1901.33
849.31	2239.86
849.49	2172.69
849.67	1868.36
849.85	1855.87
850.03	2179.24
850.21	2171.46
850.39	1837.44
850.57	2055.75
850.74	2359.87
850.92	2369.09
851.10	2150.98
851.28	2178.01
851.46	2501.18
851.64	2894.80
851.82	2379.74
852.00	2448.55
852.18	2741.62
852.36	2553.00
852.53	2207.51
852.71	2275.29
852.89	2432.78
853.07	2388.34
853.25	2050.63
853.43	1964.21
853.61	2239.25
853.79	2270.58
853.97	1957.45
854.14	1957.04
854.32	2386.70
854.50	2284.51
854.68	1963.18
854.86	1940.66
855.04	2008.03
855.22	2244.98
855.40	1773.75
855.57	1896.83
855.75	2238.23
855.93	2181.29
856.11	1771.70
856.29	1903.79
856.47	1990.22
856.65	2167.57
856.82	1834.37
857.00	1793.20
857.18	2083.60
857.36	2020.53
857.54	1990.83
857.72	2079.30
857.89	2226.14
858.07	2124.15
858.25	2123.74
858.43	1833.96
858.61	2062.10
858.79	2100.19
858.97	1858.94
859.14	2004.76
859.32	2094.05
859.50	2035.07
859.68	1980.18
859.86	1837.64
860.03	2105.52
860.21	2202.39
860.39	1856.07
860.57	2048.17
860.75	2162.45
860.93	2445.27
861.10	2079.51
861.28	1830.68
861.46	2176.79
861.64	2185.80
861.82	1887.82
861.99	2017.86
862.17	2272.02
862.35	2281.44
862.53	1937.99
862.71	1939.84
862.88	2216.52
863.06	2207.71
863.24	1912.80
863.42	1866.93
863.60	2061.89
863.77	2206.48
863.95	1767.19
864.13	1894.58
864.31	2101.42
864.49	2247.65
864.66	1839.69
864.84	1871.64
865.02	2144.02
865.20	2619.35
865.37	1991.04
865.55	1846.04
865.73	1915.06
865.91	2255.43
866.09	2082.58
866.26	1982.64
866.44	2286.56
866.62	2100.81
866.80	1874.51
866.97	1928.57
867.15	2094.05
867.33	2140.13
867.51	2000.05
867.68	1979.77
867.86	2043.05
868.04	2010.90
868.22	1717.43
868.39	1885.36
868.57	2170.44
868.75	2348.41
868.93	1784.80
869.10	1884.75
869.28	2436.88
869.46	2352.91
869.64	1920.99
869.81	1878.60
869.99	2162.86
870.17	2150.98
870.35	1868.57
870.52	1901.54
870.70	2321.78
870.88	1992.26
871.05	1832.32
871.23	1720.50
871.41	2126.00
871.59	2103.26
871.76	1907.68
871.94	1834.98
872.12	2124.97
872.29	1872.25
872.47	1887.82
872.65	1822.90
872.83	2154.87
873.00	2365.61
873.18	1897.24
873.36	1879.01
873.53	2230.03
873.71	1898.47
873.89	1811.02
874.06	1902.77
874.24	2190.10
874.42	2351.89
874.60	2048.38
874.77	1985.10
874.95	1987.96
875.13	2279.80
875.30	1892.32
875.48	1817.57
875.66	2391.00
875.83	1958.27
876.01	1859.35
876.19	2004.55
876.36	1931.85
876.54	2122.51
876.72	1834.78
876.89	1962.16
877.07	2232.90
877.25	1799.14
877.42	1931.03
877.60	1911.57
877.78	2457.15
877.95	2029.54
878.13	1848.09
878.31	2022.16
878.48	2267.51
878.66	2236.59
878.84	1877.78
879.01	1903.38
879.19	2154.87
879.37	2227.37
879.54	1919.15
879.72	1765.55
879.90	1820.64
880.07	2250.10
880.25	1657.22
880.42	2063.74
880.60	2117.39
880.78	2226.96
880.95	1883.93
881.13	1989.60
881.31	2099.78
881.48	2037.32
881.66	1857.92
881.83	2033.02
882.01	1984.28
882.19	1846.86
882.36	1938.20
882.54	1875.12
882.72	2241.50
882.89	2135.21
883.07	1855.25
883.24	1895.40
883.42	2238.63
883.60	2113.50
883.77	1777.84
883.95	1900.51
884.12	2271.40
884.30	2137.87
884.48	2020.53
884.65	1919.56
884.83	2140.74
885.00	2120.06
885.18	1761.25
885.36	1866.31
885.53	2221.23
885.71	2327.52
885.88	1797.71
886.06	1861.19
886.23	2232.90
886.41	2012.74
886.59	1896.42
886.76	1804.26
886.94	2206.48
887.11	2619.35
887.29	1916.49
887.47	1828.22
887.64	2328.13
887.82	2350.66
887.99	1726.23
888.17	1890.89
888.34	2048.17
888.52	1913.01
888.69	1871.43
888.87	1813.48
889.05	2071.93
889.22	2058.62
889.40	1862.42
889.57	2109.20
889.75	2411.07
889.92	2057.18
890.10	1806.31
890.27	1963.80
890.45	2014.79
890.62	1851.98
890.80	1815.93
890.98	1716.61
891.15	2361.10
891.33	2304.17
891.50	1847.47
891.68	1790.74
891.85	2235.77
892.03	2228.39
892.20	1851.77
892.38	1802.83
892.55	2216.52
892.73	2222.25
892.90	1737.29
893.08	1858.12
893.25	2031.79
893.43	2048.79
893.60	1927.34
893.78	1706.98
893.95	2189.89
894.13	2102.44
894.30	1835.80
894.48	1908.71
894.65	2273.25
894.83	2135.42
895.00	1731.76
895.18	1731.76
895.35	2275.91
895.53	2216.11
895.70	1779.68
895.88	2008.24
896.05	2180.68
896.23	1870.00
896.40	1897.85
896.58	1906.25
896.75	2239.86
896.93	2358.03
897.10	1881.06
897.28	1767.19
897.45	2153.64
897.63	2213.65
897.80	1966.66
897.98	1833.75
898.15	2107.97
898.33	1990.63
898.50	1892.12
898.67	1875.12
898.85	2013.36
899.02	2181.91
899.20	2127.43
899.37	1880.44
899.55	2098.14
899.72	2344.31
899.90	1871.02
900.07	1844.61
900.25	2193.17
900.42	2319.53
900.59	1839.90
900.77	1986.94
900.94	2170.44
901.12	2152.42
901.29	1860.78
901.47	2001.28
901.64	2192.76
901.82	2120.88
901.99	1697.97
902.16	1819.83
902.34	2313.80
902.51	2135.01
902.69	1849.73
902.86	1896.62
903.03	2759.43
903.21	2115.35
903.38	1882.29
903.56	1838.87
903.73	2296.18
903.91	2018.68
904.08	1820.64
904.25	1696.13
904.43	1965.85
904.60	2270.99
904.78	1873.07
904.95	1786.44
905.12	2027.28
905.30	2376.26
905.47	1942.50
905.65	2019.50
905.82	2067.83
905.99	2154.67
906.17	1877.17
906.34	1842.97
906.52	1925.30
906.69	2182.73
906.86	1935.33
907.04	1934.72
907.21	2260.14
907.38	2268.94
907.56	1825.76
907.73	1799.96
907.91	2337.14
908.08	2322.19
908.25	1861.60
908.43	1759.00
908.60	2219.59
908.77	2123.95
908.95	1871.23
909.12	1774.36
909.30	2211.19
909.47	1849.73
909.64	1896.62
909.82	2059.03
909.99	2060.67
910.16	2118.01
910.34	1825.35
910.51	1836.82
910.68	2163.68
910.86	2096.71
911.03	1762.48
911.20	1926.52
911.38	2568.36
911.55	3209.17
911.72	3181.93
911.90	3220.84
912.07	3653.99
912.24	3772.56
912.42	2936.38
912.59	2558.53
912.76	2846.47
912.94	2594.98
913.11	2222.66
913.28	2109.61
913.46	2158.35
913.63	2341.65
913.80	2364.79
913.98	1973.83
914.15	2405.75
914.32	2458.38
914.49	2084.01
914.67	1878.60
914.84	2230.85
915.01	2275.09
915.19	2026.26
915.36	1907.48
915.53	2324.03
915.71	2213.24
915.88	1964.41
916.05	1882.70
916.22	2298.44
916.40	2135.21
916.57	1761.46
916.74	2018.48
916.92	2397.35
917.09	1935.13
917.26	1797.71
917.43	1787.06
917.61	2029.74
917.78	1831.50
917.95	1805.90
918.13	1808.36
918.30	2483.16
918.47	2106.75
918.64	1809.79
918.82	1792.79
918.99	2059.03
919.16	2384.04
919.33	1878.60
919.51	1863.45
919.68	2072.75
919.85	2301.92
920.02	1777.23
920.20	1904.41
920.37	2388.14
920.54	2257.07
920.71	1822.08
920.89	1856.89
921.06	2393.26
921.23	1947.62
921.40	1822.08
921.58	1992.26
921.75	2751.45
921.92	2138.69
922.09	2106.95
922.27	2050.02
922.44	2259.11
922.61	2260.34
922.78	1907.89
922.96	1908.09
923.13	2072.13
923.30	2276.73
923.47	1789.72
923.64	1834.37
923.82	2201.16
923.99	2186.21
924.16	1983.66
924.33	1807.13
924.50	2114.94
924.68	2394.49
924.85	1819.42
925.02	1891.91
925.19	2256.86
925.36	2136.65
925.54	1910.96
925.71	1931.85
925.88	2658.06
926.05	2052.06
926.22	1811.22
926.40	1982.84
926.57	2150.98
926.74	2235.97
926.91	1855.66
927.08	2036.09
927.26	2302.12
927.43	2120.88
927.60	1867.13
927.77	1898.67
927.94	2391.62
928.11	2321.37
928.29	1733.81
928.46	1916.08
928.63	1966.87
928.80	2045.31
928.97	1937.79
929.14	1843.79
929.32	2480.91
929.49	2115.96
929.66	1826.58
929.83	1758.39
930.00	2049.20
930.17	2170.03
930.35	1790.13
930.52	1861.40
930.69	2401.86
930.86	1927.55
931.03	1943.32
931.20	1683.43
931.37	2276.52
931.55	2112.48
931.72	1936.97
931.89	1784.80
932.06	1932.46
932.23	2380.35
932.40	1964.21
932.57	1986.12
932.74	2303.96
932.92	2329.97
933.09	2013.77
933.26	1622.20
933.43	2049.81
933.60	2171.87
933.77	1938.40
933.94	1977.11
934.11	2068.24
934.29	2126.41
934.46	1802.42
934.63	1956.22
934.80	1896.62
934.97	2101.22
935.14	1887.82
935.31	1703.91
935.48	1964.82
935.65	2144.84
935.82	1892.73
936.00	1767.40
936.17	2377.69
936.34	2072.34
936.51	1930.62
936.68	1773.54
936.85	2170.23
937.02	2135.42
937.19	1968.10
937.36	1895.40
937.53	2170.85
937.70	2270.17
937.87	1857.92
938.05	1960.11
938.22	2131.53
938.39	1936.97
938.56	1887.41
938.73	1761.05
938.90	2073.98
939.07	1959.70
939.24	1942.09
939.41	1718.66
939.58	2165.11
939.75	2213.04
939.92	1825.35
940.09	2162.25
940.26	2056.78
940.43	2275.50
940.60	1908.91
940.77	1860.17
940.95	2159.58
941.12	2237.20
941.29	1876.55
941.46	1886.79
941.63	2335.71
941.80	2364.38
941.97	1755.72
942.14	1722.55
942.31	2210.99
942.48	2118.83
942.65	1978.75
942.82	1932.05
942.99	2199.93
943.16	2113.09
943.33	1785.21
943.50	1833.55
943.67	2252.77
943.84	2280.62
944.01	1853.21
944.18	1826.38
944.35	2371.14
944.52	1966.05
944.69	1962.77
944.86	1776.00
945.03	2213.85
945.20	2496.06
945.37	1691.01
945.54	1916.28
945.71	2314.00
945.88	2428.48
946.05	1840.30
946.22	1775.79
946.39	2346.97
946.56	2082.58
946.73	1730.33
946.90	1795.25
947.07	2038.14
947.24	2053.50
947.41	1705.34
947.58	1972.60
947.75	2217.54
947.92	2159.38
948.09	1661.52
948.26	1731.35
948.43	2129.89
948.60	2452.65
948.77	1784.60
948.94	1889.87
949.11	2236.18
949.27	2176.99
949.44	1831.70
949.61	1781.94
949.78	2157.74
949.95	2309.49
950.12	1740.57
950.29	1728.90
950.46	2024.42
950.63	2275.09
950.80	1808.97
950.97	1854.23
951.14	2295.16
951.31	2055.34
951.48	1803.44
951.65	1753.88
951.82	2455.31
951.99	2146.68
952.15	1755.72
952.32	1844.61
952.49	2008.65
952.66	2033.02
952.83	1827.61
953.00	1791.56
953.17	2087.90
953.34	2270.58
953.51	1922.63
953.68	1884.13
953.85	2296.18
954.02	2325.67
954.18	1918.74
954.35	1852.59
954.52	1952.94
954.69	2143.40
954.86	1719.88
955.03	1926.93
955.20	2233.51
955.37	2096.71
955.54	1852.39
955.71	1798.53
955.87	2198.08
956.04	2427.05
956.21	1809.18
956.38	1802.42
956.55	2119.65
956.72	2570.41
956.89	1916.28
957.06	1791.36
957.23	1989.19
957.39	2335.91
957.56	1866.11
957.73	1769.65
957.90	1728.69
958.07	2442.82
958.24	1879.63
958.41	1845.42
958.57	2247.85
958.74	2107.56
958.91	1773.75
959.08	1807.95
959.25	2197.47
959.42	2063.74
959.59	1883.52
959.75	1884.75
959.92	2315.43
960.09	2316.25
960.26	1810.20
960.43	1898.26
960.60	2150.78
960.76	2085.24
960.93	1731.76
961.10	1897.24
961.27	2272.63
961.44	2053.50
961.61	1734.83
961.77	1732.99
961.94	2136.65
962.11	2274.88
962.28	1843.79
962.45	1764.33
962.62	2053.29
962.78	2241.50
962.95	1713.74
963.12	1816.14
963.29	2227.37
963.46	2614.23
963.62	1898.88
963.79	1809.99
963.96	2556.68
964.13	2078.07
964.30	1939.43
964.46	1849.52
964.63	1938.20
964.80	2573.89
964.97	1701.25
965.14	2027.08
965.30	2210.37
965.47	2299.05
965.64	2055.14
965.81	1972.19
965.98	2375.23
966.14	2188.46
966.31	1854.03
966.48	1819.21
966.65	2326.08
966.81	2195.83
966.98	1857.10
967.15	1838.26
967.32	2084.83
967.49	1994.72
967.65	1689.78
967.82	1708.42
967.99	2071.11
968.16	1841.53
968.32	1988.78
968.49	1808.36
968.66	2048.99
968.83	2396.74
968.99	1939.02
969.16	1763.92
969.33	2330.38
969.50	2227.99
969.66	1981.82
969.83	2101.63
970.00	2236.38
970.17	2199.11
970.33	1884.54
970.50	1762.89
970.67	2406.98
970.84	2390.18
971.00	1789.72
971.17	1723.16
971.34	2227.58
971.50	2108.18
971.67	1946.18
971.84	1860.17
972.01	1929.39
972.17	1784.40
972.34	1735.24
972.51	2028.72
972.67	2315.43
972.84	2167.98
973.01	1814.30
973.18	1839.28
973.34	2281.64
973.51	1958.06
973.68	1878.40
973.84	1881.26
974.01	2050.43
974.18	2415.58
974.34	1900.72
974.51	1953.15
974.68	1954.17
974.85	2459.20
975.01	1955.20
975.18	1838.67
975.35	2125.59
975.51	2016.23
975.68	1722.75
975.85	2022.98
976.01	2005.37
976.18	2342.67
976.35	1862.42
976.51	1915.47
976.68	2405.54
976.85	2315.43
977.01	1880.85
977.18	1919.56
977.35	2213.65
977.51	1909.32
977.68	1676.47
977.85	1751.42
978.01	2283.89
978.18	2227.17
978.35	1914.44
978.51	1909.94
978.68	2298.84
978.85	2411.28
979.01	1908.50
979.18	1875.94
979.34	2103.47
979.51	2163.68
979.68	1802.83
979.84	1930.82
980.01	2591.09
980.18	2136.44
980.34	1818.39
980.51	1883.72
980.67	2247.65
980.84	2241.30
981.01	1840.30
981.17	1923.45
981.34	1840.51
981.51	2252.97
981.67	1764.33
981.84	1930.42
982.00	2206.28
982.17	2103.47
982.34	1692.85
982.50	1610.93
982.67	2427.05
982.83	2038.14
983.00	1753.88
983.17	1637.97
983.33	2291.06
983.50	1854.85
983.66	1744.87
983.83	1640.83
984.00	2047.35
984.16	2125.79
984.33	1627.52
984.49	1627.11
984.66	1969.53
984.83	2253.18
984.99	1670.73
985.16	1621.99
985.32	2222.66
985.49	2249.90
985.65	1759.21
985.82	1616.46
985.99	2366.22
986.15	2161.84
986.32	1765.14
986.48	1698.38
986.65	2023.60
986.81	2237.00
986.98	1623.42
987.14	1712.92
987.31	2104.70
987.48	1877.37
987.64	1575.30
987.81	1601.92
987.97	2507.94
988.14	1965.23
988.30	1660.90
988.47	1506.08
988.63	2176.99
988.80	1955.20
988.96	1734.02
989.13	1770.88
989.30	2068.86
989.46	2272.22
989.63	1609.70
989.79	1612.98
989.96	2095.07
990.12	2383.02
990.29	1663.16
990.45	1710.67
990.62	2109.41
990.78	2329.15
990.95	1762.48
991.11	1671.35
991.28	2025.24
991.44	2157.33
991.61	1555.64
991.77	1762.69
991.94	2131.53
992.10	2310.52
992.27	1738.11
992.43	1720.50
992.60	2199.93
992.76	2036.30
992.93	1848.70
993.09	1612.98
993.26	2305.60
993.42	2412.30
993.59	1668.07
993.75	1598.44
993.92	1987.96
994.08	1997.59
994.25	1734.83
994.41	1631.82
994.58	2228.39
994.74	2374.21
994.91	1623.63
995.07	1757.36
995.24	2094.25
995.40	2095.89
995.56	1800.16
995.73	1770.06
995.89	2397.56
996.06	2066.61
996.22	1653.53
996.39	1600.08
996.55	2054.52
996.72	2202.59
996.88	1581.44
997.05	1622.81
997.21	2439.95
997.37	2204.84
997.54	1769.44
997.70	1696.54
997.87	2158.15
998.03	2077.05
998.20	1563.01
998.36	1585.13
998.52	2235.56
998.69	2284.71
998.85	1603.35
999.02	1674.62
999.18	2243.14
999.35	2246.62
999.51	1727.46
999.67	1707.19
999.84	1911.98
1000.00	2222.66
1000.17	1769.85
1000.33	1653.53
1000.49	1977.93
1000.66	2052.27
1000.82	1661.11
1000.99	1720.70
1001.15	2320.35
1001.31	2053.91
1001.48	1671.35
1001.64	1773.75
1001.81	2066.20
1001.97	2465.55
1002.13	1693.67
1002.30	1700.43
1002.46	2334.27
1002.63	2056.37
1002.79	1763.10
1002.95	1658.85
1003.12	2288.20
1003.28	2171.87
1003.45	1637.56
1003.61	1607.04
1003.77	2142.99
1003.94	1871.84
1004.10	1692.85
1004.26	1769.65
1004.43	2193.37
1004.59	2405.95
1004.75	1668.89
1004.92	1652.51
1005.08	2020.53
1005.25	2151.80
1005.41	1651.07
1005.57	1732.38
1005.74	2309.70
1005.90	2004.14
1006.06	1782.14
1006.23	1674.21
1006.39	2231.06
1006.55	2580.85
1006.72	1807.54
1006.88	1630.39
1007.04	1953.56
1007.21	2077.66
1007.37	1719.06
1007.53	1671.96
1007.70	2387.52
1007.86	2233.72
1008.02	1769.85
1008.19	1629.57
1008.35	2144.43
1008.51	1985.71
1008.68	1684.45
1008.84	1611.96
1009.00	1978.75
1009.17	2296.80
1009.33	1847.68
1009.49	1763.10
1009.65	1973.01
1009.82	2174.94
1009.98	1763.51
1010.14	1594.55
1010.31	2226.76
1010.47	2205.87
1010.63	1737.29
1010.80	1705.75
1010.96	2194.81
1011.12	2073.57
1011.28	1691.21
1011.45	1661.52
1011.61	2576.55
1011.77	1940.86
1011.94	1642.06
1012.10	1634.69
1012.26	1921.61
1012.42	2012.33
1012.59	1719.27
1012.75	1698.59
1012.91	2065.58
1013.07	2263.42
1013.24	1638.37
1013.40	1675.24
1013.56	2127.43
1013.72	2077.87
1013.89	1744.05
1014.05	1788.29
1014.21	2479.48
1014.37	2555.46
1014.54	1743.03
1014.70	1620.97
1014.86	2053.70
1015.02	1924.48
1015.19	1676.67
1015.35	1633.46
1015.51	2075.82
1015.67	2024.62
1015.84	1682.00
1016.00	1690.39
1016.16	2283.49
1016.32	2267.92
1016.49	1695.31
1016.65	1620.97
1016.81	2087.29
1016.97	2194.40
1017.14	1792.38
1017.30	1676.67
1017.46	2013.15
1017.62	2166.96
1017.78	1756.54
1017.95	1646.16
1018.11	2287.58
1018.27	2532.31
1018.43	1833.55
1018.59	1750.81
1018.76	2229.42
1018.92	2575.32
1019.08	1634.28
1019.24	1695.72
1019.40	2353.53
1019.57	2162.45
1019.73	1759.61
1019.89	1681.38
1020.05	2156.92
1020.21	2490.33
1020.38	1652.51
1020.54	1834.37
1020.70	2215.70
1020.86	2218.56
1021.02	1666.84
1021.18	1659.67
1021.35	2009.67
1021.51	2199.72
1021.67	1808.56
1021.83	1720.50
1021.99	2089.95
1022.15	2153.23
1022.32	1758.59
1022.48	1721.52
1022.64	2350.45
1022.80	2383.43
1022.96	1743.85
1023.12	1622.20
1023.29	2321.37
1023.45	2174.33
1023.61	1673.80
1023.77	1941.27
1023.93	2126.20
1024.09	1963.59
1024.25	1689.16
1024.42	1621.58
1024.58	2030.97
1024.74	2153.85
1024.90	1698.18
1025.06	1763.10
1025.22	2024.21
1025.38	2402.88
1025.54	1636.12
1025.71	1786.44
1025.87	2197.27
1026.03	2200.95
1026.19	1662.54
1026.35	1885.56
1026.51	2180.68
1026.67	2106.54
1026.83	1749.37
1026.99	1836.00
1027.16	2165.73
1027.32	2094.25
1027.48	1685.68
1027.64	1682.41
1027.80	2223.27
1027.96	2164.50
1028.12	1696.33
1028.28	1684.86
1028.44	2171.67
1028.60	2395.51
1028.77	1830.47
1028.93	1722.55
1029.09	2049.81
1029.25	1940.45
1029.41	1730.12
1029.57	1777.02
1029.73	2178.63
1029.89	2394.49
1030.05	1791.36
1030.21	1763.30
1030.37	2537.64
1030.53	2230.85
1030.69	1719.27
1030.85	1631.41
1031.02	1966.05
1031.18	2114.32
1031.34	1678.31
1031.50	1787.47
1031.66	1954.99
1031.82	2360.08
1031.98	1744.25
1032.14	1631.00
1032.30	1947.62
1032.46	2267.72
1032.62	1798.32
1032.78	1609.50
1032.94	1996.97
1033.10	2059.03
1033.26	1744.25
1033.42	1823.72
1033.58	2520.03
1033.74	2018.68
1033.90	1679.54
1034.06	1863.65
1034.22	2493.81
1034.38	2311.75
1034.54	1731.56
1034.70	1737.29
1034.86	2467.39
>>>>>End Processed Spectral Data<<<<<
