SpectraSuite Data File
++++++++++++++++++++++++++++++++++++
Date: Thu Mar 30 14:13:45 PDT 2017
User: UCSD _CER
Dark Spectrum Present: No
Reference Spectrum Present: No
Number of Sampled Component Spectra: 1
Spectrometers: USB4C00073
Integration Time (usec): 380000 (USB4C00073)
Spectra Averaged: 10 (USB4C00073)
Boxcar Smoothing: 0 (USB4C00073)
Correct for Electrical Dark: No (USB4C00073)
Strobe/Lamp Enabled: No (USB4C00073)
Correct for Detector Non-linearity: No (USB4C00073)
Correct for Stray Light: No (USB4C00073)
Number of Pixels in Processed Spectrum: 3648
>>>>>Begin Processed Spectral Data<<<<<
345.37	1222.64
345.58	1222.64
345.80	1222.64
346.01	1213.42
346.22	1216.90
346.43	2007.83
346.65	1853.00
346.86	2350.04
347.07	2339.60
347.28	1800.37
347.50	1796.68
347.71	2060.87
347.92	1825.56
348.13	1773.54
348.35	1771.70
348.56	2045.31
348.77	1876.14
348.98	1816.34
349.20	1642.68
349.41	2090.16
349.62	2203.41
349.83	1880.65
350.05	1761.66
350.26	2154.26
350.47	2272.84
350.68	1800.78
350.90	1727.87
351.11	2348.41
351.32	2298.23
351.53	1835.59
351.75	1744.87
351.96	2136.44
352.17	2068.24
352.38	1880.44
352.60	1871.02
352.81	2100.60
353.02	2382.20
353.23	1798.53
353.44	1805.08
353.66	2007.21
353.87	2033.02
354.08	1870.21
354.29	1831.09
354.51	1992.06
354.72	2029.95
354.93	1763.71
355.14	1731.97
355.35	1802.42
355.57	2220.61
355.78	1817.98
355.99	1892.32
356.20	2079.51
356.42	2029.13
356.63	1889.46
356.84	1790.95
357.05	2211.60
357.26	2440.15
357.48	1918.54
357.69	1848.50
357.90	2124.77
358.11	2013.15
358.32	1791.77
358.54	1864.06
358.75	1995.95
358.96	2168.18
359.17	1769.44
359.38	1840.10
359.60	2141.15
359.81	2029.54
360.02	1814.91
360.23	1752.45
360.44	1965.85
360.66	2225.32
360.87	1762.07
361.08	1771.08
361.29	2145.04
361.50	2083.40
361.72	1779.68
361.93	1883.93
362.14	2085.86
362.35	1845.42
362.56	1956.42
362.77	1690.60
362.99	2178.01
363.20	2055.34
363.41	1870.61
363.62	1676.88
363.83	2150.37
364.05	2208.12
364.26	1742.62
364.47	1762.28
364.68	2245.19
364.89	1920.18
365.10	1743.85
365.32	1813.89
365.53	1915.87
365.74	1969.33
365.95	1788.90
366.16	1690.39
366.37	2041.62
366.59	2010.90
366.80	1804.87
367.01	1673.60
367.22	2409.03
367.43	2524.53
367.64	1858.12
367.86	1803.03
368.07	2148.32
368.28	2247.85
368.49	1709.23
368.70	1872.46
368.91	2030.15
369.12	2006.39
369.34	1721.73
369.55	1709.85
369.76	2039.37
369.97	1988.58
370.18	1701.25
370.39	1768.42
370.60	1842.97
370.82	1919.77
371.03	1816.55
371.24	1756.13
371.45	2239.66
371.66	2181.09
371.87	1812.45
372.08	1805.49
372.30	1911.78
372.51	2218.77
372.72	1930.01
372.93	1793.41
373.14	2339.60
373.35	1959.09
373.56	1751.83
373.78	1837.03
373.99	2205.05
374.20	2522.28
374.41	1788.08
374.62	1787.06
374.83	2311.13
375.04	2008.85
375.25	1852.18
375.47	1820.85
375.68	1990.01
375.89	2198.29
376.10	1840.71
376.31	1874.92
376.52	2124.77
376.73	2098.96
376.94	1855.87
377.15	1793.41
377.37	2081.35
377.58	2019.71
377.79	1704.32
378.00	1750.19
378.21	2087.29
378.42	2166.96
378.63	1855.66
378.84	1903.18
379.05	2238.84
379.27	2095.48
379.48	1929.80
379.69	1765.55
379.90	2298.84
380.11	1781.32
380.32	1832.73
380.53	1911.78
380.74	2288.61
380.95	2087.70
381.16	1845.42
381.37	1848.09
381.59	2318.51
381.80	2216.93
382.01	1797.91
382.22	1705.55
382.43	2138.49
382.64	2056.16
382.85	1752.65
383.06	1875.32
383.27	2147.70
383.48	2031.18
383.69	1829.25
383.91	1758.39
384.12	2171.46
384.33	2190.71
384.54	1858.74
384.75	1766.37
384.96	2612.18
385.17	2279.18
385.38	1824.33
385.59	1818.39
385.80	2193.99
386.01	2355.78
386.22	1912.80
386.43	1807.33
386.64	2443.43
386.86	2052.06
387.07	1952.12
387.28	1738.11
387.49	2001.28
387.70	2294.13
387.91	1932.87
388.12	1828.43
388.33	2166.55
388.54	1983.25
388.75	1772.93
388.96	1914.44
389.17	1985.30
389.38	2035.48
389.59	1881.67
389.80	1900.52
390.01	2041.82
390.22	1983.05
390.43	1934.10
390.64	1693.47
390.86	2170.03
391.07	2236.59
391.28	1816.34
391.49	1881.67
391.70	1862.63
391.91	1957.24
392.12	1842.35
392.33	1873.07
392.54	2080.74
392.75	2019.50
392.96	1911.16
393.17	1778.87
393.38	2442.41
393.59	2243.55
393.80	1727.46
394.01	1828.84
394.22	2069.47
394.43	2377.08
394.64	1739.14
394.85	1896.42
395.06	2050.02
395.27	2095.07
395.48	1824.74
395.69	1721.32
395.90	2033.22
396.11	2050.02
396.32	1797.91
396.53	1909.53
396.74	2017.86
396.95	2227.17
397.16	1786.44
397.37	1703.71
397.58	2234.54
397.79	2081.97
398.00	1843.58
398.21	1853.00
398.42	2121.90
398.63	2387.32
398.84	1809.38
399.05	1792.59
399.26	2254.61
399.47	2155.08
399.68	1671.35
399.89	1752.24
400.10	1895.40
400.31	1990.01
400.52	1872.46
400.73	1794.23
400.94	1854.44
401.15	2144.22
401.36	1809.18
401.57	1831.29
401.78	2270.79
401.99	2233.51
402.20	1759.61
402.41	1949.26
402.62	2304.99
402.83	2018.27
403.04	1783.99
403.25	1991.24
403.46	2109.20
403.67	2308.47
403.88	1791.15
404.09	1825.97
404.30	1956.83
404.51	1939.22
404.72	1754.70
404.93	1956.22
405.14	1944.75
405.35	2048.99
405.56	1876.76
405.77	1773.34
405.98	2097.53
406.19	2047.56
406.40	1752.04
406.61	1796.27
406.82	1968.51
407.03	2474.56
407.24	1758.80
407.45	1844.40
407.66	2161.63
407.87	2216.11
408.08	1888.64
408.29	1877.99
408.49	2172.69
408.70	2032.81
408.91	1814.50
409.12	1943.11
409.33	1900.72
409.54	2258.09
409.75	1799.75
409.96	1841.33
410.17	2197.88
410.38	2016.63
410.59	1769.85
410.80	1920.38
411.01	2071.52
411.22	2033.22
411.43	1903.38
411.64	1780.09
411.85	1920.18
412.06	1910.96
412.27	1623.83
412.47	1771.49
412.68	2042.23
412.89	2105.93
413.10	1806.92
413.31	1702.27
413.52	2391.00
413.73	2395.10
413.94	1782.55
414.15	1940.25
414.36	1985.30
414.57	1906.86
414.78	1703.50
414.99	1744.87
415.19	2149.55
415.40	2078.48
415.61	2004.55
415.82	1882.29
416.03	2170.64
416.24	2150.98
416.45	1843.17
416.66	1714.15
416.87	1837.64
417.08	2153.03
417.29	1754.70
417.50	1833.14
417.70	2137.26
417.91	2102.04
418.12	1842.56
418.33	1811.63
418.54	2104.08
418.75	2239.04
418.96	1948.64
419.17	1916.90
419.38	2320.55
419.59	2182.32
419.79	1951.30
420.00	1896.21
420.21	2536.82
420.42	2106.34
420.63	1814.91
420.84	1876.55
421.05	2078.28
421.26	2066.20
421.47	1754.90
421.67	2136.44
421.88	1942.09
422.09	1891.50
422.30	2025.44
422.51	1841.74
422.72	2377.08
422.93	2218.56
423.14	1882.90
423.35	1726.23
423.55	1815.93
423.76	1934.31
423.97	1828.22
424.18	1705.55
424.39	1992.06
424.60	2200.34
424.81	1821.05
425.02	1895.80
425.22	2013.56
425.43	2029.13
425.64	2019.09
425.85	1889.46
426.06	2416.81
426.27	2215.08
426.48	1973.83
426.68	1924.27
426.89	2233.51
427.10	2409.44
427.31	1874.92
427.52	1810.81
427.73	2199.52
427.94	2153.23
428.14	1986.94
428.35	1895.40
428.56	2312.57
428.77	2210.17
428.98	1883.93
429.19	1881.26
429.40	1981.82
429.60	2011.92
429.81	1973.63
430.02	1859.97
430.23	2025.44
430.44	2175.97
430.65	1802.01
430.85	1806.92
431.06	2141.15
431.27	1796.48
431.48	1844.61
431.69	1868.77
431.90	2080.53
432.10	2068.45
432.31	1885.16
432.52	1803.65
432.73	2491.15
432.94	2311.54
433.15	1997.38
433.35	1802.62
433.56	2249.28
433.77	2079.30
433.98	2072.34
434.19	1962.36
434.40	2247.85
434.60	2222.66
434.81	2079.92
435.02	1990.01
435.23	2141.36
435.44	2053.70
435.64	1760.02
435.85	1802.01
436.06	2057.80
436.27	2002.30
436.48	1764.73
436.68	1825.35
436.89	2436.47
437.10	2254.61
437.31	1959.91
437.52	2029.33
437.73	2149.55
437.93	2153.44
438.14	1936.15
438.35	1735.45
438.56	2022.37
438.77	2051.25
438.97	1993.29
439.18	1832.32
439.39	2248.87
439.60	1873.69
439.80	1789.92
440.01	1860.99
440.22	2011.72
440.43	2182.52
440.64	1777.43
440.84	1874.10
441.05	1898.47
441.26	2502.62
441.47	1928.78
441.68	1863.45
441.88	2145.25
442.09	2145.86
442.30	2131.73
442.51	2141.36
442.71	2238.84
442.92	2239.86
443.13	1939.84
443.34	1873.07
443.55	1958.47
443.75	2160.61
443.96	1815.52
444.17	1764.12
444.38	2249.28
444.58	1928.37
444.79	1966.25
445.00	1909.53
445.21	2022.37
445.41	2011.11
445.62	1682.00
445.83	1934.72
446.04	2075.82
446.24	1875.94
446.45	1673.80
446.66	1838.87
446.87	2127.23
447.07	1953.97
447.28	2067.83
447.49	1872.25
447.70	2217.13
447.90	2224.91
448.11	1915.26
448.32	1965.64
448.53	2291.47
448.73	2289.63
448.94	1853.21
449.15	1999.02
449.36	2077.87
449.56	2121.29
449.77	1831.29
449.98	1761.05
450.19	2009.47
450.39	2026.06
450.60	1927.14
450.81	1906.25
451.02	2057.18
451.22	2305.60
451.43	1783.58
451.64	1808.15
451.84	1980.59
452.05	2256.66
452.26	1851.57
452.47	1870.00
452.67	1996.16
452.88	2299.46
453.09	1800.78
453.30	1763.10
453.50	2190.71
453.71	2400.22
453.92	1923.66
454.12	2107.77
454.33	2087.90
454.54	2143.20
454.75	1882.49
454.95	1830.06
455.16	2139.72
455.37	2190.30
455.57	1970.76
455.78	1881.67
455.99	2053.09
456.19	2104.90
456.40	1793.82
456.61	1885.36
456.82	2098.14
457.02	2211.81
457.23	2019.30
457.44	2147.09
457.64	2118.42
457.85	2253.99
458.06	1978.95
458.26	2079.92
458.47	2067.01
458.68	2246.83
458.89	1847.68
459.09	2018.07
459.30	2404.52
459.51	2092.00
459.71	1771.08
459.92	1850.34
460.13	2213.44
460.33	2474.77
460.54	1910.35
460.75	1916.49
460.95	1937.58
461.16	2148.73
461.37	1893.96
461.57	1898.26
461.78	2060.05
461.99	1901.95
462.19	2109.82
462.40	1812.25
462.61	2413.74
462.81	2268.13
463.02	1813.27
463.23	1820.23
463.43	2177.81
463.64	1964.62
463.85	3059.87
464.05	1825.35
464.26	2586.58
464.47	2275.09
464.67	2028.51
464.88	1985.30
465.09	2004.55
465.29	2182.73
465.50	2118.42
465.71	1996.16
465.91	2067.63
466.12	2093.23
466.33	1950.08
466.53	1836.21
466.74	2303.35
466.94	2033.63
467.15	1918.54
467.36	2017.66
467.56	1932.67
467.77	2109.41
467.98	1904.82
468.18	1861.40
468.39	2006.80
468.60	2375.85
468.80	1868.77
469.01	1801.60
469.21	2152.01
469.42	2277.34
469.63	1860.58
469.83	1801.19
470.04	2177.81
470.25	2315.02
470.45	1978.13
470.66	1828.43
470.86	2131.73
471.07	2007.83
471.28	1953.15
471.48	1971.37
471.69	2099.78
471.90	2765.17
472.10	2020.53
472.31	2017.45
472.51	2137.87
472.72	2124.56
472.93	1934.51
473.13	2061.49
473.34	2203.20
473.54	2165.32
473.75	1943.32
473.96	2097.32
474.16	2032.20
474.37	2162.45
474.57	1961.34
474.78	1808.36
474.99	2143.40
475.19	2084.63
475.40	1873.28
475.60	1866.52
475.81	2454.29
476.02	2199.93
476.22	2107.36
476.43	2172.28
476.63	2102.85
476.84	2325.47
477.05	1794.43
477.25	1872.46
477.46	2592.52
477.66	2081.76
477.87	1800.37
478.08	1860.58
478.28	2242.94
478.49	2041.62
478.69	1843.17
478.90	1856.07
479.10	2158.56
479.31	2322.19
479.52	1933.08
479.72	2031.99
479.93	2197.47
480.13	2074.80
480.34	1929.80
480.54	2019.50
480.75	1974.86
480.96	2279.59
481.16	1847.68
481.37	1983.46
481.57	2218.36
481.78	2154.05
481.98	2069.06
482.19	1971.37
482.40	2387.93
482.60	2155.69
482.81	1980.39
483.01	1792.59
483.22	2180.27
483.42	2183.34
483.63	1968.51
483.83	1934.31
484.04	1996.97
484.24	2224.09
484.45	2060.67
484.66	1798.73
484.86	2158.97
485.07	1962.77
485.27	1943.32
485.48	1847.47
485.68	2289.01
485.89	1970.35
486.09	1995.13
486.30	1880.65
486.50	2089.95
486.71	2073.36
486.91	1970.97
487.12	2129.07
487.33	2676.90
487.53	2728.10
487.74	2442.61
487.94	2321.58
488.15	2337.35
488.35	2303.56
488.56	2012.33
488.76	1918.95
488.97	2099.78
489.17	2224.71
489.38	2014.18
489.58	1933.08
489.79	2185.80
489.99	2137.87
490.20	1939.43
490.40	1989.40
490.61	2120.47
490.81	1977.11
491.02	1969.33
491.22	1944.55
491.43	2160.40
491.63	2052.88
491.84	2051.86
492.04	1804.06
492.25	2154.67
492.45	2014.18
492.66	1868.98
492.86	1788.70
493.07	2044.90
493.27	2440.36
493.48	1786.44
493.68	1864.47
493.89	2054.32
494.09	2197.27
494.30	1890.07
494.50	2113.91
494.71	2148.52
494.91	1823.92
495.12	1895.80
495.32	1957.65
495.53	2081.97
495.73	1870.21
495.94	2048.58
496.14	1899.90
496.35	2508.56
496.55	2171.46
496.76	1940.04
496.96	1988.58
497.17	2076.85
497.37	2171.05
497.58	1890.48
497.78	1802.42
497.98	2037.52
498.19	2052.27
498.39	1892.12
498.60	1962.98
498.80	1792.38
499.01	2185.80
499.21	1792.59
499.42	1955.61
499.62	2008.24
499.83	2431.14
500.03	1773.34
500.24	2017.66
500.44	2290.04
500.64	2244.57
500.85	1907.89
501.05	1995.13
501.26	1836.21
501.46	2256.25
501.67	1857.51
501.87	1817.37
502.08	1935.94
502.28	1999.64
502.48	1967.07
502.69	2011.51
502.89	1821.46
503.10	1918.95
503.30	1948.85
503.51	1954.38
503.71	1838.26
503.92	2147.70
504.12	1954.79
504.32	1847.68
504.53	2163.88
504.73	2148.32
504.94	2039.57
505.14	2122.51
505.35	2172.69
505.55	2142.58
505.75	1930.82
505.96	2061.69
506.16	2386.29
506.37	1981.41
506.57	1829.86
506.78	1990.01
506.98	2239.86
507.18	1844.61
507.39	1830.06
507.59	1892.12
507.80	1936.56
508.00	2061.28
508.20	2097.94
508.41	1897.85
508.61	2262.19
508.82	2220.61
509.02	2053.50
509.22	1841.53
509.43	1922.63
509.63	1984.89
509.84	1904.82
510.04	1764.73
510.24	2304.17
510.45	2196.24
510.65	1795.04
510.86	1964.82
511.06	1895.80
511.26	2168.39
511.47	2072.75
511.67	1856.07
511.88	2158.56
512.08	2211.19
512.28	1792.18
512.49	1964.62
512.69	2098.76
512.90	2096.10
513.10	1894.78
513.30	1970.35
513.51	2135.83
513.71	2345.95
513.91	2003.94
514.12	1973.01
514.32	2193.78
514.53	1964.41
514.73	1954.58
514.93	1911.57
515.14	2037.52
515.34	2256.66
515.54	1863.65
515.75	1964.62
515.95	2140.95
516.15	2262.60
516.36	1926.52
516.56	1987.76
516.77	1731.56
516.97	2111.05
517.17	1906.25
517.38	2009.06
517.58	2318.30
517.78	2012.54
517.99	1979.77
518.19	1922.43
518.39	2239.25
518.60	1952.94
518.80	1806.51
519.00	1955.61
519.21	2027.49
519.41	2362.95
519.61	1821.05
519.82	2005.78
520.02	2071.32
520.22	2044.90
520.43	1880.44
520.63	1913.01
520.83	1951.71
521.04	1809.79
521.24	1971.37
521.44	1881.67
521.65	1911.57
521.85	2128.04
522.05	1848.29
522.26	1846.86
522.46	2356.39
522.66	2207.30
522.87	1911.57
523.07	2084.83
523.27	1987.35
523.48	2271.20
523.68	1926.32
523.88	1971.78
524.09	2224.30
524.29	2114.12
524.49	1798.53
524.70	2004.55
524.90	2299.05
525.10	2153.23
525.31	1799.14
525.51	1803.03
525.71	2167.57
525.91	2128.45
526.12	1870.41
526.32	1807.95
526.52	1990.01
526.73	1940.04
526.93	1979.77
527.13	1795.66
527.34	2057.18
527.54	2038.55
527.74	1896.21
527.94	1838.87
528.15	1894.78
528.35	2045.51
528.55	2018.48
528.76	1987.14
528.96	1819.21
529.16	2216.31
529.36	2035.68
529.57	1825.35
529.77	2244.57
529.97	1922.43
530.18	2004.14
530.38	1905.63
530.58	2140.95
530.78	2055.75
530.99	1865.70
531.19	1973.22
531.39	1926.52
531.60	2078.28
531.80	1936.56
532.00	2079.30
532.20	2079.10
532.41	1992.26
532.61	1885.77
532.81	1870.82
533.01	1988.17
533.22	2137.87
533.42	2050.63
533.62	1790.33
533.82	2263.42
534.03	2024.21
534.23	2001.68
534.43	1863.86
534.63	1978.13
534.84	2091.80
535.04	2008.85
535.24	1973.63
535.44	2490.74
535.65	1995.34
535.85	1868.77
536.05	1872.05
536.25	2031.18
536.46	1928.16
536.66	2092.00
536.86	1937.58
537.06	2134.19
537.27	2250.51
537.47	1958.47
537.67	1894.58
537.87	2275.91
538.08	2042.64
538.28	1837.03
538.48	1784.60
538.68	2015.20
538.88	2172.28
539.09	1769.24
539.29	1918.54
539.49	2198.90
539.69	2121.90
539.90	2006.60
540.10	1822.49
540.30	2291.06
540.50	1961.95
540.70	1770.67
540.91	1877.58
541.11	2184.98
541.31	2316.25
541.51	1962.57
541.72	1975.88
541.92	2125.38
542.12	1974.86
542.32	1928.16
542.52	1884.75
542.73	1933.49
542.93	2184.36
543.13	1898.06
543.33	2015.20
543.53	2175.15
543.74	2179.45
543.94	1885.36
544.14	2030.97
544.34	2251.13
544.54	2039.16
544.75	1973.01
544.95	2092.61
545.15	2194.19
545.35	2335.91
545.55	2039.98
545.75	1911.16
545.96	2413.53
546.16	1943.93
546.36	1920.59
546.56	1942.70
546.76	2216.93
546.97	2350.86
547.17	1933.49
547.37	2046.13
547.57	1988.78
547.77	2188.46
547.97	1995.95
548.18	1990.42
548.38	2043.87
548.58	2275.09
548.78	1837.85
548.98	1907.27
549.18	2132.14
549.39	2250.92
549.59	1980.39
549.79	1967.69
549.99	2288.20
550.19	2192.35
550.39	2079.30
550.60	1921.61
550.80	2108.38
551.00	2149.55
551.20	1913.83
551.40	1905.23
551.60	2124.56
551.80	2114.73
552.01	2003.32
552.21	1937.58
552.41	2079.10
552.61	2361.72
552.81	2016.84
553.01	1882.90
553.21	2160.81
553.42	1937.58
553.62	1899.08
553.82	1840.71
554.02	2328.13
554.22	2216.11
554.42	1805.49
554.62	2057.18
554.83	2352.91
555.03	2276.93
555.23	1945.37
555.43	2154.26
555.63	2070.70
555.83	2049.81
556.03	2001.48
556.23	1809.38
556.44	2051.25
556.64	2246.21
556.84	1684.86
557.04	1902.15
557.24	2112.89
557.44	2052.47
557.64	1982.43
557.84	1870.61
558.04	2013.15
558.25	2190.51
558.45	1843.58
558.65	1967.48
558.85	2074.39
559.05	1806.10
559.25	1926.93
559.45	2004.14
559.65	2389.16
559.85	2851.80
560.05	1947.41
560.26	1989.40
560.46	2018.68
560.66	1952.94
560.86	1897.65
561.06	1864.88
561.26	2302.94
561.46	2148.93
561.66	1936.15
561.86	2027.69
562.06	1931.44
562.26	2017.25
562.47	1973.83
562.67	1811.22
562.87	2162.25
563.07	1804.47
563.27	1971.99
563.47	1968.92
563.67	2002.50
563.87	2161.02
564.07	1840.10
564.27	1924.07
564.47	2078.48
564.67	2095.28
564.87	1862.42
565.08	1983.87
565.28	1945.37
565.48	2134.39
565.68	1980.80
565.88	2041.01
566.08	2375.64
566.28	2071.73
566.48	1820.64
566.68	1958.47
566.88	2021.96
567.08	2192.15
567.28	1983.05
567.48	1954.58
567.68	2117.60
567.88	1837.03
568.08	1955.40
568.28	2082.78
568.48	2022.37
568.68	2250.31
568.89	1983.25
569.09	1806.31
569.29	2205.66
569.49	2183.75
569.69	1827.20
569.89	1847.68
570.09	1782.55
570.29	1960.52
570.49	1849.52
570.69	1921.40
570.89	2200.54
571.09	2417.22
571.29	1827.81
571.49	2106.54
571.69	2121.29
571.89	2150.37
572.09	1932.05
572.29	2006.39
572.49	2196.24
572.69	2158.56
572.89	1970.56
573.09	1680.56
573.29	2047.97
573.49	2071.32
573.69	1912.80
573.89	2001.89
574.09	1982.64
574.29	2246.42
574.49	1936.35
574.69	1862.22
574.89	1911.16
575.09	1885.77
575.29	1830.68
575.49	1942.29
575.69	2128.66
575.89	1891.50
576.09	1967.69
576.29	1965.03
576.49	1886.18
576.69	2037.73
576.89	1882.29
577.09	1956.22
577.29	1843.38
577.49	2353.94
577.69	1895.60
577.89	2068.24
578.09	2058.62
578.29	1797.09
578.49	1942.09
578.69	1862.42
578.89	2240.27
579.09	2072.54
579.29	1856.69
579.49	2046.74
579.69	1988.58
579.89	2338.58
580.09	1748.56
580.29	1778.87
580.49	1986.32
580.69	1881.88
580.89	1902.56
581.09	1892.53
581.29	1991.44
581.49	2053.29
581.69	1852.18
581.89	1890.89
582.09	1926.11
582.28	1912.19
582.48	2018.27
582.68	2079.92
582.88	2286.15
583.08	2021.75
583.28	1929.80
583.48	1949.87
583.68	1942.09
583.88	2044.28
584.08	1968.51
584.28	1988.37
584.48	2387.73
584.68	2162.25
584.88	1910.35
585.08	2105.72
585.28	2196.65
585.48	2254.40
585.68	2011.31
585.87	2052.68
586.07	2138.49
586.27	2063.33
586.47	1991.65
586.67	1937.58
586.87	2060.67
587.07	1988.78
587.27	1824.33
587.47	1992.26
587.67	2342.67
587.87	2512.24
588.07	1997.59
588.27	1879.01
588.46	2211.40
588.66	2200.54
588.86	1937.17
589.06	2005.99
589.26	2195.42
589.46	2175.35
589.66	1856.07
589.86	1836.41
590.06	1999.02
590.26	2118.21
590.46	1889.25
590.66	2012.33
590.85	1934.10
591.05	2051.66
591.25	1832.32
591.45	1917.10
591.65	2151.19
591.85	2053.29
592.05	1879.01
592.25	2015.41
592.45	2201.57
592.64	2000.66
592.84	1963.80
593.04	1874.71
593.24	2479.27
593.44	1939.84
593.64	1968.92
593.84	2010.08
594.04	1995.95
594.24	2327.11
594.43	1922.22
594.63	1955.81
594.83	2225.94
595.03	2182.52
595.23	1888.23
595.43	1833.55
595.63	1941.47
595.83	2206.48
596.02	1755.52
596.22	1937.38
596.42	2119.03
596.62	2047.97
596.82	1916.08
597.02	1969.94
597.22	2292.50
597.41	2100.60
597.61	1902.36
597.81	2025.24
598.01	2146.07
598.21	2001.07
598.41	1843.99
598.61	1866.93
598.80	2076.03
599.00	2094.46
599.20	2065.38
599.40	1940.86
599.60	1978.34
599.80	2200.75
599.99	2068.04
600.19	1911.98
600.39	2077.66
600.59	2147.91
600.79	2000.87
600.99	1910.96
601.19	2332.64
601.38	2367.66
601.58	2004.96
601.78	1710.87
601.98	2131.53
602.18	2096.51
602.37	2169.21
602.57	1973.83
602.77	2171.46
602.97	2069.68
603.17	2107.16
603.37	2020.32
603.56	2223.07
603.76	2177.20
603.96	1977.93
604.16	2011.11
604.36	2307.86
604.56	2209.76
604.75	1887.20
604.95	1968.10
605.15	2265.87
605.35	2205.25
605.55	1885.56
605.74	1852.80
605.94	2246.01
606.14	2060.67
606.34	1974.86
606.54	1994.52
606.73	1996.97
606.93	2195.01
607.13	1880.44
607.33	2032.61
607.53	2331.41
607.72	2233.31
607.92	2026.47
608.12	2098.35
608.32	2029.54
608.51	2151.39
608.71	1821.26
608.91	2007.42
609.11	2158.15
609.31	2014.18
609.50	1919.97
609.70	2112.48
609.90	2208.73
610.10	2216.11
610.29	1900.72
610.49	1825.35
610.69	2171.46
610.89	2076.64
611.09	1926.52
611.28	2142.58
611.48	2233.92
611.68	2031.79
611.88	1913.62
612.07	1872.66
612.27	2188.25
612.47	1970.76
612.67	1976.29
612.86	2061.28
613.06	2068.04
613.26	1822.69
613.46	1878.60
613.65	1998.20
613.85	2532.11
614.05	2156.51
614.25	2010.29
614.44	1940.66
614.64	2036.91
614.84	1961.95
615.04	1869.39
615.23	1906.04
615.43	2150.98
615.63	2160.81
615.83	1879.63
616.02	1768.01
616.22	2141.97
616.42	1866.93
616.62	1824.54
616.81	1915.67
617.01	2086.88
617.21	2000.25
617.41	1814.91
617.60	1964.00
617.80	2140.33
618.00	2148.73
618.19	2020.53
618.39	1953.76
618.59	2158.56
618.79	2049.81
618.98	1788.70
619.18	1944.34
619.38	2420.08
619.57	2034.86
619.77	1927.34
619.97	1913.21
620.17	1951.51
620.36	1844.81
620.56	2102.44
620.76	1823.31
620.95	1849.52
621.15	1958.47
621.35	1837.23
621.54	1917.92
621.74	2040.39
621.94	1917.92
622.14	1823.72
622.33	1788.49
622.53	2014.59
622.73	2008.85
622.92	1792.79
623.12	1923.66
623.32	2363.77
623.51	2187.85
623.71	1814.09
623.91	2098.35
624.10	1918.74
624.30	2067.42
624.50	1793.61
624.69	1783.17
624.89	2702.91
625.09	1995.34
625.29	1722.96
625.48	1831.09
625.68	2094.46
625.88	2220.41
626.07	2019.91
626.27	1873.48
626.47	1980.39
626.66	1802.62
626.86	1973.22
627.06	1936.76
627.25	2053.29
627.45	2318.51
627.64	1928.37
627.84	2109.41
628.04	1960.52
628.23	2412.51
628.43	1823.92
628.63	1852.80
628.82	1970.35
629.02	2354.75
629.22	1980.80
629.41	2086.06
629.61	2056.78
629.81	2363.97
630.00	1889.25
630.20	1824.33
630.40	2086.06
630.59	2119.44
630.79	1945.16
630.98	1917.92
631.18	2047.76
631.38	2012.13
631.57	2054.52
631.77	1787.88
631.97	2063.53
632.16	2117.60
632.36	1946.80
632.56	1972.60
632.75	2104.29
632.95	2197.06
633.14	1834.98
633.34	2095.28
633.54	1789.52
633.73	1993.29
633.93	1916.28
634.12	1800.16
634.32	2494.63
634.52	2038.14
634.71	1779.89
634.91	2003.12
635.11	1872.05
635.30	1950.08
635.50	1957.24
635.69	1838.26
635.89	2344.72
636.09	2200.54
636.28	1827.61
636.48	1862.42
636.67	2163.06
636.87	2138.08
637.07	1990.42
637.26	1868.57
637.46	2082.17
637.65	2216.52
637.85	1979.77
638.04	1849.11
638.24	2001.68
638.44	2115.55
638.63	1951.71
638.83	1909.12
639.02	2109.82
639.22	2160.20
639.42	1904.20
639.61	1924.68
639.81	2087.08
640.00	2039.37
640.20	2087.90
640.39	1945.16
640.59	2371.34
640.79	2220.82
640.98	2001.68
641.18	1857.71
641.37	2029.13
641.57	1933.49
641.76	1932.46
641.96	1730.33
642.15	2066.40
642.35	1965.85
642.55	1959.09
642.74	1801.19
642.94	2180.27
643.13	2288.81
643.33	1907.68
643.52	1887.82
643.72	1975.06
643.91	2063.94
644.11	1850.13
644.31	1872.25
644.50	1966.46
644.70	2247.24
644.89	1957.45
645.09	2031.18
645.28	2082.58
645.48	2133.78
645.67	1843.79
645.87	1758.59
646.06	2009.88
646.26	2102.24
646.45	1715.99
646.65	1712.10
646.84	2390.59
647.04	2004.76
647.24	1822.69
647.43	1890.28
647.63	2065.99
647.82	2329.56
648.02	1807.74
648.21	1880.65
648.41	2293.11
648.60	1980.80
648.80	2069.68
648.99	1948.85
649.19	1941.27
649.38	1798.94
649.58	1946.18
649.77	2007.42
649.97	2266.69
650.16	2135.01
650.36	1710.67
650.55	2087.49
650.75	2109.20
650.94	2322.60
651.14	1949.87
651.33	1981.41
651.53	2327.72
651.72	1966.66
651.92	1940.04
652.11	1745.89
652.31	2156.10
652.50	2115.35
652.70	1947.41
652.89	1805.49
653.09	2321.17
653.28	1993.90
653.48	1717.84
653.67	1734.42
653.87	2553.82
654.06	2043.46
654.25	2134.39
654.45	1871.02
654.64	2014.59
654.84	2020.73
655.03	1729.71
655.23	2072.13
655.42	2165.93
655.62	2383.22
655.81	2070.91
656.01	1889.25
656.20	2227.37
656.40	2336.73
656.59	1970.15
656.79	2077.46
656.98	2107.77
657.17	2207.92
657.37	1950.90
657.56	1912.60
657.76	2109.82
657.95	2232.90
658.15	1625.27
658.34	1951.92
658.54	2054.32
658.73	1852.59
658.92	1914.85
659.12	1941.88
659.31	2130.71
659.51	1873.48
659.70	1993.29
659.90	1850.54
660.09	2198.49
660.29	2032.81
660.48	1829.25
660.67	2060.05
660.87	1956.42
661.06	2099.17
661.26	2011.11
661.45	2041.62
661.65	2102.24
661.84	1957.45
662.03	1868.98
662.23	1899.08
662.42	2395.92
662.62	1875.94
662.81	1828.22
663.00	1893.96
663.20	2084.42
663.39	2136.03
663.59	2027.90
663.78	1915.87
663.97	2021.96
664.17	2197.06
664.36	1833.55
664.56	1867.95
664.75	2190.92
664.94	2140.95
665.14	1996.36
665.33	1927.75
665.53	2039.98
665.72	2025.03
665.91	2024.83
666.11	1952.12
666.30	2079.92
666.50	2040.60
666.69	1981.41
666.88	1867.34
667.08	2076.44
667.27	2014.38
667.47	1941.47
667.66	1905.84
667.85	2210.37
668.05	2051.66
668.24	1832.52
668.43	2120.26
668.63	1968.10
668.82	2246.62
669.02	2011.92
669.21	1922.84
669.40	1850.54
669.60	2359.87
669.79	1776.61
669.98	2501.18
670.18	1910.96
670.37	1858.74
670.56	1918.95
670.76	1973.42
670.95	2015.20
671.15	2186.82
671.34	1958.27
671.53	1904.82
671.73	1934.92
671.92	1926.32
672.11	1812.25
672.31	1894.37
672.50	2111.05
672.69	1862.42
672.89	1681.79
673.08	1897.85
673.27	2198.08
673.47	2085.04
673.66	1964.21
673.85	1802.42
674.05	2069.27
674.24	2040.39
674.43	1814.30
674.63	1994.93
674.82	2423.36
675.01	1735.86
675.21	2005.37
675.40	1874.51
675.59	1985.10
675.79	2303.96
675.98	1892.73
676.17	2077.87
676.37	2102.04
676.56	1968.51
676.75	1914.65
676.95	1953.97
677.14	1996.77
677.33	2239.66
677.52	1788.90
677.72	1874.51
677.91	2083.81
678.10	1812.45
678.30	1798.53
678.49	1821.26
678.68	2395.10
678.88	1775.79
679.07	2047.76
679.26	1894.17
679.45	2357.62
679.65	2244.78
679.84	1714.15
680.03	1771.70
680.23	1965.64
680.42	2445.89
680.61	1807.74
680.81	1862.01
681.00	2035.07
681.19	2092.00
681.38	2012.95
681.58	1965.03
681.77	1946.18
681.96	2180.88
682.15	1834.78
682.35	1969.33
682.54	2114.73
682.73	1859.35
682.93	1813.89
683.12	1836.00
683.31	2154.67
683.50	2470.06
683.70	1828.84
683.89	1962.77
684.08	1870.41
684.27	2188.66
684.47	1765.55
684.66	1908.91
684.85	2354.75
685.04	2251.54
685.24	1859.97
685.43	1878.81
685.62	1773.95
685.81	2066.20
686.01	2008.24
686.20	1841.94
686.39	1831.50
686.58	2358.65
686.78	1953.97
686.97	1930.01
687.16	2177.40
687.35	2104.90
687.55	1880.44
687.74	1949.46
687.93	1857.10
688.12	1991.65
688.32	1920.79
688.51	1736.06
688.70	2059.23
688.89	1841.12
689.08	1747.94
689.28	1813.89
689.47	2057.18
689.66	2079.92
689.85	1973.63
690.05	1852.39
690.24	1960.93
690.43	2087.49
690.62	1914.03
690.81	1850.34
691.01	2033.84
691.20	1972.40
691.39	1773.13
691.58	1966.46
691.77	2323.01
691.97	2037.11
692.16	1954.38
692.35	1906.04
692.54	1940.86
692.73	2108.18
692.93	1940.45
693.12	1965.64
693.31	2101.42
693.50	2076.64
693.69	2004.14
693.89	1842.15
694.08	2239.25
694.27	2260.55
694.46	1877.37
694.65	1902.15
694.85	2125.79
695.04	2106.54
695.23	1911.37
695.42	2155.49
695.61	2374.21
695.80	2505.89
696.00	2559.96
696.19	2637.78
696.38	2357.83
696.57	2404.11
696.76	2319.32
696.95	2165.32
697.15	2476.40
697.34	2456.33
697.53	2059.44
697.72	2145.04
697.91	2089.75
698.10	2351.27
698.30	1946.80
698.49	1902.77
698.68	2102.65
698.87	1971.99
699.06	1841.94
699.25	1922.22
699.45	2215.08
699.64	2064.56
699.83	2060.87
700.02	1871.43
700.21	2115.14
700.40	1942.70
700.59	1870.82
700.79	1950.49
700.98	2130.09
701.17	1903.79
701.36	1835.18
701.55	1869.59
701.74	2209.35
701.93	1823.51
702.12	1909.12
702.32	1813.89
702.51	2182.11
702.70	2111.66
702.89	1914.03
703.08	1857.92
703.27	2217.54
703.46	2100.40
703.65	1824.13
703.85	1807.74
704.04	1939.22
704.23	2213.65
704.42	1800.16
704.61	1854.64
704.80	2283.49
704.99	1919.15
705.18	1961.95
705.37	1901.13
705.57	2199.31
705.76	2448.35
705.95	2160.61
706.14	2532.11
706.33	2750.42
706.52	2934.53
706.71	2310.72
706.90	2183.34
707.09	2368.27
707.28	2306.83
707.47	2010.49
707.67	2162.65
707.86	2037.93
708.05	2304.17
708.24	1970.76
708.43	1956.01
708.62	2013.77
708.81	1917.72
709.00	1826.79
709.19	1867.54
709.38	2189.69
709.57	1833.34
709.76	1930.01
709.96	1828.43
710.15	2281.03
710.34	2012.95
710.53	2026.06
710.72	1892.32
710.91	2207.30
711.10	2116.99
711.29	1993.08
711.48	1842.97
711.67	1856.28
711.86	2069.06
712.05	1745.69
712.24	1794.84
712.43	2138.08
712.62	2261.78
712.81	1898.06
713.00	2087.29
713.19	1858.12
713.39	2088.31
713.58	1799.75
713.77	1948.03
713.96	2104.49
714.15	2013.36
714.34	1903.18
714.53	1756.34
714.72	2363.36
714.91	1869.18
715.10	1941.68
715.29	1802.42
715.48	2495.45
715.67	2153.85
715.86	1927.75
716.05	1906.66
716.24	2009.06
716.43	1938.81
716.62	1792.18
716.81	1794.02
717.00	1984.89
717.19	2270.58
717.38	1884.54
717.57	1902.36
717.76	1811.63
717.95	2170.03
718.14	1915.26
718.33	1946.80
718.52	1784.80
718.71	1795.25
718.90	1820.85
719.09	1862.83
719.28	2009.67
719.47	2174.53
719.66	1960.93
719.85	1995.75
720.04	1956.01
720.23	2003.53
720.42	1831.50
720.61	1961.95
720.80	1806.72
720.99	2049.40
721.18	1854.44
721.37	1797.09
721.56	1960.93
721.75	2162.04
721.94	1812.45
722.13	1871.23
722.32	1967.69
722.51	2154.67
722.70	1940.45
722.89	2004.96
723.08	2019.50
723.27	2209.55
723.46	1946.18
723.65	1918.13
723.84	1943.11
724.03	2221.02
724.22	1747.33
724.41	1929.60
724.60	1970.35
724.79	2171.26
724.98	1965.03
725.16	1881.06
725.35	2131.32
725.54	1879.01
725.73	1894.17
725.92	1933.49
726.11	2004.76
726.30	2151.60
726.49	1891.50
726.68	1958.27
726.87	2180.27
727.06	2323.01
727.25	1943.52
727.44	2029.33
727.63	2067.63
727.82	1990.63
728.01	1982.23
728.20	1998.41
728.38	2267.10
728.57	1984.89
728.76	1909.94
728.95	2076.85
729.14	1838.67
729.33	1884.54
729.52	1664.79
729.71	1789.31
729.90	1863.45
730.09	1942.09
730.28	1839.49
730.47	1840.10
730.66	2194.40
730.84	2015.00
731.03	1905.43
731.22	1911.78
731.41	2032.81
731.60	2097.32
731.79	1701.66
731.98	1788.90
732.17	2121.08
732.36	2106.95
732.55	1847.27
732.73	1741.59
732.92	2241.09
733.11	2098.96
733.30	1855.05
733.49	1778.46
733.68	2107.16
733.87	2061.89
734.06	1764.33
734.25	1778.25
734.43	1903.59
734.62	2053.70
734.81	1871.23
735.00	1849.73
735.19	1960.73
735.38	2090.77
735.57	1756.95
735.76	1961.34
735.94	2064.35
736.13	2360.69
736.32	1974.65
736.51	1897.44
736.70	2362.95
736.89	2336.53
737.08	2105.31
737.27	2379.33
737.45	2854.05
737.64	2772.34
737.83	2828.86
738.02	2900.33
738.21	2993.31
738.40	2906.48
738.59	2420.08
738.77	2440.77
738.96	2331.00
739.15	2407.18
739.34	2323.42
739.53	2216.72
739.72	2450.39
739.90	2348.00
740.09	1976.09
740.28	1998.61
740.47	2175.15
740.66	2176.58
740.85	1814.50
741.03	1933.49
741.22	1888.43
741.41	1987.96
741.60	1740.57
741.79	1946.39
741.98	2217.13
742.16	2328.54
742.35	1920.18
742.54	1939.43
742.73	2323.22
742.92	1962.77
743.10	1751.42
743.29	1854.64
743.48	2397.76
743.67	1946.39
743.86	1731.97
744.05	1802.01
744.23	1838.26
744.42	1883.72
744.61	1917.92
744.80	1776.00
744.99	1929.60
745.17	1763.30
745.36	1742.00
745.55	1979.77
745.74	2012.95
745.93	1912.39
746.11	1812.04
746.30	1771.29
746.49	2204.64
746.68	1880.85
746.86	1911.16
747.05	1871.64
747.24	2120.67
747.43	2159.79
747.62	1783.58
747.80	1824.54
747.99	2230.24
748.18	2129.68
748.37	1920.59
748.56	1965.23
748.74	2194.60
748.93	2079.51
749.12	2235.56
749.31	2897.26
749.49	3458.81
749.68	3767.65
749.87	4143.04
750.06	4031.02
750.24	4045.76
750.43	3931.08
750.62	3922.47
750.81	4086.31
750.99	4281.28
751.18	4221.48
751.37	3636.58
751.56	3457.18
751.74	3783.62
751.93	3756.59
752.12	2767.62
752.31	2624.27
752.49	2632.25
752.68	2783.39
752.87	2322.60
753.06	2189.28
753.24	2216.72
753.43	2401.04
753.62	1918.74
753.81	1926.11
753.99	2322.19
754.18	2142.58
754.37	1840.92
754.55	1911.37
754.74	2294.75
754.93	1762.28
755.12	1864.27
755.30	1787.26
755.49	2182.52
755.68	2059.23
755.86	1975.27
756.05	1759.82
756.24	2288.40
756.43	1834.98
756.61	1825.76
756.80	1950.08
756.99	2254.20
757.17	2038.14
757.36	1829.86
757.55	1872.87
757.74	2097.53
757.92	2040.19
758.11	1775.79
758.30	1705.96
758.48	1975.27
758.67	1820.23
758.86	1912.19
759.04	1806.10
759.23	1951.92
759.42	2018.89
759.60	1827.61
759.79	1906.25
759.98	1957.65
760.16	1880.85
760.35	1847.68
760.54	1792.18
760.73	2074.18
760.91	1834.37
761.10	1875.94
761.29	1961.95
761.47	2015.00
761.66	2411.28
761.85	1938.81
762.03	2103.47
762.22	2528.63
762.41	3467.83
762.59	4436.11
762.78	4907.75
762.97	5932.56
763.15	6141.45
763.34	5568.63
763.52	4466.21
763.71	4387.16
763.90	4297.25
764.08	3810.45
764.27	3720.54
764.46	3797.14
764.64	3318.53
764.83	3093.87
765.02	2926.96
765.20	2854.87
765.39	2715.61
765.58	2192.76
765.76	2131.12
765.95	2223.27
766.13	2138.49
766.32	1932.46
766.51	1895.19
766.69	2775.00
766.88	2091.39
767.07	1777.02
767.25	1675.44
767.44	2163.27
767.62	2226.55
767.81	1815.73
768.00	1872.87
768.18	2035.68
768.37	1902.36
768.56	1707.39
768.74	1830.88
768.93	1829.45
769.11	2079.30
769.30	1931.03
769.49	1858.12
769.67	1969.74
769.86	1936.76
770.04	1855.05
770.23	1815.32
770.42	2233.51
770.60	2004.76
770.79	1791.36
770.97	1851.16
771.16	2316.46
771.35	2356.39
771.53	2450.19
771.72	2590.07
771.90	2938.22
772.09	3223.91
772.27	2886.61
772.46	2463.09
772.65	2772.13
772.83	2609.93
773.02	2474.56
773.20	2238.84
773.39	2487.87
773.58	2426.43
773.76	2040.60
773.95	2040.80
774.13	2247.03
774.32	2113.71
774.50	1910.55
774.69	1962.77
774.87	2016.43
775.06	2423.98
775.25	1884.75
775.43	1868.98
775.62	2090.77
775.80	2134.60
775.99	1953.35
776.17	1871.64
776.36	2059.44
776.54	2236.18
776.73	1907.07
776.92	1979.98
777.10	2234.74
777.29	2105.93
777.47	1865.90
777.66	1894.58
777.84	2083.60
778.03	2021.96
778.21	1845.42
778.40	1956.22
778.58	2106.75
778.77	2217.54
778.95	1803.03
779.14	1857.92
779.32	2327.52
779.51	2163.88
779.70	1866.93
779.88	1771.29
780.07	1931.03
780.25	2446.71
780.44	1884.95
780.62	1968.51
780.81	2124.56
780.99	2054.73
781.18	1834.37
781.36	1789.72
781.55	2007.42
781.73	2280.62
781.92	1798.94
782.10	1789.92
782.29	2114.73
782.47	2289.22
782.66	1868.36
782.84	1746.51
783.03	1907.27
783.21	2229.62
783.40	1804.06
783.58	1828.22
783.77	1923.45
783.95	1976.29
784.14	1806.92
784.32	1897.85
784.51	2210.37
784.69	1895.60
784.88	1755.72
785.06	1864.68
785.24	1810.61
785.43	2164.29
785.61	1947.21
785.80	1784.60
785.98	2113.30
786.17	1995.13
786.35	1760.43
786.54	1973.83
786.72	2147.50
786.91	2162.86
787.09	1874.10
787.28	1760.43
787.46	2015.00
787.65	2170.44
787.83	1733.40
788.01	1866.72
788.20	1825.35
788.38	2005.58
788.57	1810.40
788.75	1819.83
788.94	2338.78
789.12	2123.74
789.31	1934.31
789.49	2008.24
789.67	1956.42
789.86	2059.44
790.04	1782.35
790.23	1716.20
790.41	2360.90
790.60	1960.73
790.78	1843.58
790.96	1852.39
791.15	2129.27
791.33	1960.52
791.52	1888.84
791.70	1788.70
791.89	2059.44
792.07	2153.44
792.25	1886.79
792.44	1717.43
792.62	2183.13
792.81	1945.98
792.99	1859.76
793.17	1830.27
793.36	1883.11
793.54	2368.89
793.73	2236.38
793.91	2290.04
794.10	2743.25
794.28	2965.25
794.46	2681.82
794.65	2653.76
794.83	2445.89
795.01	2501.39
795.20	2473.54
795.38	2337.96
795.57	2470.67
795.75	2424.59
795.93	2133.16
796.12	2125.79
796.30	2307.65
796.49	2297.00
796.67	1935.54
796.85	2057.59
797.04	2100.81
797.22	2162.45
797.40	1788.49
797.59	1954.99
797.77	2022.78
797.96	1905.84
798.14	1806.51
798.32	1858.74
798.51	2131.94
798.69	2337.14
798.87	1895.80
799.06	1864.06
799.24	1788.90
799.42	2232.90
799.61	2118.42
799.79	2155.08
799.98	2683.86
800.16	2407.80
800.34	2616.69
800.53	2906.48
800.71	3046.76
800.89	3627.36
801.08	3319.76
801.26	3335.73
801.44	3022.60
801.63	2754.52
801.81	2707.41
801.99	2578.60
802.18	2582.28
802.36	2599.69
802.54	2448.76
802.73	2191.12
802.91	2350.86
803.09	2337.76
803.28	2220.82
803.46	2162.04
803.64	2429.10
803.83	1945.57
804.01	1860.99
804.19	1822.69
804.38	2155.28
804.56	2102.24
804.74	1888.43
804.92	1910.55
805.11	1849.11
805.29	2160.20
805.47	1823.51
805.66	1759.82
805.84	1812.66
806.02	2176.38
806.21	1823.31
806.39	2043.46
806.57	2156.51
806.76	2150.16
806.94	1883.72
807.12	1817.98
807.30	1895.80
807.49	2037.73
807.67	1916.08
807.85	1988.37
808.04	2137.46
808.22	2346.15
808.40	1791.36
808.58	1739.54
808.77	2093.23
808.95	2256.86
809.13	1975.27
809.31	2528.83
809.50	2952.15
809.68	3224.12
809.86	3055.16
810.05	3265.28
810.23	3937.83
810.41	4705.21
810.59	7120.99
810.78	8574.64
810.96	9964.80
811.14	10745.49
811.32	10113.07
811.51	8289.56
811.69	7130.62
811.87	7159.90
812.05	6234.43
812.24	5915.35
812.42	5805.17
812.60	5417.29
812.78	4527.85
812.97	4091.43
813.15	4232.33
813.33	3704.98
813.51	3324.06
813.70	2806.95
813.88	2610.34
814.06	2509.79
814.24	2271.61
814.42	1968.51
814.61	2217.75
814.79	2433.40
814.97	1805.49
815.15	1857.30
815.34	2095.28
815.52	2194.19
815.70	1810.61
815.88	1886.38
816.06	1877.37
816.25	1914.24
816.43	1827.81
816.61	1967.28
816.79	2242.32
816.98	1755.31
817.16	1802.83
817.34	1793.41
817.52	2061.49
817.70	2263.82
817.89	1855.66
818.07	1759.82
818.25	1998.00
818.43	2032.61
818.61	1880.65
818.80	1833.75
818.98	2312.16
819.16	2038.14
819.34	1737.70
819.52	2134.80
819.70	1896.21
819.89	2031.18
820.07	1752.86
820.25	1722.55
820.43	2035.27
820.61	2160.20
820.80	1887.20
820.98	1770.88
821.16	1769.24
821.34	1830.68
821.52	1846.04
821.70	1977.52
821.89	2033.02
822.07	1981.41
822.25	1914.44
822.43	1806.92
822.61	2253.99
822.79	2054.32
822.98	1879.63
823.16	1718.45
823.34	2059.44
823.52	2220.61
823.70	1949.26
823.88	1726.64
824.06	2111.87
824.25	2017.25
824.43	1969.94
824.61	1785.42
824.79	2008.44
824.97	2038.34
825.15	1979.36
825.33	2201.36
825.52	2438.52
825.70	2323.01
825.88	2281.03
826.06	2374.62
826.24	2495.45
826.42	2522.48
826.60	2170.85
826.78	2261.98
826.97	2226.35
827.15	2423.16
827.33	2012.33
827.51	2067.83
827.69	2062.51
827.87	2156.72
828.05	2041.01
828.23	1885.56
828.41	2221.64
828.60	2201.16
828.78	1801.60
828.96	2005.99
829.14	1919.77
829.32	1985.92
829.50	1864.06
829.68	1851.57
829.86	1931.64
830.04	2094.66
830.22	1980.18
830.41	1786.44
830.59	1986.73
830.77	2100.60
830.95	1829.04
831.13	1832.52
831.31	1904.82
831.49	2163.47
831.67	1991.44
831.85	2001.07
832.03	1950.08
832.21	2142.79
832.39	1724.59
832.57	1756.75
832.76	2146.89
832.94	1971.99
833.12	1699.61
833.30	1843.79
833.48	2221.23
833.66	2060.67
833.84	1833.34
834.02	1874.51
834.20	2183.54
834.38	2152.01
834.56	1721.73
834.74	1793.41
834.92	1820.64
835.10	2306.42
835.28	1898.88
835.46	1933.90
835.64	1986.32
835.82	1923.86
836.01	2127.02
836.19	2056.37
836.37	1946.18
836.55	1852.39
836.73	1817.78
836.91	1776.82
837.09	2133.16
837.27	2246.01
837.45	1744.66
837.63	1754.90
837.81	1793.61
837.99	1977.93
838.17	1884.95
838.35	1776.41
838.53	2357.01
838.71	2103.47
838.89	1809.38
839.07	1813.89
839.25	2017.45
839.43	2153.23
839.61	1895.60
839.79	2308.27
839.97	2695.33
840.15	2874.73
840.33	2771.93
840.51	3031.61
840.69	2916.31
840.87	2750.22
841.05	2581.67
841.23	2573.27
841.41	2966.28
841.59	3657.47
841.77	3695.35
841.95	3971.42
842.13	4447.16
842.31	4050.06
842.49	3465.78
842.67	3296.41
842.85	3404.54
843.03	3020.75
843.21	2777.46
843.39	2917.74
843.57	2816.37
843.75	2748.17
843.93	2429.30
844.11	2384.45
844.29	2452.44
844.47	2314.61
844.65	2306.83
844.83	2091.39
845.01	2152.62
845.19	2289.42
845.36	1979.98
845.54	1994.11
845.72	2079.71
845.90	2158.76
846.08	1847.88
846.26	1937.99
846.44	2087.29
846.62	2096.71
846.80	1954.58
846.98	1837.64
847.16	1979.57
847.34	2058.62
847.52	1805.08
847.70	1760.02
847.88	1987.55
848.06	2274.27
848.24	1945.98
848.41	1770.06
848.59	2189.07
848.77	2069.06
848.95	1832.52
849.13	1828.84
849.31	2171.46
849.49	2048.17
849.67	1786.03
849.85	1780.71
850.03	2060.67
850.21	2060.05
850.39	1775.59
850.57	1972.81
850.74	2269.97
850.92	2255.22
851.10	2075.21
851.28	2047.97
851.46	2380.15
851.64	2742.84
851.82	2270.58
852.00	2305.60
852.18	2575.32
852.36	2423.77
852.53	2116.58
852.71	2171.26
852.89	2289.22
853.07	2287.99
853.25	1979.57
853.43	1874.30
853.61	2149.14
853.79	2164.91
853.97	1901.54
854.14	1895.40
854.32	2299.46
854.50	2173.71
854.68	1893.76
854.86	1867.75
855.04	1911.37
855.22	2161.22
855.40	1748.97
855.57	1812.04
855.75	2128.86
855.93	2080.33
856.11	1717.84
856.29	1826.17
856.47	1896.01
856.65	2056.16
856.82	1781.53
857.00	1752.24
857.18	2002.91
857.36	1944.14
857.54	1927.75
857.72	1984.28
857.89	2146.48
858.07	2022.16
858.25	2056.16
858.43	1748.76
858.61	1975.06
858.79	1991.04
858.97	1784.60
859.14	1945.57
859.32	2008.65
859.50	1959.09
859.68	1891.91
859.86	1811.43
860.03	2004.96
860.21	2106.54
860.39	1806.10
860.57	1957.04
860.75	2073.16
860.93	2293.52
861.10	2012.33
861.28	1787.88
861.46	2055.34
861.64	2071.93
861.82	1848.50
861.99	1948.44
862.17	2157.54
862.35	2170.64
862.53	1877.17
862.71	1860.99
862.88	2062.10
863.06	2134.60
863.24	1844.40
863.42	1814.91
863.60	1974.86
863.77	2096.10
863.95	1694.69
864.13	1868.16
864.31	1994.31
864.49	2142.58
864.66	1778.46
864.84	1808.77
865.02	2043.26
865.20	2479.48
865.37	1926.73
865.55	1796.48
865.73	1828.43
865.91	2140.74
866.09	1973.63
866.26	1940.66
866.44	2169.21
866.62	2006.60
866.80	1787.26
866.97	1869.80
867.15	1995.75
867.33	2080.74
867.51	1949.67
867.68	1883.11
867.86	1959.91
868.04	1951.92
868.22	1687.94
868.39	1837.23
868.57	2086.06
868.75	2270.58
868.93	1739.14
869.10	1835.39
869.28	2334.07
869.46	2236.18
869.64	1866.72
869.81	1817.16
869.99	2055.55
870.17	2013.56
870.35	1782.14
870.52	1859.15
870.70	2178.63
870.88	1909.73
871.05	1775.18
871.23	1658.85
871.41	1991.65
871.59	2016.84
871.76	1848.70
871.94	1779.28
872.12	2065.38
872.29	1799.75
872.47	1842.15
872.65	1764.73
872.83	2063.33
873.00	2235.15
873.18	1861.60
873.36	1790.33
873.53	2116.58
873.71	1795.86
873.89	1751.01
874.06	1873.28
874.24	2077.87
874.42	2229.62
874.60	1960.32
874.77	1913.21
874.95	1900.11
875.13	2192.76
875.30	1830.27
875.48	1773.75
875.66	2270.79
875.83	1879.22
876.01	1819.62
876.19	1921.61
876.36	1810.20
876.54	2012.33
876.72	1773.95
876.89	1907.07
877.07	2137.06
877.25	1742.00
877.42	1884.75
877.60	1838.87
877.78	2309.70
877.95	1952.33
878.13	1780.09
878.31	1981.61
878.48	2172.08
878.66	2152.01
878.84	1845.42
879.01	1835.80
879.19	2088.11
879.37	2116.99
879.54	1855.66
879.72	1737.50
879.90	1736.06
880.07	2156.10
880.25	1578.78
880.42	2008.65
880.60	2037.93
880.78	2149.14
880.95	1826.79
881.13	1890.89
881.31	2032.40
881.48	1934.10
881.66	1783.37
881.83	1909.94
882.01	1907.68
882.19	1825.15
882.36	1880.44
882.54	1811.43
882.72	2134.80
882.89	2040.39
883.07	1779.68
883.24	1834.98
883.42	2146.68
883.60	2041.01
883.77	1743.64
883.95	1862.22
884.12	2155.49
884.30	2052.68
884.48	1969.53
884.65	1855.25
884.83	2041.42
885.00	2058.82
885.18	1734.42
885.36	1853.41
885.53	2112.89
885.71	2219.59
885.88	1745.07
886.06	1823.92
886.23	2128.66
886.41	1962.36
886.59	1815.32
886.76	1785.83
886.94	2097.73
887.11	2483.37
887.29	1861.19
887.47	1767.19
887.64	2203.82
887.82	2226.35
887.99	1688.76
888.17	1847.47
888.34	1964.00
888.52	1847.47
888.69	1826.17
888.87	1768.01
889.05	1948.64
889.22	1955.20
889.40	1832.11
889.57	2051.25
889.75	2288.40
889.92	1961.75
890.10	1753.47
890.27	1875.94
890.45	1923.66
890.62	1762.69
890.80	1767.81
890.98	1673.80
891.15	2265.05
891.33	2175.15
891.50	1809.59
891.68	1693.47
891.85	2159.58
892.03	2127.84
892.20	1785.62
892.38	1749.99
892.55	2120.67
892.73	2133.57
892.90	1706.78
893.08	1809.18
893.25	1964.82
893.43	1947.00
893.60	1901.74
893.78	1670.32
893.95	2079.10
894.13	1995.54
894.30	1790.74
894.48	1853.21
894.65	2154.46
894.83	2026.87
895.00	1675.85
895.18	1658.24
895.35	2170.85
895.53	2087.29
895.70	1708.42
895.88	1931.85
896.05	2063.94
896.23	1801.39
896.40	1778.25
896.58	1860.17
896.75	2148.73
896.93	2204.02
897.10	1814.71
897.28	1711.69
897.45	2031.99
897.63	2108.38
897.80	1940.66
897.98	1811.02
898.15	2062.30
898.33	1947.82
898.50	1866.93
898.67	1812.45
898.85	1936.97
899.02	2087.29
899.20	2055.75
899.37	1812.45
899.55	2023.60
899.72	2228.39
899.90	1796.48
900.07	1779.48
900.25	2082.37
900.42	2216.72
900.59	1811.02
900.77	1948.44
900.94	2084.01
901.12	2043.05
901.29	1800.37
901.47	1967.48
901.64	2119.03
901.82	1993.90
901.99	1631.21
902.16	1751.42
902.34	2206.28
902.51	2056.57
902.69	1773.13
902.86	1839.90
903.03	2633.07
903.21	1979.36
903.38	1804.87
903.56	1776.82
903.73	2190.71
903.91	1963.80
904.08	1762.28
904.25	1651.28
904.43	1873.89
904.60	2144.63
904.78	1821.26
904.95	1755.31
905.12	1949.67
905.30	2290.65
905.47	1916.90
905.65	1980.80
905.82	1970.76
905.99	2068.65
906.17	1809.79
906.34	1781.94
906.52	1852.80
906.69	2080.94
906.86	1895.19
907.04	1881.47
907.21	2131.94
907.38	2145.04
907.56	1774.77
907.73	1758.59
907.91	2237.61
908.08	2229.01
908.25	1838.87
908.43	1720.70
908.60	2103.88
908.77	2017.25
908.95	1808.56
909.12	1730.74
909.30	2111.05
909.47	1802.21
909.64	1832.93
909.82	2005.37
909.99	1986.53
910.16	2022.16
910.34	1764.53
910.51	1808.56
910.68	2061.08
910.86	2004.76
911.03	1732.99
911.20	1831.91
911.38	2448.55
911.55	2990.24
911.72	2995.56
911.90	2965.87
912.07	3394.71
912.24	3536.43
912.42	2773.97
912.59	2418.04
912.76	2685.30
912.94	2424.18
913.11	2148.32
913.28	2021.35
913.46	2017.66
913.63	2217.95
913.80	2273.45
913.98	1920.38
914.15	2288.61
914.32	2310.11
914.49	1991.24
914.67	1826.17
914.84	2090.16
915.01	2164.09
915.19	1985.71
915.36	1830.27
915.53	2178.01
915.71	2140.95
915.88	1935.54
916.05	1819.83
916.22	2167.37
916.40	2060.87
916.57	1732.17
916.74	1954.58
916.92	2287.58
917.09	1893.76
917.26	1749.99
917.43	1708.83
917.61	1932.87
917.78	1763.51
917.95	1741.18
918.13	1730.53
918.30	2377.28
918.47	2030.77
918.64	1761.46
918.82	1730.74
918.99	1987.35
919.16	2264.85
919.33	1837.23
919.51	1796.27
919.68	1957.86
919.85	2202.59
920.02	1700.84
920.20	1831.70
920.37	2239.66
920.54	2153.64
920.71	1745.48
920.89	1814.30
921.06	2292.91
921.23	1873.07
921.40	1749.37
921.58	1932.46
921.75	2629.80
921.92	2009.67
922.09	1998.61
922.27	1952.53
922.44	2115.76
922.61	2173.92
922.78	1857.51
922.96	1858.74
923.13	2012.54
923.30	2171.26
923.47	1736.27
923.64	1784.60
923.82	2101.63
923.99	2050.63
924.16	1915.87
924.33	1744.05
924.50	2016.23
924.68	2278.37
924.85	1751.42
925.02	1823.10
925.19	2156.92
925.36	2032.20
925.54	1859.76
925.71	1848.29
925.88	2529.24
926.05	1943.52
926.22	1753.68
926.40	1919.97
926.57	2037.32
926.74	2124.97
926.91	1797.30
927.08	1988.99
927.26	2190.30
927.43	2025.44
927.60	1781.94
927.77	1839.49
927.94	2274.47
928.11	2226.14
928.29	1704.73
928.46	1852.59
928.63	1890.89
928.80	1952.74
928.97	1887.20
929.14	1786.24
929.32	2381.38
929.49	2030.56
929.66	1767.40
929.83	1711.90
930.00	1924.68
930.17	2084.63
930.35	1739.95
930.52	1779.48
930.69	2276.11
930.86	1823.10
931.03	1882.49
931.20	1614.00
931.37	2189.48
931.55	1994.72
931.72	1874.51
931.89	1704.93
932.06	1852.39
932.23	2270.58
932.40	1924.27
932.57	1947.41
932.74	2220.82
932.92	2197.88
933.09	1959.91
933.26	1554.41
933.43	1933.49
933.60	2072.75
933.77	1855.46
933.94	1900.92
934.11	1987.55
934.29	2032.40
934.46	1753.68
934.63	1885.77
934.80	1809.99
934.97	1987.96
935.14	1842.35
935.31	1657.22
935.48	1851.36
935.65	2052.06
935.82	1848.09
936.00	1728.08
936.17	2242.73
936.34	1977.31
936.51	1859.97
936.68	1719.47
936.85	2039.78
937.02	2043.26
937.19	1911.78
937.36	1834.78
937.53	2059.23
937.70	2130.71
937.87	1777.02
938.05	1902.56
938.22	2059.64
938.39	1843.38
938.56	1842.35
938.73	1714.76
938.90	1963.18
939.07	1920.18
939.24	1898.26
939.41	1667.46
939.58	2100.60
939.75	2077.87
939.92	1790.13
940.09	2043.26
940.26	1965.23
940.43	2154.67
940.60	1845.42
940.77	1850.13
940.95	2054.93
941.12	2134.80
941.29	1849.32
941.46	1868.57
941.63	2179.24
941.80	2270.99
941.97	1702.68
942.14	1708.01
942.31	2144.22
942.48	1973.63
942.65	1918.54
942.82	1850.54
942.99	2121.29
943.16	2010.49
943.33	1728.08
943.50	1757.36
943.67	2182.93
943.84	2194.19
944.01	1813.48
944.18	1790.13
944.35	2263.01
944.52	1884.13
944.69	1895.19
944.86	1719.47
945.03	2118.01
945.20	2443.84
945.37	1659.06
945.54	1855.46
945.71	2244.98
945.88	2273.86
946.05	1766.78
946.22	1746.10
946.39	2239.45
946.56	2001.07
946.73	1670.53
946.90	1775.59
947.07	1920.59
947.24	1967.07
947.41	1665.41
947.58	1916.08
947.75	2114.94
947.92	2051.04
948.09	1582.26
948.26	1696.95
948.43	2042.23
948.60	2340.42
948.77	1755.72
948.94	1782.14
949.11	2148.32
949.27	2076.23
949.44	1769.45
949.61	1719.06
949.78	2070.50
949.95	2205.05
950.12	1700.43
950.29	1677.49
950.46	1933.49
950.63	2187.64
950.80	1753.06
950.97	1817.57
951.14	2188.66
951.31	1992.67
951.48	1747.33
951.65	1694.49
951.82	2321.78
951.99	2035.27
952.15	1725.41
952.32	1789.72
952.49	1907.27
952.66	1936.56
952.83	1770.67
953.00	1750.60
953.17	2001.48
953.34	2171.05
953.51	1847.88
953.68	1828.84
953.85	2203.20
954.02	2220.61
954.18	1828.43
954.35	1811.02
954.52	1912.39
954.69	2023.80
954.86	1667.25
955.03	1885.36
955.20	2146.68
955.37	1991.04
955.54	1787.88
955.71	1769.44
955.87	2079.10
956.04	2296.59
956.21	1782.35
956.38	1746.71
956.55	2012.95
956.72	2434.63
956.89	1842.76
957.06	1710.26
957.23	1900.52
957.39	2221.64
957.56	1823.51
957.73	1706.16
957.90	1681.59
958.07	2314.20
958.24	1830.68
958.41	1820.44
958.57	2154.67
958.74	2011.92
958.91	1715.58
959.08	1746.51
959.25	2135.62
959.42	1976.90
959.59	1847.68
959.75	1811.63
959.92	2196.45
960.09	2182.32
960.26	1779.07
960.43	1863.86
960.60	2058.21
960.76	1983.05
960.93	1670.32
961.10	1844.61
961.27	2171.46
961.44	2015.00
961.61	1686.91
961.77	1712.51
961.94	2067.83
962.11	2168.18
962.28	1783.78
962.45	1707.19
962.62	1997.59
962.78	2168.59
962.95	1687.94
963.12	1764.33
963.29	2168.80
963.46	2471.69
963.62	1853.62
963.79	1767.19
963.96	2435.03
964.13	1980.80
964.30	1884.34
964.46	1758.39
964.63	1858.33
964.80	2445.68
964.97	1653.12
965.14	1933.08
965.30	2116.58
965.47	2171.67
965.64	1978.13
965.81	1940.66
965.98	2280.00
966.14	2063.33
966.31	1781.12
966.48	1768.42
966.65	2208.94
966.81	2050.43
966.98	1794.84
967.15	1801.60
967.32	2004.55
967.49	1879.22
967.65	1658.45
967.82	1621.79
967.99	1973.63
968.16	1776.61
968.32	1968.71
968.49	1744.66
968.66	1993.29
968.83	2258.09
968.99	1880.04
969.16	1709.64
969.33	2210.99
969.50	2108.18
969.66	1908.50
969.83	2045.10
970.00	2150.16
970.17	2113.71
970.33	1791.56
970.50	1721.11
970.67	2257.07
970.84	2233.72
971.00	1723.78
971.17	1676.26
971.34	2121.29
971.50	2008.03
971.67	1912.39
971.84	1815.73
972.01	1825.56
972.17	1711.90
972.34	1687.94
972.51	1933.08
972.67	2191.94
972.84	2084.63
973.01	1743.23
973.18	1767.81
973.34	2168.59
973.51	1858.12
973.68	1822.90
973.84	1826.17
974.01	1981.61
974.18	2280.82
974.34	1868.77
974.51	1879.22
974.68	1899.49
974.85	2363.15
975.01	1887.20
975.18	1784.80
975.35	2026.26
975.51	1930.21
975.68	1680.15
975.85	1939.84
976.01	1907.48
976.18	2188.05
976.35	1781.94
976.51	1815.73
976.68	2302.33
976.85	2209.35
977.01	1819.42
977.18	1883.52
977.35	2114.94
977.51	1811.63
977.68	1627.52
977.85	1687.32
978.01	2178.63
978.18	2112.48
978.35	1841.53
978.51	1843.58
978.68	2163.88
978.85	2271.40
979.01	1814.09
979.18	1810.20
979.34	2015.82
979.51	2030.77
979.68	1730.12
979.84	1850.95
980.01	2415.58
980.18	2029.33
980.34	1753.27
980.51	1848.50
980.67	2160.40
980.84	2160.20
981.01	1797.71
981.17	1874.30
981.34	1760.23
981.51	2128.45
981.67	1750.40
981.84	1899.08
982.00	2087.49
982.17	1995.54
982.34	1658.45
982.50	1560.14
982.67	2272.84
982.83	1956.42
983.00	1691.83
983.17	1574.48
983.33	2188.46
983.50	1765.14
983.66	1699.81
983.83	1588.40
984.00	1942.91
984.16	2004.76
984.33	1604.99
984.49	1588.61
984.66	1877.78
984.83	2159.99
984.99	1628.75
985.16	1585.74
985.32	2127.63
985.49	2143.61
985.65	1720.91
985.82	1587.79
985.99	2267.10
986.15	2018.48
986.32	1700.22
986.48	1649.23
986.65	1961.95
986.81	2130.91
986.98	1598.03
987.14	1667.87
987.31	2031.58
987.48	1795.66
987.64	1520.41
987.81	1541.92
987.97	2376.46
988.14	1886.59
988.30	1641.65
988.47	1489.49
988.63	2070.50
988.80	1856.48
988.96	1651.48
989.13	1716.61
989.30	1972.81
989.46	2148.73
989.63	1566.08
989.79	1567.92
989.96	1999.84
990.12	2271.61
990.29	1634.69
990.45	1672.99
990.62	1999.23
990.78	2213.24
990.95	1731.15
991.11	1636.33
991.28	1933.49
991.44	2068.65
991.61	1501.78
991.77	1670.73
991.94	2049.40
992.10	2191.12
992.27	1677.08
992.43	1632.85
992.60	2077.66
992.76	1959.29
992.93	1815.73
993.09	1575.50
993.26	2171.26
993.42	2282.26
993.59	1616.46
993.75	1536.59
993.92	1857.71
994.08	1885.16
994.25	1685.89
994.41	1575.50
994.58	2123.13
994.74	2237.61
994.91	1577.55
995.07	1715.79
995.24	1979.57
995.40	2012.54
995.56	1771.29
995.73	1706.57
995.89	2275.70
996.06	1998.61
996.22	1602.54
996.39	1526.15
996.55	1964.41
996.72	2078.69
996.88	1556.87
997.05	1597.21
997.21	2362.54
997.37	2091.39
997.54	1703.50
997.70	1631.82
997.87	2071.93
998.03	1976.09
998.20	1535.77
998.36	1532.09
998.52	2128.86
998.69	2189.07
998.85	1542.12
999.02	1642.47
999.18	2156.51
999.35	2136.44
999.51	1662.13
999.67	1656.40
999.84	1834.78
1000.00	2136.85
1000.17	1714.35
1000.33	1581.44
1000.49	1932.05
1000.66	1963.80
1000.82	1611.55
1000.99	1691.21
1001.15	2198.90
1001.31	1985.10
1001.48	1642.88
1001.64	1723.78
1001.81	1968.92
1001.97	2362.33
1002.13	1665.41
1002.30	1647.39
1002.46	2236.79
1002.63	1959.91
1002.79	1732.17
1002.95	1594.55
1003.12	2174.53
1003.28	2093.02
1003.45	1605.20
1003.61	1538.84
1003.77	2052.06
1003.94	1817.37
1004.10	1633.26
1004.26	1706.57
1004.43	2097.53
1004.59	2274.06
1004.75	1639.60
1004.92	1603.97
1005.08	1929.80
1005.25	2066.81
1005.41	1626.29
1005.57	1702.68
1005.74	2179.65
1005.90	1930.42
1006.06	1742.21
1006.23	1624.04
1006.39	2120.67
1006.55	2454.90
1006.72	1758.59
1006.88	1569.56
1007.04	1860.37
1007.21	1982.23
1007.37	1658.65
1007.53	1602.33
1007.70	2273.86
1007.86	2132.75
1008.02	1707.19
1008.19	1561.78
1008.35	2051.86
1008.51	1871.23
1008.68	1615.44
1008.84	1567.52
1009.00	1862.42
1009.17	2178.63
1009.33	1782.14
1009.49	1712.31
1009.65	1863.24
1009.82	2085.86
1009.98	1707.80
1010.14	1546.83
1010.31	2114.32
1010.47	2084.42
1010.63	1688.55
1010.80	1686.91
1010.96	2083.60
1011.12	1949.87
1011.28	1648.21
1011.45	1608.88
1011.61	2481.52
1011.77	1864.88
1011.94	1591.48
1012.10	1571.00
1012.26	1844.20
1012.42	1934.10
1012.59	1681.18
1012.75	1677.08
1012.91	1996.97
1013.07	2158.76
1013.24	1579.80
1013.40	1602.54
1013.56	2048.58
1013.72	1981.00
1013.89	1693.06
1014.05	1717.43
1014.21	2319.94
1014.37	2454.90
1014.54	1679.54
1014.70	1568.54
1014.86	1962.36
1015.02	1854.23
1015.19	1638.78
1015.35	1582.67
1015.51	1985.92
1015.67	1948.44
1015.84	1633.66
1016.00	1649.02
1016.16	2188.05
1016.32	2128.45
1016.49	1629.16
1016.65	1551.34
1016.81	1987.76
1016.97	2088.52
1017.14	1754.49
1017.30	1655.99
1017.46	1931.44
1017.62	2064.35
1017.78	1674.62
1017.95	1591.07
1018.11	2143.81
1018.27	2413.74
1018.43	1783.17
1018.59	1696.95
1018.76	2115.76
1018.92	2474.77
1019.08	1614.41
1019.24	1641.45
1019.40	2245.19
1019.57	2015.20
1019.73	1731.76
1019.89	1647.80
1020.05	2053.50
1020.21	2370.52
1020.38	1599.67
1020.54	1771.29
1020.70	2114.73
1020.86	2110.43
1021.02	1599.67
1021.18	1607.66
1021.35	1916.49
1021.51	2093.64
1021.67	1797.91
1021.83	1676.06
1021.99	2026.26
1022.15	2066.40
1022.32	1686.71
1022.48	1687.12
1022.64	2251.74
1022.80	2277.14
1022.96	1722.14
1023.12	1562.19
1023.29	2159.79
1023.45	2065.17
1023.61	1621.38
1023.77	1829.45
1023.93	2048.79
1024.09	1890.07
1024.25	1616.46
1024.42	1550.52
1024.58	1947.21
1024.74	2081.56
1024.90	1635.92
1025.06	1708.42
1025.22	1931.23
1025.38	2266.08
1025.54	1577.14
1025.71	1709.85
1025.87	2113.50
1026.03	2082.58
1026.19	1583.08
1026.35	1797.91
1026.51	2108.18
1026.67	2016.43
1026.83	1688.76
1026.99	1787.06
1027.16	2100.19
1027.32	1985.10
1027.48	1675.44
1027.64	1609.50
1027.80	2103.47
1027.96	2048.17
1028.12	1621.58
1028.28	1611.55
1028.44	2068.86
1028.60	2292.09
1028.77	1765.14
1028.93	1681.38
1029.09	1969.74
1029.25	1848.50
1029.41	1684.45
1029.57	1751.22
1029.73	2069.06
1029.89	2269.97
1030.05	1747.94
1030.21	1723.98
1030.37	2406.16
1030.53	2103.26
1030.69	1678.31
1030.85	1557.28
1031.02	1885.97
1031.18	2003.12
1031.34	1637.15
1031.50	1724.80
1031.66	1898.47
1031.82	2279.18
1031.98	1677.90
1032.14	1581.65
1032.30	1863.24
1032.46	2147.09
1032.62	1774.16
1032.78	1560.96
1032.94	1918.95
1033.10	1965.44
1033.26	1718.25
1033.42	1779.68
1033.58	2387.73
1033.74	1929.19
1033.90	1627.52
1034.06	1811.22
1034.22	2383.02
1034.38	2195.83
1034.54	1685.27
1034.70	1709.85
1034.86	2314.41
>>>>>End Processed Spectral Data<<<<<
