SpectraSuite Data File
++++++++++++++++++++++++++++++++++++
Date: Thu Mar 30 16:04:33 PDT 2017
User: UCSD _CER
Dark Spectrum Present: No
Reference Spectrum Present: No
Number of Sampled Component Spectra: 1
Spectrometers: USB4C00073
Integration Time (usec): 250000 (USB4C00073)
Spectra Averaged: 10 (USB4C00073)
Boxcar Smoothing: 0 (USB4C00073)
Correct for Electrical Dark: No (USB4C00073)
Strobe/Lamp Enabled: No (USB4C00073)
Correct for Detector Non-linearity: No (USB4C00073)
Correct for Stray Light: No (USB4C00073)
Number of Pixels in Processed Spectrum: 3648
>>>>>Begin Processed Spectral Data<<<<<
345.37	1279.16
345.58	1279.16
345.80	1279.16
346.01	1281.00
346.22	1272.61
346.43	1990.22
346.65	1769.85
346.86	2110.02
347.07	2058.41
347.28	1808.77
347.50	1771.90
347.71	1925.71
347.92	1708.62
348.13	1819.83
348.35	1714.97
348.56	1923.04
348.77	1759.41
348.98	1820.85
349.20	1675.44
349.41	1927.75
349.62	1955.20
349.83	1865.29
350.05	1717.84
350.26	1953.76
350.47	2082.78
350.68	1787.26
350.90	1740.16
351.11	2098.35
351.32	2056.16
351.53	1813.89
351.75	1743.44
351.96	1963.59
352.17	1905.84
352.38	1852.80
352.60	1861.40
352.81	1933.90
353.02	2128.66
353.23	1769.65
353.44	1805.28
353.66	1836.82
353.87	1874.51
354.08	1888.84
354.29	1816.75
354.51	1849.32
354.72	1878.40
354.93	1802.21
355.14	1735.04
355.35	1755.31
355.57	2049.20
355.78	1830.68
355.99	1896.62
356.20	1933.08
356.42	1925.71
356.63	1910.35
356.84	1816.34
357.05	2003.32
357.26	2188.05
357.48	1896.21
357.69	1842.56
357.90	1945.37
358.11	1878.40
358.32	1796.27
358.54	1849.32
358.75	1863.65
358.96	1995.54
359.17	1800.78
359.38	1777.64
359.60	1984.28
359.81	1887.41
360.02	1818.19
360.23	1754.49
360.44	1839.08
360.66	2041.42
360.87	1762.28
361.08	1734.83
361.29	1971.37
361.50	1898.88
361.72	1771.49
361.93	1840.51
362.14	1912.19
362.35	1734.02
362.56	1872.66
362.77	1726.03
362.99	1992.67
363.20	1916.90
363.41	1870.61
363.62	1711.28
363.83	1979.77
364.05	2020.73
364.26	1708.01
364.47	1767.40
364.68	2058.00
364.89	1818.60
365.10	1761.66
365.32	1822.69
365.53	1807.33
365.74	1866.11
365.95	1805.69
366.16	1705.96
366.37	1898.67
366.59	1880.44
366.80	1806.72
367.01	1682.20
367.22	2144.22
367.43	2289.01
367.64	1813.68
367.86	1785.42
368.07	1977.72
368.28	2055.96
368.49	1722.96
368.70	1850.13
368.91	1869.59
369.12	1887.00
369.34	1720.91
369.55	1731.97
369.76	1910.96
369.97	1855.87
370.18	1735.65
370.39	1749.99
370.60	1733.61
370.82	1793.82
371.03	1764.53
371.24	1749.17
371.45	1983.46
371.66	1981.00
371.87	1816.34
372.08	1766.58
372.30	1764.53
372.51	2017.25
372.72	1871.64
372.93	1762.89
373.14	2069.06
373.35	1806.72
373.56	1732.38
373.78	1804.87
373.99	2027.90
374.20	2251.54
374.41	1799.35
374.62	1808.97
374.83	2106.13
375.04	1869.39
375.25	1813.27
375.47	1761.87
375.68	1841.53
375.89	1997.18
376.10	1814.91
376.31	1918.95
376.52	1966.25
376.73	1966.25
376.94	1821.26
377.15	1797.91
377.37	1909.94
377.58	1881.88
377.79	1682.82
378.00	1717.02
378.21	1946.39
378.42	1973.42
378.63	1826.79
378.84	1862.83
379.05	2031.18
379.27	1894.99
379.48	1927.55
379.69	1716.20
379.90	2039.16
380.11	1659.47
380.32	1806.51
380.53	1889.66
380.74	2075.82
380.95	1928.57
381.16	1766.99
381.37	1777.43
381.59	2084.22
381.80	2007.62
382.01	1748.35
382.22	1680.36
382.43	1951.51
382.64	1932.87
382.85	1739.34
383.06	1877.78
383.27	2008.24
383.48	1858.74
383.69	1837.03
383.91	1727.05
384.12	1973.63
384.33	1958.47
384.54	1787.06
384.75	1702.68
384.96	2288.40
385.17	1994.31
385.38	1791.36
385.59	1757.57
385.80	1991.85
386.01	2071.73
386.22	1878.19
386.43	1817.98
386.64	2167.77
386.86	1890.28
387.07	1924.27
387.28	1716.40
387.49	1843.99
387.70	2072.75
387.91	1893.14
388.12	1725.21
388.33	1943.52
388.54	1817.98
388.75	1764.73
388.96	1850.54
389.17	1832.32
389.38	1894.37
389.59	1871.64
389.80	1828.63
390.01	1879.01
390.22	1870.82
390.43	1905.63
390.64	1676.47
390.86	1920.38
391.07	2033.63
391.28	1810.40
391.49	1816.14
391.70	1755.31
391.91	1812.45
392.12	1799.96
392.33	1803.24
392.54	1901.54
392.75	1864.27
392.96	1879.83
393.17	1780.91
393.38	2189.69
393.59	2064.97
393.80	1732.17
394.01	1882.29
394.22	1960.93
394.43	2227.37
394.64	1848.70
394.85	2010.29
395.06	1989.60
395.27	1959.29
395.48	1844.81
395.69	1761.05
395.90	1886.18
396.11	1919.15
396.32	1746.10
396.53	1913.42
396.74	1884.54
396.95	2042.23
397.16	1766.78
397.37	1705.96
397.58	2010.08
397.79	1899.70
398.00	1856.48
398.21	1803.24
398.42	1948.85
398.63	2166.55
398.84	1773.75
399.05	1768.22
399.26	2066.81
399.47	1963.59
399.68	1654.35
399.89	1751.63
400.10	1777.02
400.31	1848.70
400.52	1836.21
400.73	1780.91
400.94	1724.18
401.15	1925.50
401.36	1764.53
401.57	1859.15
401.78	2037.52
401.99	2016.84
402.20	1691.62
402.41	1927.96
402.62	2109.41
402.83	1891.91
403.04	1770.67
403.25	1940.86
403.46	1986.32
403.67	2174.94
403.88	1923.66
404.09	1916.69
404.30	1979.16
404.51	1953.76
404.72	1843.99
404.93	1934.92
405.14	1864.88
405.35	1918.95
405.56	1812.86
405.77	1791.97
405.98	1919.36
406.19	1884.75
406.40	1770.06
406.61	1785.83
406.82	1801.39
407.03	2212.83
407.24	1713.95
407.45	1826.58
407.66	1935.54
407.87	2017.45
408.08	1840.30
408.29	1872.87
408.49	1982.02
408.70	1890.89
408.91	1796.68
409.12	1884.54
409.33	1787.88
409.54	2076.03
409.75	1766.58
409.96	1772.52
410.17	2010.29
410.38	1877.99
410.59	1755.93
410.80	1885.16
411.01	1899.70
411.22	1879.22
411.43	1854.85
411.64	1751.83
411.85	1798.94
412.06	1782.76
412.27	1644.52
412.47	1760.23
412.68	1900.31
412.89	1961.54
413.10	1783.78
413.31	1682.61
413.52	2144.63
413.73	2135.01
413.94	1744.87
414.15	1935.33
414.36	1845.63
414.57	1824.33
414.78	1760.84
414.99	2181.09
415.19	2650.07
415.40	2735.06
415.61	2894.60
415.82	2746.53
416.03	2698.61
416.24	2455.92
416.45	2158.15
416.66	1976.70
416.87	1847.47
417.08	2087.70
417.29	1837.23
417.50	1936.97
417.70	2099.37
417.91	2129.27
418.12	2055.75
418.33	2154.87
418.54	2335.91
418.75	2515.11
418.96	2486.85
419.17	2760.66
419.38	3278.39
419.59	3280.85
419.79	3133.60
420.00	3001.30
420.21	3101.65
420.42	2426.64
420.63	2142.58
420.84	2064.97
421.05	1950.49
421.26	1939.43
421.47	1752.24
421.67	2048.58
421.88	1804.67
422.09	1760.43
422.30	1932.05
422.51	1803.85
422.72	2115.96
422.93	1998.82
423.14	1810.40
423.35	1700.22
423.55	1738.93
423.76	1806.92
423.97	1823.31
424.18	1705.55
424.39	1913.62
424.60	2077.87
424.81	1867.13
425.02	2064.76
425.22	2138.28
425.43	2168.59
425.64	2316.66
425.85	2328.54
426.06	2638.81
426.27	2455.10
426.48	2482.75
426.68	2420.49
426.89	2525.76
427.10	2634.10
427.31	2194.19
427.52	1949.26
427.73	2111.05
427.94	2046.54
428.14	1923.04
428.35	1815.52
428.56	2104.08
428.77	2015.82
428.98	1936.56
429.19	2011.51
429.40	2136.44
429.60	2206.69
429.81	2259.93
430.02	2175.97
430.23	2070.50
430.44	2114.32
430.65	1891.91
430.85	1905.84
431.06	1958.27
431.27	1705.34
431.48	1807.95
431.69	1832.73
431.90	1926.11
432.10	1926.32
432.31	1890.07
432.52	1944.14
432.73	2543.17
432.94	2467.80
433.15	2346.36
433.35	2227.17
433.56	2373.19
433.77	2160.81
433.98	2112.07
434.19	2001.48
434.40	2057.80
434.60	1970.56
434.81	1843.38
435.02	1902.77
435.23	1926.52
435.44	1859.97
435.64	1691.42
435.85	1766.99
436.06	1877.58
436.27	1858.74
436.48	1716.20
436.68	1747.33
436.89	2093.43
437.10	1969.53
437.31	1799.14
437.52	1900.92
437.73	1926.73
437.93	1933.90
438.14	1853.00
438.35	1698.79
438.56	1827.40
438.77	1881.88
438.97	1920.38
439.18	1736.27
439.39	2039.37
439.60	1752.86
439.80	1696.54
440.01	1823.72
440.22	1815.52
440.43	1991.04
440.64	1709.03
440.84	1833.34
441.05	1777.23
441.26	2250.51
441.47	1857.10
441.68	1771.70
441.88	1867.95
442.09	1890.89
442.30	1946.80
442.51	1868.16
442.71	1862.42
442.92	1934.92
443.13	1749.17
443.34	1751.42
443.55	1778.05
443.75	1976.29
443.96	1757.77
444.17	1751.01
444.38	2041.01
444.58	1778.87
444.79	1877.99
445.00	1836.00
445.21	1869.18
445.41	1859.56
445.62	1617.90
445.83	1887.20
446.04	1935.33
446.24	1747.12
446.45	1623.63
446.66	1772.93
446.87	1937.58
447.07	1833.96
447.28	1997.59
447.49	1821.67
447.70	1974.45
447.90	2046.33
448.11	1828.84
448.32	1887.20
448.53	2079.51
448.73	2079.30
448.94	1797.91
449.15	1951.92
449.36	1892.12
449.56	1951.51
449.77	1819.42
449.98	1757.16
450.19	1891.09
450.39	1986.12
450.60	1998.61
450.81	1984.89
451.02	2052.06
451.22	2199.93
451.43	1857.10
451.64	1893.96
451.84	1950.28
452.05	2143.81
452.26	1920.38
452.47	1884.95
452.67	1882.29
452.88	2123.13
453.09	1767.19
453.30	1727.67
453.50	1989.81
453.71	2088.11
453.92	1800.37
454.12	1895.40
454.33	1817.37
454.54	1859.97
454.75	1757.77
454.95	1773.54
455.16	1921.40
455.37	1980.39
455.57	1841.74
455.78	1799.35
455.99	1905.02
456.19	1908.30
456.40	1753.47
456.61	1848.50
456.82	1893.55
457.02	2002.30
457.23	1878.60
457.44	1971.37
457.64	1832.73
457.85	1973.63
458.06	1849.32
458.26	2013.97
458.47	1912.80
458.68	2062.30
458.89	1786.03
459.09	1983.05
459.30	2207.10
459.51	1976.70
459.71	1769.04
459.92	1813.89
460.13	1996.36
460.33	2169.82
460.54	1822.90
460.75	1832.11
460.95	1786.24
461.16	1948.03
461.37	1777.43
461.57	1860.58
461.78	1924.68
461.99	1807.95
462.19	2043.46
462.40	1826.58
462.61	2412.71
462.81	2085.04
463.02	1775.59
463.23	1849.11
463.43	2010.49
463.64	1882.29
463.85	2792.41
464.05	1804.26
464.26	2327.11
464.47	2106.75
464.67	2001.89
464.88	1890.89
465.09	1828.43
465.29	1924.89
465.50	1954.79
465.71	1819.83
465.91	1862.01
466.12	1897.03
466.33	1882.70
466.53	1776.61
466.74	2078.48
466.94	1866.72
467.15	1846.65
467.36	2017.04
467.56	1799.75
467.77	1973.01
467.98	1886.18
468.18	1776.00
468.39	1868.57
468.60	2139.72
468.80	1853.00
469.01	1788.49
469.21	1980.59
469.42	2066.20
469.63	1893.35
469.83	1830.88
470.04	2087.49
470.25	2222.25
470.45	1937.79
470.66	1827.40
470.86	1990.01
471.07	1895.60
471.28	1920.18
471.48	1970.56
471.69	1938.40
471.90	2376.87
472.10	1848.91
472.31	1821.87
472.51	1833.96
472.72	1816.55
472.93	1744.46
473.13	1925.30
473.34	1955.81
473.54	1902.97
473.75	1836.00
473.96	1994.52
474.16	1926.11
474.37	2010.08
474.57	1919.97
474.78	1836.62
474.99	2038.34
475.19	1993.08
475.40	1843.79
475.60	1738.93
475.81	2092.41
476.02	1926.73
476.22	1933.69
476.43	2058.41
476.63	1951.71
476.84	2170.64
477.05	1749.78
477.25	1824.74
477.46	2286.56
477.66	1935.74
477.87	1740.57
478.08	1832.32
478.28	2045.92
478.49	1902.77
478.69	1771.70
478.90	1838.05
479.10	1982.64
479.31	2138.49
479.52	1898.47
479.72	1966.66
479.93	2002.50
480.13	1843.38
480.34	1806.10
480.54	1897.24
480.75	1803.24
480.96	2053.50
481.16	1774.16
481.37	1924.48
481.57	2018.07
481.78	1997.38
481.98	1993.08
482.19	1886.38
482.40	2150.16
482.60	2034.25
482.81	1952.74
483.01	1850.95
483.22	2094.05
483.42	2094.46
483.63	1979.77
483.83	1900.92
484.04	1874.30
484.24	2030.97
484.45	1905.23
484.66	1731.76
484.86	1961.54
485.07	1815.11
485.27	1879.83
485.48	1811.84
485.68	2064.56
485.89	1828.22
486.09	1920.79
486.30	1815.11
486.50	1920.59
486.71	1977.11
486.91	1973.83
487.12	2066.40
487.33	2271.40
487.53	2308.68
487.74	2045.92
487.94	2010.08
488.15	2113.30
488.35	2205.66
488.56	2109.00
488.76	2076.03
488.97	2094.46
489.17	2134.19
489.38	1967.28
489.58	1924.27
489.79	2011.72
489.99	2006.39
490.20	1894.99
490.40	1982.43
490.61	2007.21
490.81	1871.02
491.02	1885.97
491.22	1935.33
491.43	2058.00
491.63	1924.27
491.84	2007.62
492.04	1797.30
492.25	2001.07
492.45	1885.77
492.66	1836.21
492.86	1743.44
493.07	1917.31
493.27	2200.75
493.48	1745.07
493.68	1866.52
493.89	1906.04
494.09	2037.32
494.30	1814.91
494.50	2089.13
494.71	2002.91
494.91	1825.76
495.12	1941.27
495.32	2032.61
495.53	2014.18
495.73	1803.85
495.94	1889.46
496.14	1705.96
496.35	2167.16
496.55	1896.21
496.76	1861.19
496.96	1912.60
497.17	1930.21
497.37	2011.72
497.58	1825.15
497.78	1793.82
497.98	1883.72
498.19	1940.45
498.39	1938.20
498.60	1979.36
498.80	1751.42
499.01	2047.56
499.21	1789.92
499.42	1890.48
499.62	1885.16
499.83	2215.70
500.03	1754.49
500.24	1923.66
500.44	2093.02
500.64	2050.22
500.85	1822.08
501.05	1963.39
501.26	1737.29
501.46	2107.16
501.67	1780.50
501.87	1765.55
502.08	1805.49
502.28	1882.08
502.48	1931.23
502.69	2023.39
502.89	1815.73
503.10	1881.06
503.30	1917.51
503.51	1911.57
503.71	1767.19
503.92	2048.17
504.12	1988.37
504.32	1946.59
504.53	2139.72
504.73	2155.90
504.94	2130.30
505.14	2243.14
505.35	2235.97
505.55	2224.50
505.75	2147.09
505.96	2242.73
506.16	2346.97
506.37	2020.53
506.57	1911.37
506.78	2002.91
506.98	2162.25
507.18	1852.80
507.39	1858.33
507.59	1939.84
507.80	1906.66
508.00	2000.46
508.20	2082.17
508.41	1940.66
508.61	2155.49
508.82	2091.39
509.02	2006.39
509.22	1811.43
509.43	1809.18
509.63	1839.08
509.84	1884.95
510.04	1792.38
510.24	2111.66
510.45	2031.79
510.65	1771.70
510.86	1902.97
511.06	1823.92
511.26	2078.89
511.47	2000.66
511.67	1896.01
511.88	2034.04
512.08	2081.56
512.28	1798.12
512.49	1963.18
512.69	1965.44
512.90	1953.15
513.10	1836.00
513.30	1920.18
513.51	1994.11
513.71	2130.09
513.91	1931.64
514.12	1944.34
514.32	2107.77
514.53	2003.94
514.73	2101.63
514.93	2048.17
515.14	2132.55
515.34	2365.61
515.54	2242.32
515.75	2353.94
515.95	2465.75
516.15	2493.40
516.36	2234.54
516.56	2141.97
516.77	1850.95
516.97	2119.65
517.17	1985.71
517.38	2057.59
517.58	2237.00
517.78	2084.22
517.99	2263.62
518.19	2375.03
518.39	2600.72
518.60	2461.86
518.80	2296.80
519.00	2288.81
519.21	2101.01
519.41	2309.08
519.61	1901.13
519.82	2045.31
520.02	1991.44
520.22	2008.24
520.43	1967.07
520.63	1985.51
520.83	1953.97
521.04	1875.53
521.24	2231.26
521.44	2221.43
521.65	2339.60
521.85	2526.58
522.05	2317.28
522.26	2203.00
522.46	2395.51
522.66	2170.64
522.87	1957.04
523.07	2121.70
523.27	1979.16
523.48	2220.82
523.68	2038.55
523.88	2019.09
524.09	2169.82
524.29	2105.31
524.49	1946.80
524.70	2266.69
524.90	2385.88
525.10	2315.23
525.31	2029.54
525.51	1966.25
525.71	2111.46
525.91	2050.63
526.12	1851.16
526.32	1790.74
526.52	1882.08
526.73	1866.72
526.93	1975.68
527.13	1776.00
527.34	1957.04
527.54	1972.40
527.74	1902.97
527.94	1817.16
528.15	1859.35
528.35	1996.36
528.55	2017.25
528.76	1949.26
528.96	1755.31
529.16	2078.07
529.36	2024.01
529.57	1774.97
529.77	2068.04
529.97	1833.75
530.18	1973.22
530.38	1860.17
530.58	1999.23
530.78	1942.29
530.99	1885.36
531.19	1998.20
531.39	1888.43
531.60	1968.10
531.80	1881.88
532.00	2028.31
532.20	1966.87
532.41	1857.51
532.61	1844.40
532.81	1874.92
533.01	1882.70
533.22	1958.47
533.42	2004.96
533.62	1730.12
533.82	2120.67
534.03	1927.96
534.23	1936.15
534.43	1822.08
534.63	1884.95
534.84	1948.44
535.04	1926.52
535.24	1895.60
535.44	2269.56
535.65	1882.49
535.85	1790.74
536.05	1817.16
536.25	1940.45
536.46	1844.61
536.66	2083.60
536.86	2011.51
537.06	2095.07
537.27	2168.80
537.47	2010.08
537.67	1892.73
537.87	2121.90
538.08	1941.27
538.28	1809.59
538.48	1838.67
538.68	1955.81
538.88	2060.87
539.09	1791.97
539.29	1905.43
539.49	2063.33
539.69	1976.49
539.90	1961.13
540.10	1846.65
540.30	2157.74
540.50	1920.38
540.70	1857.10
540.91	1977.93
541.11	2146.07
541.31	2290.65
541.51	2166.34
541.72	2199.93
541.92	2240.07
542.12	2086.06
542.32	2014.79
542.52	1929.80
542.73	1920.99
542.93	2065.17
543.13	1942.70
543.33	2084.83
543.53	2198.70
543.74	2191.53
543.94	2071.93
544.14	2246.01
544.34	2394.69
544.54	2295.98
544.75	2377.69
544.95	2553.61
545.15	2440.77
545.35	2461.66
545.55	2274.06
545.75	2092.00
545.96	2394.08
546.16	1967.28
546.36	2016.63
546.56	2022.37
546.76	2153.23
546.97	2230.85
547.17	1961.95
547.37	1997.18
547.57	1913.62
547.77	2035.48
547.97	1966.25
548.18	1978.54
548.38	2022.57
548.58	2523.92
548.78	2583.10
548.98	2964.03
549.18	3290.88
549.39	3492.61
549.59	3117.21
549.79	2804.69
549.99	2843.40
550.19	2680.38
550.39	2506.71
550.60	2300.69
550.80	2271.40
551.00	2265.05
551.20	2043.67
551.40	2003.12
551.60	2110.23
551.80	2090.98
552.01	2116.99
552.21	2008.24
552.41	2068.45
552.61	2256.86
552.81	2003.32
553.01	1858.74
553.21	2058.82
553.42	1885.56
553.62	1881.06
553.82	1850.34
554.02	2155.90
554.22	2048.38
554.42	1851.98
554.62	2009.06
554.83	2321.99
555.03	2623.45
555.23	2592.32
555.43	3011.54
555.63	2973.24
555.83	2799.98
556.03	2490.13
556.23	2336.94
556.44	2482.75
556.64	2564.47
556.84	2137.67
557.04	2343.49
557.24	2379.53
557.44	2271.20
557.64	2135.62
557.84	1970.35
558.04	2011.72
558.25	2111.66
558.45	1919.36
558.65	2036.50
558.85	2078.48
559.05	1882.29
559.25	2030.77
559.45	2186.62
559.65	2596.62
559.85	3083.83
560.05	2570.41
560.26	2663.79
560.46	2691.85
560.66	2496.06
560.86	2314.41
561.06	2162.65
561.26	2400.22
561.46	2234.13
561.66	2080.53
561.86	2159.17
562.06	2025.44
562.26	2015.82
562.47	2007.62
562.67	1859.76
562.87	2090.16
563.07	1857.51
563.27	1981.61
563.47	2010.49
563.67	1961.75
563.87	2111.87
564.07	2050.84
564.27	2157.54
564.47	2258.70
564.67	2347.38
564.87	2253.79
565.08	2291.47
565.28	2116.78
565.48	2244.16
565.68	2144.22
565.88	2094.66
566.08	2291.27
566.28	2028.31
566.48	1834.37
566.68	1935.13
566.88	1927.96
567.08	2061.69
567.28	1949.05
567.48	1981.41
567.68	2104.08
567.88	1907.27
568.08	2100.40
568.28	2189.28
568.48	2056.57
568.68	2224.91
568.89	2074.80
569.09	1839.49
569.29	2130.09
569.49	2096.30
569.69	1867.75
569.89	1851.36
570.09	1734.83
570.29	1870.82
570.49	1763.30
570.69	1842.15
570.89	2013.77
571.09	2180.47
571.29	1756.34
571.49	2014.59
571.69	1956.22
571.89	1991.65
572.09	1847.47
572.29	1812.04
572.49	2025.65
572.69	1983.25
572.89	1959.09
573.09	1774.77
573.29	2075.21
573.49	2152.62
573.69	2127.84
573.89	2198.08
574.09	1976.09
574.29	2194.19
574.49	1917.10
574.69	1889.46
574.89	1848.29
575.09	1826.38
575.29	1812.86
575.49	1918.13
575.69	1979.36
575.89	1784.40
576.09	1937.17
576.29	1970.97
576.49	1860.17
576.69	1973.63
576.89	1951.92
577.09	1996.36
577.29	1805.08
577.49	2220.41
577.69	1854.85
577.89	1974.65
578.09	1952.33
578.29	1754.49
578.49	1925.30
578.69	1851.36
578.89	2061.08
579.09	1961.34
579.29	1817.78
579.49	2040.80
579.69	1938.40
579.89	2217.75
580.09	1791.15
580.29	1763.30
580.49	1889.66
580.69	1817.78
580.89	1877.78
581.09	1862.01
581.29	1852.59
581.49	1882.49
581.69	1799.55
581.89	1809.38
582.09	1814.50
582.28	1824.74
582.48	2039.98
582.68	2157.54
582.88	2215.90
583.08	2068.24
583.28	2005.37
583.48	1977.93
583.68	1931.44
583.88	1986.94
584.08	1950.28
584.28	1927.34
584.48	2196.86
584.68	2010.70
584.88	1897.44
585.08	2064.15
585.28	2072.54
585.48	2128.45
585.68	2036.30
585.87	2056.16
586.07	2016.43
586.27	1949.87
586.47	1998.00
586.67	1921.40
586.87	1938.20
587.07	1880.04
587.27	1851.36
587.47	2013.36
587.67	2282.87
587.87	2668.50
588.07	2492.38
588.27	2503.23
588.46	2736.29
588.66	2772.54
588.86	2458.79
589.06	2411.07
589.26	2354.75
589.46	2275.29
589.66	1999.64
589.86	1964.62
590.06	2050.84
590.26	2211.81
590.46	2136.65
590.66	2329.15
590.85	2228.80
591.05	2347.38
591.25	2095.89
591.45	2098.14
591.65	2197.88
591.85	2206.69
592.05	2190.30
592.25	2317.89
592.45	2424.80
592.64	2269.15
592.84	2232.08
593.04	2036.91
593.24	2483.37
593.44	2073.16
593.64	2166.75
593.84	2167.16
594.04	2095.28
594.24	2278.98
594.43	1982.02
594.63	2028.31
594.83	2135.42
595.03	2073.36
595.23	1861.40
595.43	1798.53
595.63	1865.09
595.83	2081.35
596.02	1727.67
596.22	1945.16
596.42	2033.84
596.62	1971.17
596.82	1918.95
597.02	2064.35
597.22	2153.85
597.41	2007.62
597.61	1904.82
597.81	2083.40
598.01	2134.39
598.21	2029.74
598.41	2021.14
598.61	1966.46
598.80	2064.56
599.00	2110.23
599.20	2168.18
599.40	2021.96
599.60	2047.76
599.80	2161.63
599.99	2176.17
600.19	2007.42
600.39	2056.98
600.59	2099.37
600.79	2022.98
600.99	2037.11
601.19	2244.57
601.38	2278.98
601.58	2082.58
601.78	1880.65
601.98	2343.90
602.18	3095.10
602.37	3831.95
602.57	4071.57
602.77	4512.08
602.97	4681.04
603.17	4400.06
603.37	4134.85
603.56	4128.91
603.76	4012.79
603.96	3836.26
604.16	3635.96
604.36	3387.75
604.56	3114.55
604.75	2701.27
604.95	2663.38
605.15	2698.61
605.35	2514.91
605.55	2319.94
605.74	2215.49
605.94	2352.30
606.14	2151.39
606.34	2130.71
606.54	1997.59
606.73	1951.30
606.93	2116.78
607.13	1880.44
607.33	1986.94
607.53	2169.00
607.72	2093.02
607.92	2046.33
608.12	2057.39
608.32	1951.10
608.51	2077.46
608.71	1936.35
608.91	2096.30
609.11	2195.01
609.31	2128.25
609.50	2273.04
609.70	2497.70
609.90	2422.95
610.10	2435.24
610.29	2263.42
610.49	2167.57
610.69	2296.18
610.89	2147.91
611.09	2116.99
611.28	2204.43
611.48	2182.11
611.68	2029.33
611.88	1959.29
612.07	1932.05
612.27	2105.72
612.47	1933.28
612.67	1997.18
612.86	2096.51
613.06	1991.24
613.26	1778.66
613.46	1998.00
613.65	2072.34
613.85	2475.58
614.05	2257.27
614.25	2240.48
614.44	2155.90
614.64	2147.91
614.84	2113.91
615.04	2057.18
615.23	2088.52
615.43	2167.77
615.63	2143.61
615.83	1996.36
616.02	1998.20
616.22	2325.88
616.42	2206.48
616.62	2267.51
616.81	2360.28
617.01	2416.19
617.21	2302.33
617.41	2090.98
617.60	2161.84
617.80	2190.10
618.00	2170.44
618.19	2097.73
618.39	2056.57
618.59	2073.16
618.79	1940.25
618.98	1756.75
619.18	1886.18
619.38	2204.64
619.57	1871.23
619.77	1881.26
619.97	1876.76
620.17	1904.41
620.36	1911.98
620.56	2236.59
620.76	2082.78
620.95	2174.94
621.15	2236.18
621.35	2080.12
621.54	2106.54
621.74	2147.09
621.94	1975.06
622.14	1933.69
622.33	1854.85
622.53	1980.18
622.73	1931.03
622.92	1775.18
623.12	1936.76
623.32	2190.92
623.51	2023.60
623.71	1769.04
623.91	2038.14
624.10	1829.25
624.30	1931.23
624.50	1802.01
624.69	1783.78
624.89	2419.47
625.09	1898.67
625.29	1711.08
625.48	1795.45
625.68	1958.88
625.88	2051.66
626.07	1967.69
626.27	1802.21
626.47	1858.12
626.66	1726.23
626.86	1877.99
627.06	1868.77
627.25	1897.44
627.45	2110.23
627.64	1866.11
627.84	2058.82
628.04	1820.44
628.23	2164.09
628.43	1788.90
628.63	1890.68
628.82	1939.22
629.02	2286.56
629.22	2155.49
629.41	2251.95
629.61	2135.83
629.81	2425.41
630.00	2086.68
630.20	2097.94
630.40	2254.61
630.59	2279.59
630.79	2123.54
630.98	2093.64
631.18	2056.78
631.38	2040.60
631.57	2109.41
631.77	1806.31
631.97	1979.36
632.16	1994.31
632.36	1930.01
632.56	1926.73
632.75	1929.80
632.95	2017.04
633.14	1784.60
633.34	2042.85
633.54	1699.20
633.73	1854.03
633.93	1828.43
634.12	1708.83
634.32	2249.49
634.52	1899.70
634.71	1789.92
634.91	1943.32
635.11	1771.70
635.30	1811.84
635.50	1927.55
635.69	1827.81
635.89	2196.86
636.09	2093.02
636.28	1895.60
636.48	1911.16
636.67	2100.60
636.87	2079.92
637.07	2015.20
637.26	1893.35
637.46	2045.92
637.65	2162.25
637.85	2034.45
638.04	1943.11
638.24	1996.36
638.44	2085.45
638.63	1973.42
638.83	1916.90
639.02	1995.54
639.22	2013.77
639.42	1913.01
639.61	1932.67
639.81	1918.74
640.00	1916.28
640.20	1980.59
640.39	2007.62
640.59	2433.40
640.79	2429.91
640.98	2477.02
641.18	2544.81
641.37	2554.84
641.57	2343.49
641.76	2327.93
641.96	2060.05
642.15	2242.32
642.35	2121.08
642.55	2131.12
642.74	1945.16
642.94	2152.82
643.13	2179.24
643.33	1897.03
643.52	1864.88
643.72	1864.68
643.91	1912.39
644.11	1832.73
644.31	1796.48
644.50	1813.27
644.70	2064.35
644.89	1898.26
645.09	1930.21
645.28	1928.37
645.48	1950.49
645.67	1822.28
645.87	1739.54
646.06	1898.67
646.26	1978.54
646.45	1731.56
646.65	1684.25
646.84	2175.35
647.04	1871.23
647.24	1780.50
647.43	1920.38
647.63	1918.95
647.82	2083.19
648.02	1749.58
648.21	1822.90
648.41	2087.49
648.60	1836.41
648.80	2006.39
648.99	1908.30
649.19	1833.55
649.38	1722.14
649.58	1901.13
649.77	1911.78
649.97	2043.46
650.16	1959.29
650.36	1691.21
650.55	1987.96
650.75	1929.19
650.94	2108.38
651.14	1868.77
651.33	1905.43
651.53	2118.62
651.72	1824.13
651.92	1870.21
652.11	1673.40
652.31	1954.17
652.50	1938.20
652.70	1927.75
652.89	1807.74
653.09	2130.50
653.28	1913.62
653.48	1758.18
653.67	1788.90
653.87	2319.32
654.06	1951.71
654.25	2059.64
654.45	1856.28
654.64	1872.25
654.84	1918.74
655.03	1679.13
655.23	1997.79
655.42	2005.17
655.62	2100.60
655.81	1895.80
656.01	1794.02
656.20	1992.88
656.40	2092.61
656.59	1899.29
656.79	2033.84
656.98	1947.82
657.17	2014.79
657.37	1902.15
657.56	1811.84
657.76	1944.96
657.95	2040.19
658.15	1580.42
658.34	1886.38
658.54	1901.33
658.73	1782.35
658.92	1842.97
659.12	1935.33
659.31	2014.79
659.51	1876.14
659.70	2028.92
659.90	1962.36
660.09	2156.92
660.29	1990.42
660.48	1866.93
660.67	2098.76
660.87	1896.83
661.06	1976.09
661.26	2004.96
661.45	1981.41
661.65	1964.41
661.84	1850.13
662.03	1838.26
662.23	1860.78
662.42	2149.55
662.62	1764.73
662.81	1778.87
663.00	1842.76
663.20	1916.08
663.39	1945.98
663.59	1971.58
663.78	1838.67
663.97	1840.30
664.17	2009.67
664.36	1753.27
664.56	1791.97
664.75	1973.01
664.94	1982.02
665.14	1934.72
665.33	1930.01
665.53	2001.48
665.72	1966.46
665.91	2076.85
666.11	1964.21
666.30	1994.31
666.50	1923.45
666.69	1968.30
666.88	1907.68
667.08	1968.51
667.27	1901.54
667.47	1920.79
667.66	1884.75
667.85	2039.37
668.05	1900.72
668.24	1820.85
668.43	2020.94
668.63	1876.14
668.82	2048.17
669.02	1963.18
669.21	1881.67
669.40	1771.08
669.60	2154.67
669.79	1777.43
669.98	2349.84
670.18	1808.56
670.37	1776.20
670.56	1883.93
670.76	1941.68
670.95	1909.12
671.15	2057.39
671.34	1988.99
671.53	1951.10
671.73	1899.90
671.92	1861.19
672.11	1788.70
672.31	1875.12
672.50	1964.62
672.69	1793.00
672.89	1664.38
673.08	1841.53
673.27	1991.44
673.47	1939.43
673.66	1942.91
673.85	1802.83
674.05	2035.48
674.24	2332.64
674.43	2440.15
674.63	2830.29
674.82	3153.67
675.01	2715.40
675.21	2821.90
675.40	2635.12
675.59	2490.74
675.79	2690.83
675.98	2364.18
676.17	2444.87
676.37	2334.27
676.56	2172.49
676.75	2143.40
676.95	2059.85
677.14	2020.73
677.33	2118.21
677.52	1835.18
677.72	1884.13
677.91	2012.33
678.10	1785.62
678.30	1801.80
678.49	1774.36
678.68	2191.53
678.88	1692.85
679.07	2015.61
679.26	1856.28
679.45	2136.85
679.65	2044.90
679.84	1700.43
680.03	1738.73
680.23	1861.81
680.42	2199.31
680.61	1786.03
680.81	1814.71
681.00	1886.18
681.19	1956.22
681.38	2005.17
681.58	1986.73
681.77	1888.84
681.96	2025.03
682.15	1877.37
682.35	1977.11
682.54	2011.31
682.73	1817.16
682.93	1836.21
683.12	1823.72
683.31	2013.56
683.50	2246.83
683.70	1812.86
683.89	1896.21
684.08	1801.39
684.27	2039.57
684.47	1754.90
684.66	1911.16
684.85	2148.11
685.04	2045.31
685.24	1816.75
685.43	1910.75
685.62	1710.05
685.81	1963.39
686.01	2102.44
686.20	2188.05
686.39	2251.95
686.58	2771.31
686.78	2549.11
686.97	2523.51
687.16	2495.45
687.35	2370.73
687.55	2248.26
687.74	2257.89
687.93	2164.70
688.12	2200.34
688.32	2213.44
688.51	1955.81
688.70	2140.74
688.89	1914.03
689.08	1859.56
689.28	1871.43
689.47	1981.61
689.66	1979.16
689.85	1996.56
690.05	1864.27
690.24	1846.86
690.43	1964.21
690.62	1922.84
690.81	1845.63
691.01	1890.89
691.20	1871.64
691.39	1789.72
691.58	1914.24
691.77	2140.33
691.97	1939.22
692.16	1952.94
692.35	1884.54
692.54	1879.83
692.73	2112.89
692.93	2074.18
693.12	2136.85
693.31	2193.78
693.50	2183.13
693.69	2189.28
693.89	2037.73
694.08	2241.30
694.27	2240.89
694.46	1966.66
694.65	2037.52
694.85	2128.66
695.04	2122.11
695.23	2073.57
695.42	2583.92
695.61	2984.50
695.80	3262.62
696.00	3570.63
696.19	3689.62
696.38	3224.12
696.57	2988.81
696.76	2924.91
696.95	2721.55
697.15	2840.53
697.34	2696.77
697.53	2408.00
697.72	2350.04
697.91	2241.30
698.10	2361.72
698.30	2042.64
698.49	2019.50
698.68	2020.73
698.87	1915.67
699.06	1857.71
699.25	1919.77
699.45	2068.04
699.64	1943.32
699.83	2003.32
700.02	1790.74
700.21	1978.75
700.40	1851.77
700.59	1875.73
700.79	1872.25
700.98	2002.30
701.17	1853.00
701.36	1807.74
701.55	1824.33
701.74	2106.54
701.93	2122.51
702.12	2472.92
702.32	2538.05
702.51	2905.66
702.70	2893.37
702.89	2655.40
703.08	2386.50
703.27	2596.41
703.46	2474.15
703.65	2282.67
703.85	2119.44
704.04	2152.62
704.23	2332.43
704.42	2010.90
704.61	2032.81
704.80	2196.24
704.99	1890.28
705.18	1991.04
705.37	1948.64
705.57	2349.43
705.76	2978.16
705.95	3108.20
706.14	3646.00
706.33	3909.16
706.52	3960.36
706.71	3254.02
706.90	2943.34
707.09	2953.17
707.28	2860.81
707.47	2580.85
707.67	2631.23
707.86	2397.56
708.05	2562.01
708.24	2273.86
708.43	2154.46
708.62	2053.50
708.81	1925.71
709.00	1836.00
709.19	1846.65
709.38	2054.11
709.57	1825.15
709.76	2014.79
709.96	1982.02
710.15	2214.26
710.34	2065.38
710.53	2133.37
710.72	2000.25
710.91	2127.43
711.10	2046.94
711.29	2056.98
711.48	1918.95
711.67	1883.72
711.86	2051.66
712.05	1871.02
712.24	1933.08
712.43	2055.96
712.62	2136.24
712.81	1946.18
713.00	2048.17
713.19	1822.08
713.39	1978.75
713.58	1796.07
713.77	1976.90
713.96	2060.46
714.15	1986.32
714.34	1964.00
714.53	1829.25
714.72	2250.10
714.91	1883.72
715.10	2028.92
715.29	1914.44
715.48	2414.56
715.67	2134.80
715.86	2009.26
716.05	1980.39
716.24	1931.64
716.43	1909.12
716.62	1824.74
716.81	1802.42
717.00	1893.35
717.19	2149.55
717.38	1987.76
717.57	1911.78
717.76	1742.62
717.95	2023.39
718.14	1894.37
718.33	1846.45
718.52	1697.36
718.71	1743.03
718.90	1766.99
719.09	1837.23
719.28	1908.71
719.47	2045.31
719.66	2080.74
719.85	2091.80
720.04	2066.40
720.23	2153.03
720.42	2031.59
720.61	2133.57
720.80	1881.47
720.99	2060.87
721.18	1950.90
721.37	1912.80
721.56	1970.15
721.75	2084.83
721.94	1859.35
722.13	1934.10
722.32	1909.12
722.51	2024.62
722.70	1874.92
722.89	1935.54
723.08	1902.56
723.27	2027.08
723.46	1909.12
723.65	1831.09
723.84	1826.58
724.03	2076.23
724.22	1761.05
724.41	1940.25
724.60	1892.32
724.79	2003.12
724.98	1919.77
725.16	1850.34
725.35	1972.60
725.54	1776.82
725.73	1919.77
725.92	1935.13
726.11	1993.49
726.30	2233.92
726.49	2086.06
726.68	2235.97
726.87	2350.45
727.06	2453.06
727.25	2080.94
727.44	2179.65
727.63	2151.80
727.82	2067.83
728.01	2099.99
728.20	2135.62
728.38	2242.73
728.57	2018.89
728.76	1993.29
728.95	2083.60
729.14	1810.81
729.33	1806.31
729.52	1694.28
729.71	1812.04
729.90	1819.62
730.09	1929.19
730.28	1966.87
730.47	1981.82
730.66	2243.14
730.84	2151.80
731.03	2111.05
731.22	2147.70
731.41	2079.92
731.60	2104.49
731.79	1841.53
731.98	1904.00
732.17	2094.87
732.36	2064.56
732.55	1915.87
732.73	1826.79
732.92	2087.49
733.11	1997.18
733.30	1848.29
733.49	1773.13
733.68	2013.15
733.87	1960.11
734.06	1903.38
734.25	2017.86
734.43	2181.50
734.62	2358.03
734.81	2403.09
735.00	2380.97
735.19	2303.96
735.38	2326.08
735.57	2050.22
735.76	2214.06
735.94	2385.88
736.13	2907.30
736.32	2964.64
736.51	3081.17
736.70	3448.78
736.89	3507.15
737.08	3321.40
737.27	3591.93
737.45	4449.42
737.64	4578.03
737.83	5034.73
738.02	5098.42
738.21	4983.32
738.40	4359.92
738.59	3916.95
738.77	3757.41
738.96	3475.40
739.15	3310.54
739.34	3179.27
739.53	2970.17
739.72	2912.62
739.90	2736.70
740.09	2363.15
740.28	2332.43
740.47	2320.76
740.66	2206.48
740.85	1977.52
741.03	2043.26
741.22	1919.56
741.41	1999.64
741.60	1874.51
741.79	2043.46
741.98	2187.44
742.16	2273.45
742.35	2125.59
742.54	2128.86
742.73	2464.32
742.92	2203.20
743.10	2097.12
743.29	2150.37
743.48	2468.01
743.67	2031.79
743.86	1935.13
744.05	1954.38
744.23	1945.78
744.42	1959.09
744.61	1990.63
744.80	1836.00
744.99	1908.09
745.17	1754.29
745.36	1784.80
745.55	1976.29
745.74	1934.10
745.93	1843.99
746.11	1819.01
746.30	1818.19
746.49	2028.72
746.68	1815.52
746.86	1846.45
747.05	1883.72
747.24	2008.24
747.43	2065.58
747.62	1820.85
747.80	1937.58
747.99	2180.68
748.18	2116.58
748.37	2037.11
748.56	2031.58
748.74	2162.04
748.93	2036.30
749.12	2260.14
749.31	2864.70
749.49	3387.14
749.68	3744.51
749.87	4101.47
750.06	4178.88
750.24	4310.77
750.43	4555.50
750.62	4980.86
750.81	5263.28
750.99	5652.19
751.18	5611.84
751.37	4829.32
751.56	4281.28
751.74	4389.62
751.93	4278.00
752.12	3437.31
752.31	3276.14
752.49	3098.99
752.68	3105.54
752.87	2738.95
753.06	2532.11
753.24	2388.14
753.43	2419.06
753.62	2138.08
753.81	2031.99
753.99	2254.81
754.18	2069.27
754.37	1900.72
754.55	1977.11
754.74	2173.10
754.93	1747.33
755.12	1888.64
755.30	1825.15
755.49	2055.96
755.68	1936.76
755.86	1931.23
756.05	1790.13
756.24	2106.13
756.43	1767.81
756.61	1813.48
756.80	1932.26
756.99	2077.46
757.17	1902.97
757.36	1791.97
757.55	1891.30
757.74	1984.07
757.92	1924.48
758.11	1778.66
758.30	1697.97
758.48	1891.30
758.67	1752.24
758.86	1878.40
759.04	1787.26
759.23	1855.87
759.42	1904.82
759.60	1833.96
759.79	1914.85
759.98	1857.51
760.16	1829.66
760.35	1786.44
760.54	1768.42
760.73	1929.80
760.91	1738.11
761.10	1921.40
761.29	1947.00
761.47	1897.24
761.66	2188.05
761.85	1965.03
762.03	2082.37
762.22	2796.71
762.41	4919.02
762.59	7337.87
762.78	8514.43
762.97	10205.03
763.15	10821.47
763.34	9955.59
763.52	7662.27
763.71	7179.36
763.90	6737.20
764.08	6253.88
764.27	5896.51
764.46	5611.23
764.64	4950.15
764.83	4525.60
765.02	4134.44
765.20	3765.80
765.39	3313.61
765.58	2727.08
765.76	2532.52
765.95	2315.43
766.13	2194.19
766.32	2052.68
766.51	2048.99
766.69	2581.46
766.88	2037.11
767.07	1843.38
767.25	1726.64
767.44	2060.26
767.62	2093.43
767.81	1849.73
768.00	1909.73
768.18	1950.08
768.37	1858.12
768.56	1793.61
768.74	1842.76
768.93	1769.85
769.11	1968.51
769.30	1943.73
769.49	1841.33
769.67	1889.66
769.86	1876.14
770.04	1863.65
770.23	1848.29
770.42	2080.12
770.60	1904.41
770.79	1808.15
770.97	1864.88
771.16	2345.54
771.35	2885.38
771.53	3451.85
771.72	3812.09
771.90	4348.45
772.09	4618.99
772.27	4178.68
772.46	3444.89
772.65	3569.81
772.83	3302.14
773.02	3222.68
773.20	2957.06
773.39	2976.11
773.58	2884.97
773.76	2489.31
773.95	2483.37
774.13	2440.97
774.32	2241.30
774.50	2026.67
774.69	2052.88
774.87	1953.76
775.06	2225.53
775.25	1832.32
775.43	1880.04
775.62	1947.00
775.80	2000.66
775.99	1937.58
776.17	1838.26
776.36	1906.45
776.54	2043.67
776.73	1848.29
776.92	1942.09
777.10	2013.15
777.29	1945.78
777.47	1791.15
777.66	1851.16
777.84	1924.68
778.03	1902.15
778.21	1790.33
778.40	1881.88
778.58	1993.08
778.77	2020.73
778.95	1757.98
779.14	1805.08
779.32	2136.65
779.51	1974.04
779.70	1884.34
779.88	1744.46
780.07	1863.24
780.25	2233.51
780.44	1840.10
780.62	2005.37
780.81	1981.61
780.99	1944.96
781.18	1808.15
781.36	1839.28
781.55	1886.18
781.73	2081.97
781.92	1764.33
782.10	1758.59
782.29	1934.51
782.47	2111.66
782.66	1892.32
782.84	1733.61
783.03	1824.94
783.21	2004.55
783.40	1864.47
783.58	1820.23
783.77	1816.14
783.95	1857.71
784.14	1776.00
784.32	1881.88
784.51	2068.65
784.69	1854.03
784.88	1776.61
785.06	1920.79
785.24	1786.24
785.43	2042.44
785.61	1981.00
785.80	1815.11
785.98	2009.47
786.17	1939.84
786.35	1812.04
786.54	1951.30
786.72	2029.33
786.91	2044.08
787.09	1875.53
787.28	1787.06
787.46	1929.19
787.65	2020.73
787.83	1769.85
788.01	1917.10
788.20	1823.92
788.38	1972.40
788.57	1922.22
788.75	1944.34
788.94	2223.07
789.12	2115.96
789.31	1925.50
789.49	2019.30
789.67	1906.66
789.86	1982.23
790.04	1861.60
790.23	1749.99
790.41	2241.71
790.60	1910.55
790.78	1908.71
790.96	1908.71
791.15	2019.71
791.33	1943.93
791.52	1901.33
791.70	1821.46
791.89	1954.58
792.07	2042.03
792.25	1898.26
792.44	1739.95
792.62	2061.49
792.81	1809.99
792.99	1888.02
793.17	1812.86
793.36	1834.57
793.54	2277.14
793.73	2589.86
793.91	2995.36
794.10	3474.58
794.28	3836.46
794.46	3789.15
794.65	3758.64
794.83	3176.81
795.01	3065.81
795.20	3151.62
795.38	2925.32
795.57	2862.24
795.75	2819.03
795.93	2561.80
796.12	2562.83
796.30	2526.99
796.49	2453.47
796.67	2150.37
796.85	2231.47
797.04	2137.87
797.22	2141.36
797.40	1832.32
797.59	1993.90
797.77	1957.24
797.96	1835.59
798.14	1819.42
798.32	1863.86
798.51	2043.26
798.69	2152.42
798.87	1884.34
799.06	1868.16
799.24	1765.35
799.42	2171.67
799.61	2417.83
799.79	2642.08
799.98	3117.01
800.16	3101.24
800.34	3646.00
800.53	4359.92
800.71	4617.76
800.89	5322.26
801.08	5367.93
801.26	5346.43
801.44	4673.67
801.63	4030.61
801.81	3925.96
801.99	3726.69
802.18	3509.60
802.36	3436.70
802.54	3220.84
802.73	2874.32
802.91	2813.91
803.09	2690.01
803.28	2603.99
803.46	2444.66
803.64	2517.77
803.83	2077.25
804.01	1997.38
804.19	1880.24
804.38	2112.27
804.56	2077.05
804.74	1946.39
804.92	2012.95
805.11	1844.20
805.29	2092.82
805.47	1901.33
805.66	1807.54
805.84	1829.45
806.02	2075.21
806.21	1883.11
806.39	2037.93
806.57	2048.38
806.76	2063.33
806.94	1946.80
807.12	1887.41
807.30	1910.35
807.49	2023.19
807.67	1992.06
807.85	2066.20
808.04	2090.77
808.22	2257.68
808.40	1832.52
808.58	1804.67
808.77	2040.19
808.95	2188.25
809.13	2266.90
809.31	3358.26
809.50	4449.83
809.68	5002.16
809.86	5384.31
810.05	5770.15
810.23	6343.17
810.41	7892.87
810.59	12058.44
810.78	14673.08
810.96	16927.28
811.14	18306.59
811.32	17892.28
811.51	14599.15
811.69	11954.20
811.87	11819.85
812.05	10358.42
812.24	9844.59
812.42	9139.47
812.60	8310.86
812.78	7036.41
812.97	6196.33
813.15	5773.02
813.33	5063.40
813.51	4518.23
813.70	3718.09
813.88	3230.26
814.06	2853.84
814.24	2532.52
814.42	2169.41
814.61	2200.95
814.79	2307.86
814.97	1855.25
815.15	1940.25
815.34	1987.55
815.52	2063.74
815.70	1802.21
815.88	1870.82
816.06	1812.25
816.25	1870.00
816.43	1808.15
816.61	1998.00
816.79	2113.09
816.98	1776.00
817.16	1877.37
817.34	1841.53
817.52	1999.43
817.70	2160.81
817.89	1895.40
818.07	1801.39
818.25	1928.98
818.43	1954.99
818.61	1916.69
818.80	1846.45
818.98	2109.41
819.16	1942.29
819.34	1797.71
819.52	2090.16
819.70	1817.37
819.89	1923.04
820.07	1769.04
820.25	1736.47
820.43	1915.06
820.61	1995.13
820.80	1879.63
820.98	1775.59
821.16	1697.97
821.34	1788.49
821.52	1829.66
821.70	1899.49
821.89	1894.17
822.07	1865.49
822.25	1813.07
822.43	1756.95
822.61	2071.52
822.79	1904.41
822.98	1839.90
823.16	1681.38
823.34	1906.86
823.52	2050.63
823.70	1959.91
823.88	1703.91
824.06	1973.01
824.25	1908.91
824.43	1981.41
824.61	1817.16
824.79	1947.62
824.97	2003.32
825.15	2091.18
825.33	2383.84
825.52	2750.01
825.70	2862.65
825.88	2985.12
826.06	3225.55
826.24	3248.28
826.42	3099.81
826.60	2737.11
826.78	2790.77
826.97	2556.27
827.15	2643.52
827.33	2367.04
827.51	2431.76
827.69	2252.77
827.87	2260.34
828.05	2237.20
828.23	2029.54
828.41	2199.52
828.60	2173.71
828.78	1849.32
828.96	1977.11
829.14	1877.78
829.32	1917.51
829.50	1863.65
829.68	1871.84
829.86	1855.46
830.04	1990.83
830.22	1893.35
830.41	1764.33
830.59	1889.66
830.77	2002.50
830.95	1812.86
831.13	1789.52
831.31	1833.75
831.49	2006.39
831.67	1989.40
831.85	1937.17
832.03	1862.22
832.21	2002.50
832.39	1761.25
832.57	1785.62
832.76	2021.14
832.94	1886.79
833.12	1719.68
833.30	1858.74
833.48	2043.87
833.66	1940.25
833.84	1805.28
834.02	1855.87
834.20	2016.23
834.38	2020.32
834.56	1715.38
834.74	1766.78
834.92	1733.40
835.10	2125.79
835.28	1918.54
835.46	1862.42
835.64	1880.04
835.82	1808.77
836.01	2061.28
836.19	1987.55
836.37	1846.04
836.55	1787.47
836.73	1779.28
836.91	1764.12
837.09	1968.51
837.27	2085.04
837.45	1720.70
837.63	1776.41
837.81	1783.78
837.99	1906.25
838.17	1891.50
838.35	1831.70
838.53	2268.33
838.71	2078.28
838.89	1927.96
839.07	1902.97
839.25	1994.52
839.43	2097.53
839.61	2102.24
839.79	2871.87
839.97	3626.34
840.15	4081.19
840.33	4350.70
840.51	4731.01
840.69	4477.68
840.87	3908.96
841.05	3627.16
841.23	3759.87
841.41	4479.93
841.59	5933.58
841.77	6568.04
841.95	7056.07
842.13	7597.35
842.31	7245.10
842.49	6025.74
842.67	5280.69
842.85	5225.60
843.03	4589.70
843.21	4387.36
843.39	4235.61
843.57	3944.80
843.75	3667.09
843.93	3276.14
844.11	3023.83
844.29	2937.20
844.47	2707.82
844.65	2733.42
844.83	2418.86
845.01	2277.14
845.19	2302.33
845.36	2063.33
845.54	2092.41
845.72	2018.07
845.90	2021.96
846.08	1790.74
846.26	1889.46
846.44	1959.70
846.62	1973.83
846.80	1896.83
846.98	1783.78
847.16	1849.32
847.34	1907.89
847.52	1755.93
847.70	1769.24
847.88	1861.81
848.06	2087.29
848.24	1922.22
848.41	1746.30
848.59	2046.94
848.77	1931.44
848.95	1817.98
849.13	1804.47
849.31	1980.39
849.49	1937.17
849.67	1776.41
849.85	1753.88
850.03	1960.93
850.21	1929.80
850.39	1807.33
850.57	1926.11
850.74	2080.12
850.92	2101.42
851.10	2156.51
851.28	2352.71
851.46	2626.93
851.64	2999.86
851.82	2779.50
852.00	2804.69
852.18	2828.65
852.36	2591.91
852.53	2405.75
852.71	2399.20
852.89	2406.77
853.07	2365.20
853.25	2142.18
853.43	2010.29
853.61	2174.33
853.79	2137.46
853.97	1980.59
854.14	1920.79
854.32	2163.47
854.50	2048.58
854.68	1857.71
854.86	1857.30
855.04	1846.24
855.22	2003.94
855.40	1746.10
855.57	1813.27
855.75	1971.99
855.93	1961.95
856.11	1678.52
856.29	1782.76
856.47	1839.08
856.65	1922.43
856.82	1777.23
857.00	1718.04
857.18	1884.13
857.36	1817.16
857.54	1898.88
857.72	1958.88
857.89	1980.59
858.07	1889.66
858.25	1985.10
858.43	1730.33
858.61	1851.36
858.79	1868.36
858.97	1793.20
859.14	1893.76
859.32	1843.58
859.50	1868.77
859.68	1932.87
859.86	1848.29
860.03	1935.33
860.21	2003.12
860.39	1834.16
860.57	1971.37
860.75	1964.82
860.93	2152.42
861.10	2025.44
861.28	1847.68
861.46	1982.43
861.64	1988.99
861.82	1870.21
861.99	1968.71
862.17	2021.35
862.35	2042.64
862.53	1876.96
862.71	1859.97
862.88	1957.86
863.06	2006.39
863.24	1836.21
863.42	1795.66
863.60	1873.48
863.77	1951.71
863.95	1683.84
864.13	1840.51
864.31	1851.98
864.49	1967.69
864.66	1705.14
864.84	1815.52
865.02	1890.07
865.20	2215.70
865.37	1853.41
865.55	1807.13
865.73	1767.81
865.91	2052.27
866.09	2016.02
866.26	2009.88
866.44	2153.23
866.62	2015.82
866.80	1906.25
866.97	1971.58
867.15	1967.07
867.33	2006.19
867.51	2035.48
867.68	1906.86
867.86	1918.95
868.04	1875.94
868.22	1717.63
868.39	1871.02
868.57	1945.57
868.75	2091.59
868.93	1748.56
869.10	1803.03
869.28	2129.48
869.46	2047.35
869.64	1858.33
869.81	1843.99
869.99	1930.62
870.17	1903.18
870.35	1784.60
870.52	1788.90
870.70	2027.49
870.88	1814.30
871.05	1738.52
871.23	1632.23
871.41	1893.35
871.59	1882.29
871.76	1819.83
871.94	1787.06
872.12	1852.59
872.29	1729.51
872.47	1776.00
872.65	1727.87
872.83	1897.03
873.00	2063.53
873.18	1840.51
873.36	1807.13
873.53	1991.85
873.71	1732.79
873.89	1799.55
874.06	1861.40
874.24	1948.44
874.42	2044.90
874.60	1958.88
874.77	1863.86
874.95	1798.94
875.13	2001.07
875.30	1814.50
875.48	1847.47
875.66	2085.45
875.83	1854.23
876.01	1868.36
876.19	1956.42
876.36	1770.06
876.54	1924.89
876.72	1779.28
876.89	1932.67
877.07	1990.01
877.25	1669.30
877.42	1884.95
877.60	1846.24
877.78	2139.10
877.95	1848.70
878.13	1768.83
878.31	1903.18
878.48	1983.87
878.66	1968.71
878.84	1803.44
879.01	1870.82
879.19	1922.84
879.37	1981.82
879.54	1822.90
879.72	1733.40
879.90	1669.50
880.07	1981.61
880.25	1602.74
880.42	1922.43
880.60	1918.74
880.78	1964.41
880.95	1812.04
881.13	1853.62
881.31	1879.22
881.48	1788.70
881.66	1789.72
881.83	1879.83
882.01	1801.60
882.19	1726.44
882.36	1867.54
882.54	1811.84
882.72	1972.81
882.89	1907.07
883.07	1729.30
883.24	1815.93
883.42	1981.61
883.60	1890.07
883.77	1730.33
883.95	1822.28
884.12	2047.56
884.30	1986.32
884.48	2045.51
884.65	1952.53
884.83	1996.36
885.00	1993.70
885.18	1779.48
885.36	1827.81
885.53	1990.83
885.71	2059.64
885.88	1733.81
886.06	1831.91
886.23	1966.25
886.41	1856.07
886.59	1815.11
886.76	1770.67
886.94	1974.24
887.11	2261.37
887.29	1851.77
887.47	1683.84
887.64	2033.84
887.82	2066.20
887.99	1678.92
888.17	1833.75
888.34	1835.59
888.52	1730.74
888.69	1850.54
888.87	1763.51
889.05	1869.39
889.22	1823.92
889.40	1791.36
889.57	1932.26
889.75	2069.27
889.92	1812.66
890.10	1740.98
890.27	1811.02
890.45	1797.50
890.62	1683.43
890.80	1747.53
890.98	1674.01
891.15	2066.81
891.33	1995.75
891.50	1797.09
891.68	1718.04
891.85	1954.38
892.03	1965.23
892.20	1783.17
892.38	1752.65
892.55	1952.53
892.73	1965.44
892.90	1743.23
893.08	1779.28
893.25	1795.04
893.43	1814.91
893.60	1901.74
893.78	1649.84
893.95	1917.72
894.13	1870.41
894.30	1754.29
894.48	1816.96
894.65	2006.80
894.83	1915.87
895.00	1655.78
895.18	1670.32
895.35	2001.48
895.53	1952.94
895.70	1727.26
895.88	1900.11
896.05	1969.94
896.23	1765.96
896.40	1823.10
896.58	1856.48
896.75	1975.27
896.93	2065.99
897.10	1780.09
897.28	1734.22
897.45	1915.26
897.63	1939.43
897.80	1932.26
897.98	1814.09
898.15	1913.01
898.33	1810.20
898.50	1888.64
898.67	1833.34
898.85	1853.21
899.02	1947.00
899.20	1982.23
899.37	1817.98
899.55	1889.66
899.72	2042.44
899.90	1767.40
900.07	1737.29
900.25	1922.63
900.42	2026.67
900.59	1788.29
900.77	1907.89
900.94	1948.03
901.12	1916.90
901.29	1783.99
901.47	1906.04
901.64	1941.27
901.82	1875.12
901.99	1592.91
902.16	1743.64
902.34	2004.96
902.51	1894.78
902.69	1800.16
902.86	1842.56
903.03	2320.96
903.21	1849.32
903.38	1851.98
903.56	1794.23
903.73	1994.11
903.91	1831.70
904.08	1725.00
904.25	1674.42
904.43	1783.99
904.60	1968.10
904.78	1806.51
904.95	1732.99
905.12	1866.93
905.30	2116.78
905.47	1912.80
905.65	1929.19
905.82	1917.51
905.99	1998.20
906.17	1898.47
906.34	1829.45
906.52	1871.02
906.69	2035.07
906.86	1994.31
907.04	1935.33
907.21	2079.51
907.38	2072.54
907.56	1836.21
907.73	1797.50
907.91	2082.17
908.08	2063.12
908.25	1792.18
908.43	1775.79
908.60	1954.38
908.77	1918.13
908.95	1802.42
909.12	1783.78
909.30	1974.24
909.47	1705.34
909.64	1851.98
909.82	1946.80
909.99	1848.91
910.16	1899.49
910.34	1763.51
910.51	1829.04
910.68	1902.36
910.86	1865.49
911.03	1745.07
911.20	1957.24
911.38	2524.94
911.55	3404.54
911.72	3707.44
911.90	3839.74
912.07	4217.18
912.24	4252.40
912.42	3400.45
912.59	2840.53
912.76	2866.54
912.94	2576.14
913.11	2369.70
913.28	2245.60
913.46	2129.48
913.63	2248.26
913.80	2416.19
913.98	2089.95
914.15	2278.37
914.32	2245.39
914.49	2097.32
914.67	1945.37
914.84	2081.15
915.01	2124.36
915.19	2023.80
915.36	1926.73
915.53	2092.82
915.71	1993.49
915.88	1958.06
916.05	1819.42
916.22	2007.83
916.40	1941.88
916.57	1758.80
916.74	1888.02
916.92	2071.93
917.09	1750.81
917.26	1763.92
917.43	1749.78
917.61	1803.24
917.78	1712.31
917.95	1651.69
918.13	1733.81
918.30	2155.08
918.47	1924.89
918.64	1786.03
918.82	1772.52
918.99	1904.00
919.16	2163.47
919.33	1922.84
919.51	1863.24
919.68	1954.79
919.85	2092.20
920.02	1762.89
920.20	1850.34
920.37	2126.82
920.54	2005.99
920.71	1767.40
920.89	1811.02
921.06	2111.87
921.23	1810.81
921.40	1776.00
921.58	2059.23
921.75	2597.03
921.92	2202.80
922.09	2297.21
922.27	2287.38
922.44	2258.91
922.61	2226.35
922.78	2007.62
922.96	1974.86
923.13	1944.96
923.30	2080.74
923.47	1776.61
923.64	1859.76
923.82	1983.25
923.99	1981.41
924.16	1903.38
924.33	1776.41
924.50	1921.61
924.68	2104.08
924.85	1774.36
925.02	1819.62
925.19	2027.90
925.36	1902.56
925.54	1877.78
925.71	1872.66
925.88	2266.49
926.05	1839.49
926.22	1786.03
926.40	1876.55
926.57	1913.83
926.74	1976.49
926.91	1774.97
927.08	1984.69
927.26	2018.07
927.43	1902.56
927.60	1769.45
927.77	1823.31
927.94	2072.54
928.11	2025.44
928.29	1701.04
928.46	1847.88
928.63	1820.23
928.80	1857.51
928.97	1918.54
929.14	1753.27
929.32	2155.90
929.49	1888.23
929.66	1766.99
929.83	1706.37
930.00	1818.80
930.17	1911.98
930.35	1708.21
930.52	1794.43
930.69	2070.50
930.86	1772.72
931.03	1848.50
931.20	1617.28
931.37	2009.06
931.55	1872.66
931.72	1849.32
931.89	1698.38
932.06	1763.30
932.23	2073.57
932.40	1894.17
932.57	1875.12
932.74	2040.39
932.92	2047.56
933.09	1924.07
933.26	1567.52
933.43	1799.14
933.60	1909.73
933.77	1837.23
933.94	1878.60
934.11	1851.57
934.29	1887.82
934.46	1711.49
934.63	1884.54
934.80	1739.54
934.97	1877.58
935.14	1858.74
935.31	1688.96
935.48	1791.77
935.65	1927.14
935.82	1862.01
936.00	1753.47
936.17	2053.09
936.34	1885.56
936.51	1919.97
936.68	1716.20
936.85	1937.38
937.02	1911.37
937.19	1879.63
937.36	1830.27
937.53	1920.99
937.70	1996.56
937.87	1819.42
938.05	1888.43
938.22	1878.60
938.39	1753.27
938.56	1812.25
938.73	1747.74
938.90	1860.99
939.07	1796.27
939.24	1817.78
939.41	1675.44
939.58	1932.87
939.75	1955.81
939.92	1768.01
940.09	1951.10
940.26	1848.50
940.43	1985.71
940.60	1785.42
940.77	1793.20
940.95	1920.59
941.12	1947.82
941.29	1781.12
941.46	1810.81
941.63	2020.53
941.80	2056.98
941.97	1675.24
942.14	1705.34
942.31	1942.50
942.48	1839.49
942.65	1887.20
942.82	1822.90
942.99	1945.78
943.16	1900.72
943.33	1717.84
943.50	1779.07
943.67	1996.16
943.84	1999.23
944.01	1792.59
944.18	1724.39
944.35	2056.57
944.52	1780.71
944.69	1868.57
944.86	1703.09
945.03	1974.24
945.20	2204.84
945.37	1682.61
945.54	1845.02
945.71	2034.86
945.88	2090.36
946.05	1740.16
946.22	1731.97
946.39	2044.28
946.56	1876.76
946.73	1718.04
946.90	1759.61
947.07	1825.35
947.24	1843.17
947.41	1666.02
947.58	1901.13
947.75	1960.11
947.92	1918.13
948.09	1610.52
948.26	1683.43
948.43	1914.24
948.60	2133.98
948.77	1739.34
948.94	1783.17
949.11	1960.32
949.27	1936.15
949.44	1766.37
949.61	1755.31
949.78	1902.56
949.95	2015.00
950.12	1726.85
950.29	1691.62
950.46	1794.23
950.63	2000.46
950.80	1779.07
950.97	1808.56
951.14	1994.72
951.31	1828.63
951.48	1758.39
951.65	1722.55
951.82	2108.18
951.99	1892.32
952.15	1680.15
952.32	1803.03
952.49	1804.06
952.66	1819.21
952.83	1726.03
953.00	1726.64
953.17	1842.35
953.34	1975.06
953.51	1812.66
953.68	1798.94
953.85	2024.42
954.02	1992.67
954.18	1793.61
954.35	1821.46
954.52	1774.77
954.69	1909.73
954.86	1643.29
955.03	1811.02
955.20	1974.04
955.37	1854.85
955.54	1792.38
955.71	1763.92
955.87	1891.30
956.04	2089.75
956.21	1781.73
956.38	1722.96
956.55	1867.34
956.72	2181.70
956.89	1812.04
957.06	1745.89
957.23	1797.91
957.39	2018.07
957.56	1743.85
957.73	1716.61
957.90	1631.82
958.07	2106.34
958.24	1813.27
958.41	1764.73
958.57	1981.61
958.74	1849.93
958.91	1717.84
959.08	1764.73
959.25	1945.78
959.42	1837.64
959.59	1837.64
959.75	1756.54
959.92	2032.81
960.09	1974.86
960.26	1751.22
960.43	1825.15
960.60	1883.31
960.76	1842.35
960.93	1704.93
961.10	1848.29
961.27	1967.48
961.44	1828.43
961.61	1715.79
961.77	1707.39
961.94	1902.97
962.11	1975.68
962.28	1793.20
962.45	1706.57
962.62	1859.76
962.78	1979.16
962.95	1727.05
963.12	1745.89
963.29	1952.12
963.46	2213.65
963.62	1823.31
963.79	1755.52
963.96	2211.19
964.13	1843.38
964.30	1859.56
964.46	1766.99
964.63	1771.90
964.80	2235.77
964.97	1681.79
965.14	1918.54
965.30	2003.53
965.47	2093.43
965.64	2026.06
965.81	1996.56
965.98	2175.97
966.14	1976.29
966.31	1860.99
966.48	1847.88
966.65	2077.66
966.81	1966.25
966.98	1830.27
967.15	1836.21
967.32	1919.56
967.49	1819.83
967.65	1652.71
967.82	1652.51
967.99	1894.17
968.16	1724.59
968.32	1949.05
968.49	1797.09
968.66	1881.47
968.83	2094.66
968.99	1847.27
969.16	1736.68
969.33	2072.13
969.50	1956.42
969.66	1886.38
969.83	2024.62
970.00	1978.34
970.17	1927.96
970.33	1765.35
970.50	1718.04
970.67	2037.32
970.84	2049.81
971.00	1734.42
971.17	1702.07
971.34	1977.31
971.50	1879.63
971.67	1871.84
971.84	1837.44
972.01	1737.70
972.17	1619.53
972.34	1730.53
972.51	1879.63
972.67	2018.07
972.84	1936.97
973.01	1729.51
973.18	1775.38
973.34	1985.10
973.51	1764.33
973.68	1786.44
973.84	1798.73
974.01	1821.67
974.18	2120.26
974.34	1834.16
974.51	1833.34
974.68	1801.39
974.85	2123.13
975.01	1876.96
975.18	1778.87
975.35	1889.25
975.51	1756.34
975.68	1661.11
975.85	1928.16
976.01	1811.43
976.18	2064.56
976.35	1779.68
976.51	1764.73
976.68	2070.09
976.85	2021.75
977.01	1824.74
977.18	1862.22
977.35	1939.63
977.51	1756.75
977.68	1609.50
977.85	1716.61
978.01	2010.70
978.18	1976.09
978.35	1854.64
978.51	1823.31
978.68	1996.36
978.85	2073.57
979.01	1765.35
979.18	1822.49
979.34	1862.01
979.51	1905.84
979.68	1734.02
979.84	1825.56
980.01	2212.42
980.18	1899.29
980.34	1739.75
980.51	1853.62
980.67	1981.61
980.84	1961.75
981.01	1840.10
981.17	1867.54
981.34	1660.49
981.51	1970.15
981.67	1773.13
981.84	1889.05
982.00	1939.84
982.17	1854.85
982.34	1676.26
982.50	1574.07
982.67	2056.37
982.83	1816.75
983.00	1706.16
983.17	1634.28
983.33	2026.26
983.50	1701.66
983.66	1711.69
983.83	1607.25
984.00	1814.91
984.16	1894.99
984.33	1617.28
984.49	1612.16
984.66	1761.25
984.83	1997.59
984.99	1642.06
985.16	1591.89
985.32	1949.87
985.49	1979.57
985.65	1734.42
985.82	1593.93
985.99	2041.82
986.15	1865.49
986.32	1708.83
986.48	1675.44
986.65	1800.57
986.81	1977.52
986.98	1618.10
987.14	1724.39
987.31	1888.64
987.48	1731.15
987.64	1566.49
987.81	1590.66
987.97	2139.51
988.14	1797.50
988.30	1596.19
988.47	1520.21
988.63	1901.13
988.80	1756.95
988.96	1694.69
989.13	1735.45
989.30	1837.23
989.46	1985.30
989.63	1597.21
989.79	1599.87
989.96	1848.70
990.12	2070.70
990.29	1641.65
990.45	1701.25
990.62	1866.11
990.78	2038.75
990.95	1750.60
991.11	1641.86
991.28	1825.15
991.44	1915.06
991.61	1545.40
991.77	1696.74
991.94	1906.45
992.10	2010.90
992.27	1715.38
992.43	1684.25
992.60	1918.33
992.76	1833.55
992.93	1795.45
993.09	1609.09
993.26	1992.88
993.42	2102.24
993.59	1667.66
993.75	1546.22
993.92	1776.20
994.08	1785.42
994.25	1729.51
994.41	1607.66
994.58	1949.26
994.74	2057.80
994.91	1615.64
995.07	1714.15
995.24	1883.72
995.40	1879.01
995.56	1777.43
995.73	1727.87
995.89	2085.24
996.06	1848.91
996.22	1634.07
996.39	1559.94
996.55	1857.71
996.72	1911.78
996.88	1570.59
997.05	1641.86
997.21	2115.14
997.37	1944.14
997.54	1695.72
997.70	1665.41
997.87	1919.97
998.03	1859.35
998.20	1566.08
998.36	1564.65
998.52	1998.00
998.69	1975.06
998.85	1555.84
999.02	1661.72
999.18	1990.42
999.35	1944.75
999.51	1670.73
999.67	1652.51
999.84	1742.62
1000.00	1958.47
1000.17	1727.67
1000.33	1610.93
1000.49	1800.16
1000.66	1858.74
1000.82	1633.66
1000.99	1705.14
1001.15	2011.31
1001.31	1826.38
1001.48	1674.21
1001.64	1704.73
1001.81	1806.31
1001.97	2120.47
1002.13	1622.81
1002.30	1660.29
1002.46	2067.22
1002.63	1856.69
1002.79	1703.30
1002.95	1658.85
1003.12	1999.64
1003.28	1926.52
1003.45	1630.39
1003.61	1591.27
1003.77	1882.90
1003.94	1723.98
1004.10	1663.77
1004.26	1720.09
1004.43	1952.12
1004.59	2121.90
1004.75	1624.45
1004.92	1615.23
1005.08	1821.26
1005.25	1879.42
1005.41	1666.84
1005.57	1726.23
1005.74	2047.76
1005.90	1859.15
1006.06	1768.22
1006.23	1653.53
1006.39	1972.60
1006.55	2206.48
1006.72	1777.23
1006.88	1613.18
1007.04	1775.79
1007.21	1850.95
1007.37	1685.89
1007.53	1660.70
1007.70	2056.57
1007.86	1988.17
1008.02	1706.98
1008.19	1625.47
1008.35	1909.94
1008.51	1763.51
1008.68	1682.00
1008.84	1605.81
1009.00	1790.13
1009.17	2006.60
1009.33	1787.26
1009.49	1730.53
1009.65	1801.19
1009.82	1922.43
1009.98	1712.10
1010.14	1558.91
1010.31	1947.82
1010.47	1962.36
1010.63	1710.67
1010.80	1699.81
1010.96	1933.08
1011.12	1876.14
1011.28	1678.11
1011.45	1642.06
1011.61	2219.18
1011.77	1742.62
1011.94	1626.29
1012.10	1583.90
1012.26	1747.33
1012.42	1811.84
1012.59	1701.66
1012.75	1692.44
1012.91	1840.92
1013.07	1994.52
1013.24	1613.80
1013.40	1624.65
1013.56	1884.54
1013.72	1850.54
1013.89	1708.42
1014.05	1742.21
1014.21	2110.02
1014.37	2179.04
1014.54	1697.15
1014.70	1611.34
1014.86	1846.45
1015.02	1756.13
1015.19	1648.00
1015.35	1600.08
1015.51	1883.31
1015.67	1801.60
1015.84	1642.68
1016.00	1638.37
1016.16	2019.91
1016.32	1985.92
1016.49	1645.95
1016.65	1635.51
1016.81	1846.04
1016.97	1950.90
1017.14	1772.31
1017.30	1682.20
1017.46	1796.07
1017.62	1890.28
1017.78	1740.36
1017.95	1606.22
1018.11	1944.75
1018.27	2161.22
1018.43	1726.44
1018.59	1737.09
1018.76	1944.96
1018.92	2218.56
1019.08	1628.54
1019.24	1675.24
1019.40	2044.90
1019.57	1906.45
1019.73	1731.35
1019.89	1655.17
1020.05	1914.85
1020.21	2122.31
1020.38	1630.80
1020.54	1823.92
1020.70	1938.81
1020.86	1966.46
1021.02	1665.61
1021.18	1656.40
1021.35	1818.80
1021.51	1951.51
1021.67	1770.88
1021.83	1678.31
1021.99	1845.83
1022.15	1906.45
1022.32	1731.97
1022.48	1682.41
1022.64	2039.57
1022.80	2072.34
1022.96	1699.40
1023.12	1597.21
1023.29	2011.51
1023.45	1922.22
1023.61	1635.51
1023.77	1826.79
1023.93	1893.96
1024.09	1781.12
1024.25	1616.67
1024.42	1612.57
1024.58	1831.91
1024.74	1900.11
1024.90	1665.41
1025.06	1718.25
1025.22	1798.32
1025.38	2082.99
1025.54	1604.58
1025.71	1723.98
1025.87	1943.11
1026.03	1925.71
1026.19	1615.23
1026.35	1778.66
1026.51	1934.10
1026.67	1888.64
1026.83	1691.42
1026.99	1737.50
1027.16	1911.78
1027.32	1854.03
1027.48	1658.04
1027.64	1613.59
1027.80	1969.53
1027.96	1894.17
1028.12	1682.82
1028.28	1640.42
1028.44	1913.21
1028.60	2067.42
1028.77	1772.72
1028.93	1679.13
1029.09	1810.81
1029.25	1752.45
1029.41	1701.45
1029.57	1759.21
1029.73	1917.51
1029.89	2060.87
1030.05	1780.91
1030.21	1747.33
1030.37	2153.85
1030.53	1959.70
1030.69	1701.86
1030.85	1607.66
1031.02	1793.00
1031.18	1871.02
1031.34	1699.20
1031.50	1730.12
1031.66	1780.91
1031.82	2062.10
1031.98	1708.62
1032.14	1626.91
1032.30	1757.98
1032.46	1991.85
1032.62	1777.23
1032.78	1603.56
1032.94	1763.51
1033.10	1842.97
1033.26	1706.16
1033.42	1755.93
1033.58	2161.43
1033.74	1819.21
1033.90	1618.30
1034.06	1817.37
1034.22	2143.40
1034.38	1981.61
1034.54	1689.98
1034.70	1711.90
1034.86	2109.00
>>>>>End Processed Spectral Data<<<<<
