SpectraSuite Data File
++++++++++++++++++++++++++++++++++++
Date: Thu Mar 30 14:23:15 PDT 2017
User: UCSD _CER
Dark Spectrum Present: No
Reference Spectrum Present: No
Number of Sampled Component Spectra: 1
Spectrometers: USB4C00073
Integration Time (usec): 380000 (USB4C00073)
Spectra Averaged: 10 (USB4C00073)
Boxcar Smoothing: 0 (USB4C00073)
Correct for Electrical Dark: No (USB4C00073)
Strobe/Lamp Enabled: No (USB4C00073)
Correct for Detector Non-linearity: No (USB4C00073)
Correct for Stray Light: No (USB4C00073)
Number of Pixels in Processed Spectrum: 3648
>>>>>Begin Processed Spectral Data<<<<<
345.37	1219.77
345.58	1219.77
345.80	1219.77
346.01	1243.94
346.22	1219.97
346.43	2055.96
346.65	1885.16
346.86	2412.51
347.07	2361.92
347.28	1802.83
347.50	1809.18
347.71	2126.41
347.92	1860.37
348.13	1796.89
348.35	1793.61
348.56	2128.66
348.77	1933.49
348.98	1840.30
349.20	1693.87
349.41	2139.51
349.62	2276.73
349.83	1919.56
350.05	1788.70
350.26	2180.88
350.47	2354.75
350.68	1851.98
350.90	1721.11
351.11	2367.66
351.32	2316.05
351.53	1846.24
351.75	1756.13
351.96	2165.32
352.17	2096.51
352.38	1873.28
352.60	1903.59
352.81	2130.71
353.02	2418.04
353.23	1774.97
353.44	1823.51
353.66	2023.39
353.87	2073.77
354.08	1908.91
354.29	1847.06
354.51	2063.53
354.72	2104.49
354.93	1875.12
355.14	1910.75
355.35	1961.54
355.57	2359.06
355.78	1926.93
355.99	2011.72
356.20	2195.63
356.42	2173.92
356.63	1986.12
356.84	1906.45
357.05	2282.46
357.26	2504.67
357.48	1958.27
357.69	1860.78
357.90	2218.56
358.11	2020.12
358.32	1788.90
358.54	1883.52
358.75	2038.55
358.96	2230.03
359.17	1827.40
359.38	1878.40
359.60	2249.90
359.81	2131.53
360.02	1878.60
360.23	1817.98
360.44	2050.02
360.66	2303.35
360.87	1824.33
361.08	1814.09
361.29	2181.09
361.50	2139.72
361.72	1826.17
361.93	1919.15
362.14	2111.25
362.35	1879.63
362.56	1993.90
362.77	1768.42
362.99	2260.14
363.20	2155.69
363.41	1954.38
363.62	1742.41
363.83	2282.67
364.05	2303.76
364.26	1794.23
364.47	1827.20
364.68	2317.28
364.89	2020.12
365.10	1776.20
365.32	1877.17
365.53	2016.63
365.74	2010.70
365.95	1838.05
366.16	1702.89
366.37	2113.71
366.59	2084.42
366.80	1868.16
367.01	1738.11
367.22	2498.93
367.43	2614.23
367.64	1888.23
367.86	1861.60
368.07	2213.04
368.28	2331.61
368.49	1725.41
368.70	1887.20
368.91	2075.00
369.12	2112.89
369.34	1745.07
369.55	1730.53
369.76	2113.30
369.97	2005.37
370.18	1742.62
370.39	1801.19
370.60	1908.91
370.82	1933.69
371.03	1854.23
371.24	1807.74
371.45	2253.99
371.66	2196.65
371.87	1798.32
372.08	1796.89
372.30	1907.89
372.51	2240.07
372.72	1910.96
372.93	1794.23
373.14	2362.95
373.35	1992.88
373.56	1745.07
373.78	1862.42
373.99	2249.08
374.20	2627.13
374.41	1819.62
374.62	1822.49
374.83	2385.68
375.04	2056.37
375.25	1849.32
375.47	1867.95
375.68	2044.08
375.89	2197.88
376.10	1877.17
376.31	1938.61
376.52	2216.31
376.73	2180.88
376.94	1911.16
377.15	1809.59
377.37	2123.33
377.58	2062.92
377.79	1741.39
378.00	1792.18
378.21	2156.10
378.42	2210.58
378.63	1897.65
378.84	1912.80
379.05	2283.08
379.27	2136.24
379.48	1913.42
379.69	1791.15
379.90	2327.11
380.11	1786.44
380.32	1815.93
380.53	1978.75
380.74	2353.12
380.95	2121.49
381.16	1881.26
381.37	1864.68
381.59	2347.38
381.80	2274.47
382.01	1808.15
382.22	1756.95
382.43	2212.42
382.64	2166.96
382.85	1824.54
383.06	1970.76
383.27	2296.39
383.48	2134.39
383.69	1915.26
383.91	1796.48
384.12	2205.46
384.33	2174.74
384.54	1834.78
384.75	1709.44
384.96	2642.08
385.17	2271.20
385.38	1834.37
385.59	1800.57
385.80	2243.75
386.01	2373.80
386.22	1941.68
386.43	1845.22
386.64	2480.91
386.86	2110.23
387.07	1918.33
387.28	1766.99
387.49	2044.69
387.70	2311.95
387.91	1930.82
388.12	1814.91
388.33	2177.81
388.54	2039.57
388.75	1820.85
388.96	1927.55
389.17	2056.16
389.38	2104.70
389.59	1959.09
389.80	1932.67
390.01	2114.73
390.22	2022.57
390.43	1942.50
390.64	1716.20
390.86	2169.00
391.07	2271.40
391.28	1835.59
391.49	1904.20
391.70	1890.68
391.91	1987.35
392.12	1810.40
392.33	1888.43
392.54	2123.33
392.75	2053.91
392.96	1916.49
393.17	1810.40
393.38	2521.05
393.59	2341.03
393.80	1866.11
394.01	2088.52
394.22	2394.28
394.43	2790.36
394.64	2128.25
394.85	2248.46
395.06	2342.67
395.27	2320.14
395.48	1931.03
395.69	1752.45
395.90	2083.81
396.11	2130.71
396.32	1839.49
396.53	1939.43
396.74	2072.34
396.95	2284.51
397.16	1802.21
397.37	1756.75
397.58	2286.97
397.79	2128.66
398.00	1901.74
398.21	1858.53
398.42	2142.99
398.63	2497.09
398.84	1818.19
399.05	1823.92
399.26	2331.00
399.47	2190.51
399.68	1706.16
399.89	1777.02
400.10	1906.66
400.31	2050.63
400.52	1896.42
400.73	1810.61
400.94	1863.24
401.15	2155.08
401.36	1813.07
401.57	1892.12
401.78	2304.78
401.99	2269.76
402.20	1786.65
402.41	1992.88
402.62	2363.77
402.83	2081.76
403.04	1818.60
403.25	2071.52
403.46	2323.01
403.67	2675.67
403.88	2314.20
404.09	2294.34
404.30	2537.02
404.51	2387.73
404.72	2098.96
404.93	2202.59
405.14	2105.93
405.35	2135.42
405.56	1881.88
405.77	1786.85
405.98	2173.30
406.19	2077.25
406.40	1774.16
406.61	1821.46
406.82	2009.26
407.03	2516.34
407.24	1779.07
407.45	1877.99
407.66	2194.19
407.87	2246.01
408.08	1905.02
408.29	1911.98
408.49	2210.99
408.70	2105.11
408.91	1820.03
409.12	1989.40
409.33	1939.22
409.54	2318.71
409.75	1808.97
409.96	1857.51
410.17	2293.52
410.38	2077.25
410.59	1807.13
410.80	1965.03
411.01	2087.90
411.22	2096.10
411.43	1941.06
411.64	1823.72
411.85	1974.24
412.06	1955.20
412.27	1665.82
412.47	1803.44
412.68	2136.85
412.89	2168.80
413.10	1855.05
413.31	1767.19
413.52	2476.61
413.73	2475.38
413.94	1856.69
414.15	2007.83
414.36	2069.88
414.57	2022.78
414.78	2132.14
414.99	3245.21
415.19	4441.43
415.40	4875.60
415.61	5218.02
415.82	4938.27
416.03	4464.37
416.24	3789.15
416.45	3020.14
416.66	2358.24
416.87	2160.40
417.08	2392.03
417.29	2049.61
417.50	2272.02
417.70	2707.82
417.91	2759.84
418.12	2737.52
418.33	2990.24
418.54	3417.24
418.75	3728.33
418.96	3938.45
419.17	4958.95
419.38	6372.46
419.59	6523.60
419.79	6242.82
420.00	5806.40
420.21	5224.78
420.42	3840.15
420.63	2960.13
420.84	2494.84
421.05	2279.18
421.26	2185.59
421.47	1789.52
421.67	2212.83
421.88	1984.89
422.09	1879.63
422.30	2040.19
422.51	1827.20
422.72	2398.58
422.93	2236.18
423.14	1896.62
423.35	1741.39
423.55	1862.22
423.76	1992.26
423.97	1872.05
424.18	1810.40
424.39	2213.44
424.60	2455.31
424.81	2092.20
425.02	2559.35
425.22	3025.05
425.43	3136.46
425.64	3376.49
425.85	3574.12
426.06	3995.38
426.27	3885.82
426.48	3910.80
426.68	3895.03
426.89	4012.38
427.10	4001.53
427.31	3052.50
427.52	2464.32
427.73	2667.27
427.94	2488.49
428.14	2121.70
428.35	1946.18
428.56	2361.92
428.77	2273.04
428.98	2034.04
429.19	2531.29
429.40	2961.16
429.60	3127.45
429.81	3106.56
430.02	2967.71
430.23	2731.79
430.44	2648.23
430.65	2146.07
430.85	2029.74
431.06	2279.18
431.27	1902.56
431.48	1882.29
431.69	1925.91
431.90	2149.14
432.10	2160.81
432.31	2019.71
432.52	2494.22
432.73	3632.07
432.94	3778.09
433.15	3441.82
433.35	3299.48
433.56	3462.71
433.77	2990.65
433.98	2748.99
434.19	2507.74
434.40	2637.17
434.60	2419.47
434.81	2110.02
435.02	2038.96
435.23	2182.73
435.44	2101.63
435.64	1809.79
435.85	1813.89
436.06	2099.58
436.27	2053.09
436.48	1788.08
436.68	1837.23
436.89	2395.71
437.10	2227.58
437.31	1895.60
437.52	1978.54
437.73	2159.17
437.93	2153.03
438.14	1920.99
438.35	1751.01
438.56	2064.97
438.77	2088.52
438.97	2027.49
439.18	1846.24
439.39	2326.08
439.60	1896.01
439.80	1828.84
440.01	1853.00
440.22	2026.06
440.43	2220.00
440.64	1808.97
440.84	1913.21
441.05	1942.50
441.26	2615.26
441.47	1961.95
441.68	1865.29
441.88	2078.07
442.09	2070.50
442.30	1994.72
442.51	1992.06
442.71	2088.72
442.92	2181.09
443.13	1877.58
443.34	1818.80
443.55	1952.33
443.75	2229.01
443.96	1848.50
444.17	1812.25
444.38	2317.89
444.58	1983.66
444.79	2000.46
445.00	1946.59
445.21	2091.80
445.41	2084.63
445.62	1719.27
445.83	1995.95
446.04	2140.74
446.24	1905.43
446.45	1717.63
446.66	1882.49
446.87	2213.85
447.07	2025.44
447.28	2123.13
447.49	1890.07
447.70	2268.53
447.90	2289.01
448.11	1944.75
448.32	2015.00
448.53	2398.79
448.73	2325.88
448.94	1863.24
449.15	2041.01
449.36	2134.80
449.56	2191.74
449.77	1905.63
449.98	1819.83
450.19	2298.44
450.39	2486.03
450.60	2482.96
450.81	2511.63
451.02	2638.60
451.22	2765.58
451.43	2161.63
451.64	2206.89
451.84	2365.20
452.05	2648.43
452.26	2168.39
452.47	2040.60
452.67	2116.78
452.88	2397.97
453.09	1862.83
453.30	1841.74
453.50	2276.73
453.71	2415.37
453.92	1875.94
454.12	2027.90
454.33	2048.58
454.54	2128.04
454.75	1858.94
454.95	1891.91
455.16	2196.86
455.37	2272.84
455.57	1995.54
455.78	1912.39
455.99	2136.03
456.19	2155.08
456.40	1832.32
456.61	1929.60
456.82	2145.04
457.02	2230.03
457.23	1948.23
457.44	2072.54
457.64	2074.59
457.85	2294.54
458.06	2042.23
458.26	2151.60
458.47	2211.81
458.68	2419.88
458.89	2061.89
459.09	2263.01
459.30	2717.24
459.51	2368.27
459.71	1944.55
459.92	1947.82
460.13	2304.37
460.33	2565.90
460.54	1964.62
460.75	1961.54
460.95	1934.92
461.16	2225.94
461.37	1932.67
461.57	1916.90
461.78	2178.42
461.99	2024.21
462.19	2302.74
462.40	2017.45
462.61	2904.43
462.81	2474.36
463.02	1958.88
463.23	1941.68
463.43	2340.83
463.64	2137.46
463.85	3271.02
464.05	2054.52
464.26	2854.66
464.47	2499.75
464.67	2183.34
464.88	2119.03
465.09	2055.96
465.29	2204.43
465.50	2022.98
465.71	1955.61
465.91	2091.18
466.12	2145.86
466.33	1990.42
466.53	1867.75
466.74	2367.66
466.94	2088.11
467.15	1968.71
467.36	2128.25
467.56	1975.27
467.77	2184.98
467.98	1998.20
468.18	1922.63
468.39	2047.56
468.60	2451.62
468.80	1928.16
469.01	1864.47
469.21	2250.92
469.42	2508.15
469.63	2208.32
469.83	2179.04
470.04	2610.96
470.25	2724.41
470.45	2234.74
470.66	2055.96
470.86	2325.06
471.07	2202.59
471.28	2115.96
471.48	2125.59
471.69	2237.82
471.90	2795.07
472.10	1979.57
472.31	1898.67
472.51	2045.72
472.72	2024.42
472.93	1900.92
473.13	2052.47
473.34	2190.92
473.54	2148.32
473.75	2005.58
473.96	2152.01
474.16	2173.71
474.37	2352.09
474.57	2253.79
474.78	2102.85
474.99	2423.98
475.19	2350.45
475.40	2087.49
475.60	1920.59
475.81	2452.85
476.02	2249.49
476.22	2213.65
476.43	2321.37
476.63	2378.10
476.84	2636.76
477.05	1984.07
477.25	1952.33
477.46	2736.91
477.66	2201.36
477.87	1900.11
478.08	1963.59
478.28	2346.56
478.49	2161.84
478.69	1920.99
478.90	1956.42
479.10	2278.98
479.31	2503.03
479.52	2082.37
479.72	2117.60
479.93	2336.32
480.13	2094.05
480.34	1959.91
480.54	2013.56
480.75	2009.67
480.96	2335.91
481.16	1910.14
481.37	2005.99
481.57	2294.54
481.78	2275.70
481.98	2147.30
482.19	2080.74
482.40	2512.86
482.60	2312.36
482.81	2220.41
483.01	2039.16
483.22	2516.75
483.42	2503.03
483.63	2204.84
483.83	2055.55
484.04	2130.09
484.24	2308.88
484.45	2097.32
484.66	1893.96
484.86	2255.63
485.07	2050.22
485.27	2049.40
485.48	1974.04
485.68	2422.75
485.89	2115.55
486.09	2126.20
486.30	1993.49
486.50	2234.54
486.71	2325.26
486.91	2371.75
487.12	2474.77
487.33	2934.33
487.53	2951.94
487.74	2519.00
487.94	2518.59
488.15	2782.98
488.35	2919.99
488.56	2707.82
488.76	2595.19
488.97	2660.11
489.17	2631.44
489.38	2312.57
489.58	2150.37
489.79	2359.67
489.99	2318.10
490.20	2058.21
490.40	2160.20
490.61	2327.72
490.81	2146.89
491.02	2061.89
491.22	2121.08
491.43	2402.47
491.63	2235.15
491.84	2208.32
492.04	1984.07
492.25	2330.18
492.45	2165.11
492.66	1966.87
492.86	1918.54
493.07	2165.32
493.27	2570.00
493.48	1884.75
493.68	2001.48
493.89	2186.41
494.09	2339.60
494.30	2012.74
494.50	2251.33
494.71	2377.08
494.91	2184.98
495.12	2308.27
495.32	2379.33
495.53	2477.02
495.73	2119.65
495.94	2114.32
496.14	1900.11
496.35	2525.76
496.55	2178.63
496.76	1987.76
496.96	2093.02
497.17	2224.30
497.37	2334.89
497.58	2031.38
497.78	1983.05
497.98	2216.93
498.19	2261.16
498.39	2126.82
498.60	2173.92
498.80	2022.16
499.01	2390.39
499.21	1935.74
499.42	2060.26
499.62	2176.99
499.83	2580.85
500.03	1926.52
500.24	2101.42
500.44	2436.47
500.64	2358.03
500.85	1986.94
501.05	2081.76
501.26	1935.74
501.46	2381.79
501.67	1931.85
501.87	1902.56
502.08	2064.15
502.28	2126.82
502.48	2134.19
502.69	2217.34
502.89	2084.22
503.10	2217.75
503.30	2216.52
503.51	2146.27
503.71	2029.33
503.92	2400.22
504.12	2253.38
504.32	2239.25
504.53	2632.66
504.73	2680.59
504.94	2547.47
505.14	2794.86
505.35	2959.93
505.55	2957.88
505.75	2759.64
505.96	2909.34
506.16	3000.07
506.37	2479.89
506.57	2301.51
506.78	2393.87
506.98	2634.30
507.18	2259.32
507.39	2124.97
507.59	2190.51
507.80	2315.23
508.00	2430.53
508.20	2413.94
508.41	2206.28
508.61	2596.62
508.82	2470.46
509.02	2227.78
509.22	1960.52
509.43	2038.14
509.63	2127.84
509.84	2067.63
510.04	1906.25
510.24	2468.01
510.45	2342.26
510.65	1940.45
510.86	2122.72
511.06	2116.17
511.26	2500.98
511.47	2378.31
511.67	2142.79
511.88	2419.88
512.08	2432.17
512.28	1959.09
512.49	2133.98
512.69	2267.92
512.90	2249.28
513.10	2051.66
513.30	2096.30
513.51	2297.00
513.71	2504.46
513.91	2109.00
514.12	2158.97
514.32	2548.08
514.53	2476.61
514.73	2575.53
514.93	2587.20
515.14	2779.50
515.34	3231.29
515.54	3033.25
515.75	3321.60
515.95	3631.46
516.15	3675.69
516.36	2848.72
516.56	2621.40
516.77	2255.02
516.97	2636.55
517.17	2367.04
517.38	2448.76
517.58	2805.10
517.78	2800.39
517.99	3129.50
518.19	3340.85
518.39	3895.24
518.60	3692.90
518.80	3230.88
519.00	2924.50
519.21	2733.83
519.41	2867.57
519.61	2228.80
519.82	2351.27
520.02	2412.30
520.22	2458.79
520.43	2296.39
520.63	2343.90
520.83	2368.68
521.04	2282.67
521.24	2925.52
521.44	3103.49
521.65	3437.11
521.85	3724.23
522.05	3308.70
522.26	2847.50
522.46	3113.12
522.66	2745.30
522.87	2383.63
523.07	2460.63
523.27	2379.13
523.48	2729.53
523.68	2357.42
523.88	2425.61
524.09	2672.60
524.29	2621.60
524.49	2484.80
524.70	2855.07
524.90	3224.12
525.10	3131.55
525.31	2615.05
525.51	2360.28
525.71	2590.89
525.91	2463.91
526.12	2116.58
526.32	2012.54
526.52	2162.04
526.73	2121.70
526.93	2118.62
527.13	1955.20
527.34	2256.04
527.54	2283.28
527.74	2221.43
527.94	2115.96
528.15	2203.61
528.35	2355.16
528.55	2240.68
528.76	2127.63
528.96	1983.87
529.16	2377.08
529.36	2161.43
529.57	1929.39
529.77	2398.17
529.97	2003.53
530.18	2125.18
530.38	2017.04
530.58	2315.02
530.78	2250.72
530.99	2071.11
531.19	2189.69
531.39	2150.57
531.60	2267.92
531.80	2124.36
532.00	2242.73
532.20	2280.62
532.41	2114.32
532.61	2037.32
532.81	1993.29
533.01	2130.71
533.22	2259.93
533.42	2140.33
533.62	1881.26
533.82	2438.72
534.03	2172.08
534.23	2186.62
534.43	2016.63
534.63	2168.18
534.84	2235.77
535.04	2101.83
535.24	2064.56
535.44	2606.65
535.65	2073.57
535.85	1963.18
536.05	1948.44
536.25	2196.04
536.46	2155.08
536.66	2329.97
536.86	2293.32
537.06	2512.24
537.27	2611.16
537.47	2179.86
537.67	2101.01
537.87	2467.80
538.08	2228.60
538.28	2037.52
538.48	2084.63
538.68	2333.25
538.88	2477.43
539.09	2029.95
539.29	2145.45
539.49	2415.17
539.69	2288.81
539.90	2154.46
540.10	2052.88
540.30	2586.79
540.50	2313.39
540.70	2138.28
540.91	2253.18
541.11	2669.12
541.31	2948.67
541.51	2696.36
541.72	2814.73
541.92	2968.94
542.12	2680.18
542.32	2497.29
542.52	2315.02
542.73	2285.12
542.93	2419.68
543.13	2222.46
543.33	2473.95
543.53	2737.72
543.74	2828.65
543.94	2596.01
544.14	2898.49
544.34	3287.60
544.54	3181.93
544.75	3303.37
544.95	3530.49
545.15	3459.43
545.35	3369.93
545.55	2965.87
545.75	2650.28
545.96	3011.95
546.16	2427.25
546.36	2383.63
546.56	2406.16
546.76	2661.13
546.97	2745.92
547.17	2285.12
547.37	2276.32
547.57	2168.39
547.77	2393.05
547.97	2195.83
548.18	2237.82
548.38	2440.36
548.58	3611.80
548.78	4065.01
548.98	4805.35
549.18	5631.09
549.39	5946.89
549.59	5075.89
549.79	4392.89
549.99	4380.40
550.19	3981.46
550.39	3588.25
550.60	3094.48
550.80	3020.55
551.00	2933.72
551.20	2500.37
551.40	2367.66
551.60	2548.70
551.80	2512.24
552.01	2439.95
552.21	2363.77
552.41	2524.53
552.61	2752.67
552.81	2326.08
553.01	2154.67
553.21	2447.32
553.42	2165.52
553.62	2117.39
553.82	2033.84
554.02	2540.30
554.22	2360.69
554.42	1984.69
554.62	2264.85
554.83	3111.89
555.03	3870.46
555.23	3958.93
555.43	4687.19
555.63	4924.34
555.83	4476.65
556.03	3761.71
556.23	3427.07
556.44	3633.71
556.64	3700.88
556.84	3151.21
557.04	3356.21
557.24	3298.87
557.44	3041.44
557.64	2719.70
557.84	2448.14
558.04	2480.50
558.25	2594.57
558.45	2246.21
558.65	2358.03
558.85	2565.70
559.05	2318.92
559.25	2535.79
559.45	2686.94
559.65	3658.08
559.85	4574.96
560.05	3937.02
560.26	4300.73
560.46	4337.80
560.66	3854.48
560.86	3337.17
561.06	3042.67
561.26	3256.88
561.46	2994.34
561.66	2603.17
561.86	2672.80
562.06	2509.17
562.26	2495.86
562.47	2324.24
562.67	2138.08
562.87	2490.33
563.07	2179.45
563.27	2313.80
563.47	2334.68
563.67	2335.09
563.87	2605.63
564.07	2568.56
564.27	2793.02
564.47	3121.51
564.67	3301.33
564.87	3128.89
565.08	3025.67
565.28	2831.32
565.48	2925.52
565.68	2664.41
565.88	2581.26
566.08	2806.74
566.28	2407.39
566.48	2075.21
566.68	2199.52
566.88	2174.53
567.08	2398.99
567.28	2244.78
567.48	2267.31
567.68	2542.96
567.88	2353.94
568.08	2554.43
568.28	2635.53
568.48	2630.00
568.68	2841.97
568.89	2450.80
569.09	2188.66
569.29	2548.90
569.49	2486.64
569.69	2100.81
569.89	2040.60
570.09	1947.62
570.29	2101.42
570.49	1967.07
570.69	2038.14
570.89	2381.17
571.09	2560.58
571.29	1939.63
571.49	2197.27
571.69	2233.11
571.89	2243.96
572.09	2030.56
572.29	2063.12
572.49	2267.92
572.69	2262.39
572.89	2243.55
573.09	2131.53
573.29	2642.29
573.49	2811.25
573.69	2696.15
573.89	2615.87
574.09	2473.74
574.29	2680.18
574.49	2268.94
574.69	2092.00
574.89	2109.20
575.09	2060.26
575.29	1966.66
575.49	2063.33
575.69	2244.57
575.89	1958.88
576.09	2073.16
576.29	2167.57
576.49	2144.22
576.69	2371.96
576.89	2279.18
577.09	2318.10
577.29	2140.54
577.49	2649.66
577.69	2141.77
577.89	2316.46
578.09	2291.68
578.29	2017.45
578.49	2132.55
578.69	2016.43
578.89	2363.15
579.09	2249.90
579.29	2052.68
579.49	2321.37
579.69	2259.93
579.89	2662.56
580.09	2010.08
580.29	1982.02
580.49	2175.56
580.69	2089.75
580.89	2001.28
581.09	2025.24
581.29	2082.37
581.49	2119.65
581.69	1904.82
581.89	1966.25
582.09	2002.71
582.28	2045.31
582.48	2315.64
582.68	2438.52
582.88	2739.57
583.08	2511.83
583.28	2452.03
583.48	2331.00
583.68	2273.65
583.88	2348.41
584.08	2183.75
584.28	2175.76
584.48	2561.19
584.68	2293.72
584.88	2084.42
585.08	2339.60
585.28	2453.88
585.48	2567.13
585.68	2324.24
585.87	2365.61
586.07	2407.39
586.27	2305.40
586.47	2213.04
586.67	2107.56
586.87	2225.94
587.07	2180.68
587.27	2133.16
587.47	2381.17
587.67	3029.56
587.87	3808.20
588.07	3669.55
588.27	3743.07
588.46	4278.62
588.66	4339.85
588.86	3501.00
589.06	3230.88
589.26	3233.95
589.46	3003.55
589.66	2497.91
589.86	2316.25
590.06	2589.66
590.26	2992.29
590.46	2895.83
590.66	3128.48
590.85	3217.36
591.05	3341.47
591.25	2803.46
591.45	2725.23
591.65	2911.19
591.85	2960.95
592.05	2896.65
592.25	3108.00
592.45	3425.23
592.64	3198.72
592.84	2877.40
593.04	2630.62
593.24	3237.43
593.44	2677.51
593.64	2630.82
593.84	2723.80
594.04	2667.68
594.24	2907.50
594.43	2364.99
594.63	2333.66
594.83	2584.13
595.03	2433.40
595.23	2064.76
595.43	1996.56
595.63	2129.27
595.83	2420.49
596.02	1956.63
596.22	2208.53
596.42	2441.59
596.62	2385.68
596.82	2214.26
597.02	2300.89
597.22	2560.37
597.41	2350.66
597.61	2201.77
597.81	2457.15
598.01	2652.73
598.21	2526.37
598.41	2408.41
598.61	2402.88
598.80	2577.78
599.00	2631.03
599.20	2585.56
599.40	2475.99
599.60	2556.68
599.80	2697.17
599.99	2501.18
600.19	2344.31
600.39	2540.91
600.59	2570.61
600.79	2405.13
600.99	2353.12
601.19	2740.80
601.38	2828.04
601.58	2534.98
601.78	2276.73
601.98	3308.49
602.18	5370.80
602.37	6899.61
602.57	7810.13
602.77	9101.99
602.97	9492.95
603.17	8357.56
603.37	7962.91
603.56	7883.45
603.76	7546.76
603.96	7100.51
604.16	6402.36
604.36	5816.64
604.56	5163.75
604.75	4361.97
604.95	4127.68
605.15	4026.10
605.35	3744.92
605.55	3294.36
605.74	3126.63
605.94	3192.99
606.14	2828.86
606.34	2536.00
606.54	2500.16
606.73	2353.32
606.93	2485.41
607.13	2153.44
607.33	2252.77
607.53	2531.90
607.72	2447.32
607.92	2226.76
608.12	2321.37
608.32	2315.64
608.51	2497.09
608.71	2244.57
608.91	2548.29
609.11	2788.51
609.31	2783.19
609.50	2948.87
609.70	3363.79
609.90	3498.95
610.10	3523.53
610.29	3170.46
610.49	2836.64
610.69	3015.02
610.89	2839.51
611.09	2591.70
611.28	2677.10
611.48	2749.19
611.68	2461.66
611.88	2340.62
612.07	2277.14
612.27	2603.38
612.47	2333.05
612.67	2291.06
612.86	2307.45
613.06	2306.01
613.26	2050.22
613.46	2270.17
613.65	2552.18
613.85	3227.19
614.05	2979.38
614.25	2879.65
614.44	2753.49
614.64	2821.69
614.84	2763.32
615.04	2656.42
615.23	2647.82
615.43	2841.15
615.63	2775.00
615.83	2455.10
616.02	2542.76
616.22	3180.91
616.42	3091.61
616.62	3220.23
616.81	3419.29
617.01	3490.56
617.21	3223.30
617.41	2763.53
617.60	2718.27
617.80	2796.30
618.00	2705.57
618.19	2460.84
618.39	2264.44
618.59	2422.34
618.79	2244.16
618.98	1921.20
619.18	2035.68
619.38	2542.55
619.57	2126.82
619.77	2016.84
619.97	2025.65
620.17	2250.51
620.36	2378.72
620.56	2864.29
620.76	2788.72
620.95	2967.10
621.15	3020.75
621.35	2748.99
621.54	2686.12
621.74	2724.00
621.94	2495.65
622.14	2275.70
622.33	2158.76
622.53	2341.03
622.73	2282.46
622.92	1997.79
623.12	2072.54
623.32	2539.69
623.51	2331.82
623.71	1951.10
623.91	2259.73
624.10	2094.46
624.30	2267.72
624.50	1930.82
624.69	1944.34
624.89	2883.95
625.09	2140.13
625.29	1830.06
625.48	1940.04
625.68	2204.84
625.88	2338.99
626.07	2076.03
626.27	1915.26
626.47	2047.56
626.66	1846.65
626.86	1995.13
627.06	1983.87
627.25	2160.61
627.45	2430.73
627.64	1994.93
627.84	2146.89
628.04	2017.04
628.23	2462.07
628.43	1927.75
628.63	2134.39
628.82	2362.95
629.02	2886.61
629.22	2560.98
629.41	2723.18
629.61	2725.85
629.81	3209.78
630.00	2777.25
630.20	2778.48
630.40	3081.17
630.59	3054.34
630.79	2599.28
630.98	2503.03
631.18	2555.66
631.38	2477.02
631.57	2387.32
631.77	2056.16
631.97	2303.96
632.16	2315.64
632.36	2120.88
632.56	2059.85
632.75	2178.63
632.95	2296.39
633.14	1882.70
633.34	2135.21
633.54	1836.00
633.73	2045.92
633.93	1935.94
634.12	1833.34
634.32	2572.45
634.52	2110.43
634.71	1825.15
634.91	2002.91
635.11	1945.98
635.30	2009.67
635.50	2066.20
635.69	1983.46
635.89	2661.34
636.09	2546.44
636.28	2264.64
636.48	2239.45
636.67	2549.11
636.87	2470.26
637.07	2276.93
637.26	2175.97
637.46	2497.29
637.65	2680.79
637.85	2476.40
638.04	2400.01
638.24	2516.54
638.44	2548.08
638.63	2293.52
638.83	2197.68
639.02	2387.93
639.22	2384.86
639.42	2087.08
639.61	2077.46
639.81	2221.43
640.00	2124.97
640.20	2161.02
640.39	2318.30
640.59	3424.00
640.79	3701.09
640.98	3920.43
641.18	4075.87
641.37	4290.49
641.57	3690.23
641.76	3397.78
641.96	3008.26
642.15	3178.24
642.35	2887.84
642.55	2772.34
642.74	2431.55
642.94	2703.93
643.13	2703.52
643.33	2146.68
643.52	2023.19
643.72	2126.41
643.91	2137.46
644.11	1901.95
644.31	1922.02
644.50	1986.53
644.70	2341.24
644.89	2026.87
645.09	2113.50
645.28	2147.09
645.48	2256.25
645.67	1972.60
645.87	1905.02
646.06	2174.53
646.26	2293.52
646.45	1880.04
646.65	1831.70
646.84	2486.44
647.04	2108.18
647.24	1910.75
647.43	2042.03
647.63	2222.46
647.82	2476.40
648.02	1944.34
648.21	1987.96
648.41	2412.92
648.60	2106.95
648.80	2152.21
648.99	2043.87
649.19	2063.74
649.38	1905.43
649.58	2025.03
649.77	2056.16
649.97	2326.90
650.16	2245.39
650.36	1775.18
650.55	2165.11
650.75	2198.29
650.94	2410.66
651.14	2055.34
651.33	2041.42
651.53	2414.15
651.72	2011.72
651.92	1974.24
652.11	1813.68
652.31	2211.81
652.50	2199.72
652.70	2068.45
652.89	1990.42
653.09	2518.80
653.28	2256.45
653.48	1999.64
653.67	1961.54
653.87	2781.14
654.06	2269.76
654.25	2320.55
654.45	2006.60
654.64	2137.67
654.84	2139.31
655.03	1819.62
655.23	2149.14
655.42	2272.02
655.62	2448.35
655.81	2105.52
656.01	1948.44
656.20	2293.93
656.40	2438.93
656.59	2067.83
656.79	2143.61
656.98	2195.42
657.17	2261.37
657.37	1993.49
657.56	1955.20
657.76	2196.86
657.95	2310.31
658.15	1658.45
658.34	2010.70
658.54	2174.94
658.73	1968.30
658.92	2048.58
659.12	2071.73
659.31	2380.97
659.51	2226.14
659.70	2357.62
659.90	2237.61
660.09	2650.48
660.29	2432.37
660.48	2177.61
660.67	2359.06
660.87	2238.02
661.06	2352.91
661.26	2214.06
661.45	2201.16
661.65	2294.13
661.84	2103.26
662.03	1954.99
662.23	1986.73
662.42	2508.35
662.62	1966.66
662.81	1883.93
663.00	1953.76
663.20	2179.24
663.39	2193.99
663.59	2067.83
663.78	1942.70
663.97	2087.90
664.17	2263.82
664.36	1847.88
664.56	1924.07
664.75	2292.91
664.94	2303.15
665.14	2198.70
665.33	2203.00
665.53	2412.71
665.72	2417.42
665.91	2396.94
666.11	2292.50
666.30	2391.21
666.50	2290.24
666.69	2231.26
666.88	2100.19
667.08	2320.55
667.27	2247.85
667.47	2109.61
667.66	2072.75
667.85	2366.22
668.05	2202.18
668.24	1995.54
668.43	2239.04
668.63	2146.68
668.82	2386.50
669.02	2165.93
669.21	2077.87
669.40	2053.09
669.60	2557.30
669.79	1934.72
669.98	2661.95
670.18	2051.45
670.37	2012.54
670.56	2050.02
670.76	2152.21
670.95	2216.52
671.15	2435.24
671.34	2183.54
671.53	2201.57
671.73	2239.04
671.92	2142.58
672.11	2029.54
672.31	2057.59
672.50	2302.74
672.69	1998.00
672.89	1814.91
673.08	2035.27
673.27	2305.19
673.47	2184.77
673.66	2053.50
673.85	1928.57
674.05	2619.76
674.24	3576.98
674.43	3979.41
674.63	4816.21
674.82	5707.48
675.01	5040.26
675.21	4657.29
675.40	4147.55
675.59	4093.48
675.79	4270.63
675.98	3642.52
676.17	3618.76
676.37	3513.09
676.56	3134.42
676.75	2804.49
676.95	2628.36
677.14	2509.17
677.33	2613.21
677.52	2063.94
677.72	2105.72
677.91	2275.29
678.10	2002.71
678.30	1966.87
678.49	1928.57
678.68	2519.41
678.88	1877.17
679.07	2145.86
679.26	1957.24
679.45	2448.96
679.65	2349.02
679.84	1798.94
680.03	1856.07
680.23	2096.51
680.42	2593.14
680.61	1926.32
680.81	2008.24
681.00	2154.26
681.19	2245.60
681.38	2173.92
681.58	2132.35
681.77	2197.47
681.96	2409.64
682.15	2065.58
682.35	2241.50
682.54	2359.26
682.73	2053.09
682.93	1995.13
683.12	1970.97
683.31	2333.05
683.50	2645.57
683.70	1942.70
683.89	2089.34
684.08	2010.29
684.27	2356.80
684.47	1953.35
684.66	2053.29
684.85	2568.36
685.04	2388.55
685.24	1947.21
685.43	2000.05
685.62	1937.17
685.81	2395.92
686.01	2823.33
686.20	3236.20
686.39	3584.97
686.58	4464.57
686.78	4252.20
686.97	3939.68
687.16	3764.99
687.35	3554.25
687.55	3287.40
687.74	3361.54
687.93	3149.16
688.12	3219.61
688.32	3073.18
688.51	2731.17
688.70	2880.67
688.89	2438.93
689.08	2217.75
689.28	2222.87
689.47	2355.37
689.66	2341.65
689.85	2247.85
690.05	2051.45
690.24	2112.89
690.43	2224.71
690.62	2074.59
690.81	1981.41
691.01	2191.94
691.20	2113.09
691.39	1887.00
691.58	2116.99
691.77	2489.31
691.97	2217.34
692.16	2129.68
692.35	2061.49
692.54	2218.56
692.73	2724.21
692.93	2687.14
693.12	2808.99
693.31	3090.79
693.50	3028.74
693.69	2741.00
693.89	2491.56
694.08	2928.39
694.27	2938.84
694.46	2518.80
694.65	2499.34
694.85	2751.45
695.04	2756.57
695.23	2795.48
695.42	4346.20
695.61	5775.07
695.80	6721.43
696.00	7393.99
696.19	7739.07
696.38	6829.77
696.57	5750.29
696.76	5384.31
696.95	4947.89
697.15	4973.90
697.34	4586.63
697.53	3895.03
697.72	3719.93
697.91	3395.94
698.10	3366.25
698.30	2709.67
698.49	2495.45
698.68	2528.63
698.87	2384.86
699.06	2129.89
699.25	2168.59
699.45	2437.49
699.64	2270.58
699.83	2259.32
700.02	1998.20
700.21	2287.17
700.40	2092.20
700.59	1999.23
700.79	2024.42
700.98	2247.24
701.17	2042.85
701.36	1927.96
701.55	1981.41
701.74	2663.59
701.93	3135.85
702.12	3816.80
702.32	4310.97
702.51	5096.37
702.70	5182.18
702.89	4432.83
703.08	3783.21
703.27	4033.68
703.46	3740.21
703.65	3275.11
703.85	3074.62
704.04	3044.51
704.23	3192.17
704.42	2599.69
704.61	2458.79
704.80	2762.30
704.99	2255.43
705.18	2253.18
705.37	2367.04
705.57	3718.29
705.76	5528.70
705.95	6339.69
706.14	7646.71
706.33	8497.43
706.52	8315.16
706.71	6387.00
706.90	5689.87
707.09	5551.84
707.28	5186.28
707.47	4579.26
707.67	4397.40
707.86	4063.78
708.05	4015.66
708.24	3337.37
708.43	3015.43
708.62	2704.34
708.81	2401.65
709.00	2168.39
709.19	2090.36
709.38	2429.10
709.57	2149.55
709.76	2349.43
709.96	2316.25
710.15	2839.30
710.34	2657.44
710.53	2563.85
710.72	2342.88
710.91	2675.26
711.10	2531.49
711.29	2344.92
711.48	2282.46
711.67	2289.22
711.86	2522.48
712.05	2190.10
712.24	2211.19
712.43	2511.83
712.62	2551.15
712.81	2186.41
713.00	2320.55
713.19	2064.15
713.39	2345.74
713.58	2108.59
713.77	2369.30
713.96	2633.28
714.15	2551.97
714.34	2472.31
714.53	2272.63
714.72	2836.85
714.91	2435.85
715.10	2550.54
715.29	2441.79
715.48	3188.69
715.67	2744.48
715.86	2414.15
716.05	2326.29
716.24	2390.18
716.43	2287.99
716.62	2121.08
716.81	2090.16
717.00	2257.68
717.19	2583.31
717.38	2118.01
717.57	2084.22
717.76	1951.10
717.95	2349.84
718.14	2042.44
718.33	2036.30
718.52	1898.26
718.71	1906.86
718.90	1896.62
719.09	1947.62
719.28	2144.22
719.47	2415.99
719.66	2453.47
719.85	2635.33
720.04	2771.52
720.23	2930.23
720.42	2685.50
720.61	2669.32
720.80	2389.16
720.99	2616.89
721.18	2332.23
721.37	2249.69
721.56	2387.73
721.75	2550.34
721.94	2173.30
722.13	2191.33
722.32	2251.54
722.51	2380.35
722.70	2149.55
722.89	2143.40
723.08	2151.80
723.27	2319.73
723.46	2065.17
723.65	2041.42
723.84	2066.61
724.03	2401.65
724.22	1879.01
724.41	1997.59
724.60	2105.31
724.79	2275.91
724.98	2036.09
725.16	1969.33
725.35	2262.19
725.54	2013.36
725.73	2110.84
725.92	2219.18
726.11	2620.99
726.30	3172.51
726.49	3038.78
726.68	3286.38
726.87	3606.68
727.06	3639.65
727.25	2912.62
727.44	2929.41
727.63	2965.46
727.82	2858.96
728.01	2753.70
728.20	2706.60
728.38	2948.87
728.57	2550.13
728.76	2357.83
728.95	2404.32
729.14	2146.27
729.33	2088.93
729.52	1833.14
729.71	1979.16
729.90	2089.75
730.09	2286.35
730.28	2387.11
730.47	2496.27
730.66	3067.86
730.84	2949.89
731.03	2751.04
731.22	2702.50
731.41	2728.71
731.60	2728.51
731.79	2245.60
731.98	2305.81
732.17	2605.43
732.36	2525.35
732.55	2203.41
732.73	2088.11
732.92	2491.97
733.11	2344.31
733.30	2045.31
733.49	1979.36
733.68	2369.70
733.87	2323.22
734.06	2240.27
734.25	2659.90
734.43	3139.13
734.62	3548.93
734.81	3550.15
735.00	3476.84
735.19	3430.35
735.38	3209.99
735.57	2858.55
735.76	3040.21
735.94	3467.83
736.13	4750.47
736.32	4974.52
736.51	5435.31
736.70	6322.69
736.89	6494.72
737.08	6014.47
737.27	7441.29
737.45	10100.17
737.64	10980.39
737.83	12244.81
738.02	12804.11
738.21	11938.22
738.40	9694.88
738.59	8707.55
738.77	7976.02
738.96	7395.22
739.15	6804.79
739.34	6097.83
739.53	5485.07
739.72	5247.31
739.90	4714.63
740.09	3806.56
740.28	3496.29
740.47	3345.36
740.66	3041.23
740.85	2541.94
741.03	2461.25
741.22	2338.37
741.41	2489.10
741.60	2257.07
741.79	2464.73
741.98	2796.09
742.16	2923.48
742.35	2607.47
742.54	2860.40
742.73	3495.27
742.92	3207.32
743.10	3089.98
743.29	3104.72
743.48	3485.64
743.67	2791.59
743.86	2549.93
744.05	2557.71
744.23	2550.34
744.42	2470.67
744.61	2451.01
744.80	2214.67
744.99	2337.76
745.17	2086.47
745.36	1999.64
745.55	2203.00
745.74	2240.07
745.93	2113.71
746.11	1976.90
746.30	1935.13
746.49	2375.64
746.68	2051.86
746.86	2059.23
747.05	1975.27
747.24	2367.04
747.43	2481.11
747.62	2169.21
747.80	2270.79
747.99	2766.60
748.18	2692.87
748.37	2369.50
748.56	2410.66
748.74	2665.64
748.93	2605.22
749.12	3173.33
749.31	5018.75
749.49	6665.52
749.68	7795.59
749.87	8803.60
750.06	9203.57
750.24	9531.25
750.43	10520.83
750.62	11827.43
750.81	12906.09
750.99	13777.91
751.18	13626.16
751.37	11210.58
751.56	9414.92
751.74	9483.94
751.93	8754.25
752.12	7116.28
752.31	6386.18
752.49	5875.21
752.68	5576.82
752.87	4622.27
753.06	4094.30
753.24	3734.27
753.43	3566.54
753.62	2769.88
753.81	2539.89
753.99	2853.03
754.18	2564.88
754.37	2155.49
754.55	2193.58
754.74	2593.96
754.93	2005.37
755.12	2043.87
755.30	1976.70
755.49	2409.23
755.68	2224.50
755.86	2144.22
756.05	1898.67
756.24	2438.72
756.43	2031.99
756.61	1959.91
756.80	2059.23
756.99	2435.85
757.17	2191.53
757.36	1990.83
757.55	2069.88
757.74	2317.89
757.92	2230.85
758.11	1974.45
758.30	1871.84
758.48	2161.84
758.67	2022.98
758.86	2117.39
759.04	2007.83
759.23	2181.09
759.42	2218.36
759.60	1990.42
759.79	2042.44
759.98	2106.54
760.16	2047.35
760.35	1956.83
760.54	1934.31
760.73	2255.22
760.91	1971.99
761.10	2053.70
761.29	2133.78
761.47	2211.19
761.66	2627.54
761.85	2197.27
762.03	2678.33
762.22	4938.47
762.41	12046.97
762.59	19740.17
762.78	23765.86
762.97	28970.77
763.15	30939.07
763.34	27658.02
763.52	20261.17
763.71	18879.40
763.90	17221.37
764.08	15928.69
764.27	14620.65
764.46	13543.63
764.64	11787.90
764.83	10448.94
765.02	9191.90
765.20	7934.45
765.39	6459.29
765.58	4823.79
765.76	3963.84
765.95	3454.10
766.13	3067.24
766.32	2585.36
766.51	2445.68
766.69	3269.58
766.88	2510.81
767.07	2115.96
767.25	1968.51
767.44	2468.21
767.62	2507.74
767.81	2060.46
768.00	2163.47
768.18	2323.42
768.37	2217.34
768.56	1958.88
768.74	2103.88
768.93	2064.97
769.11	2295.77
769.30	2152.82
769.49	2047.35
769.67	2168.80
769.86	2130.30
770.04	2047.35
770.23	2022.37
770.42	2419.47
770.60	2201.98
770.79	1941.68
770.97	2187.44
771.16	3414.17
771.35	5578.05
771.53	7327.63
771.72	8645.30
771.90	10139.08
772.09	10835.19
772.27	9344.06
772.46	7105.22
772.65	7222.37
772.83	6575.21
773.02	6179.75
773.20	5559.62
773.39	5512.11
773.58	5082.44
773.76	4340.06
773.95	4014.63
774.13	3840.97
774.32	3340.44
774.50	2740.80
774.69	2583.72
774.87	2448.96
775.06	2727.89
775.25	2055.34
775.43	2059.23
775.62	2239.04
775.80	2267.72
775.99	2087.70
776.17	2030.56
776.36	2256.25
776.54	2475.58
776.73	2141.97
776.92	2243.34
777.10	2505.08
777.29	2381.38
777.47	2044.90
777.66	2090.57
777.84	2277.34
778.03	2226.76
778.21	1996.16
778.40	2113.09
778.58	2279.18
778.77	2386.50
778.95	1956.42
779.14	1992.26
779.32	2477.22
779.51	2336.73
779.70	1972.60
779.88	1867.54
780.07	2066.40
780.25	2597.23
780.44	2027.08
780.62	2101.01
780.81	2229.21
780.99	2229.83
781.18	1945.98
781.36	1916.69
781.55	2146.89
781.73	2411.28
781.92	1890.48
782.10	1912.19
782.29	2203.61
782.47	2401.04
782.66	1945.57
782.84	1854.44
783.03	2033.43
783.21	2373.19
783.40	1924.48
783.58	1924.48
783.77	2055.14
783.95	2120.06
784.14	1925.50
784.32	2044.69
784.51	2425.00
784.69	2116.58
784.88	1979.57
785.06	2136.24
785.24	2073.16
785.43	2415.37
785.61	2172.08
785.80	2068.86
785.98	2373.19
786.17	2330.79
786.35	2011.11
786.54	2237.82
786.72	2418.86
786.91	2394.89
787.09	2080.53
787.28	1956.83
787.46	2206.89
787.65	2350.45
787.83	1942.29
788.01	2122.51
788.20	2193.58
788.38	2378.31
788.57	2281.03
788.75	2278.57
788.94	2755.13
789.12	2582.08
789.31	2218.36
789.49	2273.86
789.67	2231.26
789.86	2404.11
790.04	2150.98
790.23	2027.49
790.41	2757.79
790.60	2374.41
790.78	2170.23
790.96	2187.85
791.15	2456.13
791.33	2240.89
791.52	2113.71
791.70	1984.69
791.89	2254.20
792.07	2380.76
792.25	2107.56
792.44	1926.93
792.62	2401.86
792.81	2120.06
792.99	2045.10
793.17	2005.58
793.36	2178.83
793.54	3057.82
793.73	4241.34
793.91	6039.66
794.10	7304.29
794.28	8475.93
794.46	8620.31
794.65	8209.28
794.83	6552.07
795.01	6114.01
795.20	5844.29
795.38	5422.00
795.57	5265.33
795.75	4997.45
795.93	4463.96
796.12	4184.41
796.30	4123.99
796.49	3826.63
796.67	3178.45
796.85	3078.71
797.04	2889.89
797.22	2779.30
797.40	2261.98
797.59	2299.05
797.77	2382.81
797.96	2226.55
798.14	2054.32
798.32	2078.48
798.51	2347.18
798.69	2574.91
798.87	2085.04
799.06	2073.57
799.24	2100.81
799.42	2930.23
799.61	3791.81
799.79	4525.81
799.98	5608.98
800.16	6083.29
800.34	7790.68
800.53	10015.18
800.71	10888.03
800.89	12664.64
801.08	12904.66
801.26	12819.47
801.44	10724.80
801.63	8799.10
801.81	8526.51
801.99	7678.24
802.18	7310.84
802.36	6876.46
802.54	6161.72
802.73	5400.49
802.91	5069.34
803.09	4594.82
803.28	4080.37
803.46	3700.27
803.64	3653.17
803.83	2843.60
804.01	2553.41
804.19	2350.86
804.38	2720.73
804.56	2629.39
804.74	2367.04
804.92	2331.41
805.11	2287.99
805.29	2589.66
805.47	2176.17
805.66	2110.64
805.84	2173.30
806.02	2545.42
806.21	2140.54
806.39	2389.77
806.57	2486.44
806.76	2471.08
806.94	2240.48
807.12	2237.82
807.30	2351.68
807.49	2528.83
807.67	2403.29
807.85	2498.93
808.04	2600.10
808.22	2802.03
808.40	2121.08
808.58	2050.63
808.77	2449.99
808.95	2819.03
809.13	3339.62
809.31	6550.22
809.50	10089.11
809.68	11864.91
809.86	13541.17
810.05	14778.76
810.23	16126.53
810.41	20997.82
810.59	33246.52
810.78	40708.09
810.96	47166.77
811.14	50655.28
811.32	49703.18
811.51	39780.15
811.69	31926.40
811.87	31429.15
812.05	27302.29
812.24	25512.78
812.42	23557.99
812.60	20825.59
812.78	17579.15
812.97	14866.82
813.15	13285.99
813.33	11273.25
813.51	9474.31
813.70	7465.67
813.88	6048.88
814.06	4890.34
814.24	3826.02
814.42	3003.76
814.61	2922.86
814.79	2946.41
814.97	2233.51
815.15	2209.96
815.34	2425.82
815.52	2470.06
815.70	2024.83
815.88	2086.88
816.06	2101.83
816.25	2170.44
816.43	2053.91
816.61	2173.71
816.79	2530.88
816.98	2077.46
817.16	2098.35
817.34	2102.24
817.52	2426.84
817.70	2617.10
817.89	2174.94
818.07	2060.67
818.25	2250.51
818.43	2307.45
818.61	2064.56
818.80	2025.03
818.98	2511.22
819.16	2248.87
819.34	1942.50
819.52	2275.29
819.70	2050.02
819.89	2173.92
820.07	1887.82
820.25	1859.76
820.43	2199.93
820.61	2291.88
820.80	2016.02
820.98	1890.68
821.16	1885.56
821.34	1945.98
821.52	1944.34
821.70	2087.90
821.89	2137.87
822.07	2061.89
822.25	2023.39
822.43	1906.86
822.61	2392.03
822.79	2164.29
822.98	1956.22
823.16	1820.85
823.34	2171.87
823.52	2331.41
823.70	2021.96
823.88	1837.03
824.06	2259.73
824.25	2135.21
824.43	2155.49
824.61	2034.25
824.79	2294.13
824.97	2381.17
825.15	2498.93
825.33	3356.83
825.52	4744.32
825.70	5377.15
825.88	5832.82
826.06	6406.66
826.24	6693.38
826.42	5916.79
826.60	4688.21
826.78	4832.59
826.97	4407.23
827.15	4489.97
827.33	3855.30
827.51	3770.92
827.69	3546.67
827.87	3422.77
828.05	3113.94
828.23	2794.66
828.41	3051.27
828.60	2922.66
828.78	2311.13
828.96	2420.90
829.14	2253.99
829.32	2212.42
829.50	2067.42
829.68	2031.79
829.86	2114.94
830.04	2286.35
830.22	2138.28
830.41	1934.92
830.59	2153.44
830.77	2255.22
830.95	1953.76
831.13	1937.38
831.31	1988.17
831.49	2289.42
831.67	2123.33
831.85	2109.82
832.03	2088.72
832.21	2282.67
832.39	1925.71
832.57	1957.45
832.76	2373.60
832.94	2194.40
833.12	1872.87
833.30	2001.68
833.48	2369.70
833.66	2204.23
833.84	1957.86
834.02	1991.04
834.20	2341.44
834.38	2309.08
834.56	1869.39
834.74	1918.95
834.92	1959.91
835.10	2471.90
835.28	1995.54
835.46	2026.67
835.64	2097.94
835.82	2028.92
836.01	2260.14
836.19	2170.23
836.37	2029.74
836.55	1982.23
836.73	1913.01
836.91	1869.80
837.09	2261.57
837.27	2400.22
837.45	1908.71
837.63	1937.17
837.81	2037.11
837.99	2230.24
838.17	2156.72
838.35	2143.40
838.53	2769.67
838.71	2568.56
838.89	2264.03
839.07	2250.31
839.25	2454.49
839.43	2674.44
839.61	2970.37
839.79	5179.52
839.97	7835.73
840.15	9247.60
840.33	10358.22
840.51	11027.70
840.69	10766.17
840.87	8645.30
841.05	7600.83
841.23	8296.12
841.41	10702.89
841.59	15158.45
841.77	17059.58
841.95	18772.09
842.13	20090.57
842.31	19095.88
842.49	15145.96
842.67	12446.53
842.85	12369.94
843.03	10702.89
843.21	9962.96
843.39	9226.92
843.57	8324.17
843.75	7502.94
843.93	6241.80
844.11	5515.59
844.29	5187.71
844.47	4689.03
844.65	4302.17
844.83	3726.89
845.01	3396.76
845.19	3243.16
845.36	2654.78
845.54	2446.30
845.72	2443.84
845.90	2425.00
846.08	2011.92
846.26	2102.04
846.44	2264.85
846.62	2290.04
846.80	2072.75
846.98	1924.89
847.16	2105.11
847.34	2176.99
847.52	1876.35
847.70	1807.95
847.88	2084.63
848.06	2370.93
848.24	2068.04
848.41	1854.85
848.59	2329.36
848.77	2197.68
848.95	1955.20
849.13	1902.15
849.31	2246.01
849.49	2143.61
849.67	1878.81
849.85	1863.86
850.03	2140.13
850.21	2158.15
850.39	1864.88
850.57	2069.88
850.74	2364.99
850.92	2544.19
851.10	2885.59
851.28	3707.44
851.46	4489.76
851.64	5246.08
851.82	4988.24
852.00	5060.53
852.18	4739.41
852.36	4109.25
852.53	3775.64
852.71	3623.68
852.89	3691.05
853.07	3505.10
853.25	3067.45
853.43	2852.62
853.61	2982.87
853.79	2836.44
853.97	2475.79
854.14	2387.32
854.32	2723.80
854.50	2514.50
854.68	2176.17
854.86	2092.82
855.04	2090.36
855.22	2345.95
855.40	1850.54
855.57	1953.76
855.75	2267.72
855.93	2229.42
856.11	1837.23
856.29	1932.87
856.47	2029.74
856.65	2155.28
856.82	1846.45
857.00	1817.57
857.18	2107.56
857.36	2020.94
857.54	2035.27
857.72	2104.49
857.89	2228.39
858.07	2121.90
858.25	2107.56
858.43	1792.79
858.61	2057.59
858.79	2111.25
858.97	1848.09
859.14	1974.65
859.32	2085.45
859.50	2063.74
859.68	2059.85
859.86	1989.81
860.03	2266.49
860.21	2358.24
860.39	2064.35
860.57	2222.87
860.75	2293.93
860.93	2545.22
861.10	2262.39
861.28	2025.24
861.46	2344.51
861.64	2342.67
861.82	2080.12
861.99	2169.00
862.17	2382.20
862.35	2347.79
862.53	2030.56
862.71	2014.38
862.88	2218.15
863.06	2272.02
863.24	1949.87
863.42	1872.87
863.60	2081.56
863.77	2184.98
863.95	1808.15
864.13	1910.75
864.31	2035.07
864.49	2221.23
864.66	1834.98
864.84	1848.50
865.02	2149.55
865.20	2548.49
865.37	1964.41
865.55	1867.54
865.73	2018.27
865.91	2489.51
866.09	2415.99
866.26	2439.13
866.44	2780.94
866.62	2639.22
866.80	2344.11
866.97	2287.79
867.15	2415.78
867.33	2463.71
867.51	2318.30
867.68	2264.23
867.86	2255.63
868.04	2191.12
868.22	1888.43
868.39	2034.04
868.57	2236.18
868.75	2425.82
868.93	1883.52
869.10	1931.64
869.28	2494.63
869.46	2361.51
869.64	1971.17
869.81	1925.91
869.99	2178.83
870.17	2126.20
870.35	1845.02
870.52	1921.61
870.70	2267.10
870.88	1994.52
871.05	1855.05
871.23	1749.58
871.41	2068.86
871.59	2075.41
871.76	1902.77
871.94	1821.26
872.12	2111.87
872.29	1864.47
872.47	1877.37
872.65	1824.33
872.83	2133.78
873.00	2366.02
873.18	1926.73
873.36	1898.67
873.53	2260.34
873.71	1897.85
873.89	1833.14
874.06	1928.98
874.24	2142.79
874.42	2328.34
874.60	2049.81
874.77	1999.02
874.95	1970.56
875.13	2306.83
875.30	1929.60
875.48	1955.81
875.66	2449.17
875.83	2092.61
876.01	1996.56
876.19	2131.53
876.36	1972.60
876.54	2171.05
876.72	1899.70
876.89	2062.51
877.07	2255.22
877.25	1826.38
877.42	1949.67
877.60	1903.38
877.78	2407.59
877.95	2053.50
878.13	1815.93
878.31	2039.16
878.48	2249.69
878.66	2205.87
878.84	1887.20
879.01	1935.94
879.19	2177.40
879.37	2226.76
879.54	1917.92
879.72	1811.22
879.90	1813.48
880.07	2239.04
880.25	1705.75
880.42	2068.24
880.60	2117.19
880.78	2202.18
880.95	1889.05
881.13	1929.80
881.31	2074.18
881.48	1998.41
881.66	1849.32
881.83	1985.51
882.01	1963.80
882.19	1887.82
882.36	1907.27
882.54	1867.75
882.72	2199.72
882.89	2092.41
883.07	1804.67
883.24	1862.42
883.42	2242.12
883.60	2103.26
883.77	1825.76
883.95	1942.91
884.12	2371.55
884.30	2314.82
884.48	2241.09
884.65	2167.98
884.83	2361.92
885.00	2361.92
885.18	1938.61
885.36	2053.29
885.53	2288.40
885.71	2397.76
885.88	1856.69
886.06	1931.03
886.23	2237.82
886.41	2025.24
886.59	1895.40
886.76	1835.80
886.94	2214.06
887.11	2570.82
887.29	1937.79
887.47	1828.43
887.64	2306.01
887.82	2314.20
887.99	1747.94
888.17	1890.07
888.34	2025.65
888.52	1926.32
888.69	1833.34
888.87	1805.49
889.05	2004.14
889.22	2015.41
889.40	1862.22
889.57	2072.95
889.75	2315.84
889.92	2015.00
890.10	1782.76
890.27	1928.78
890.45	1977.31
890.62	1795.66
890.80	1816.55
890.98	1701.86
891.15	2324.24
891.33	2227.99
891.50	1822.69
891.68	1755.93
891.85	2190.10
892.03	2198.29
892.20	1797.09
892.38	1793.20
892.55	2195.63
892.73	2216.93
892.90	1732.99
893.08	1845.22
893.25	2002.71
893.43	1986.53
893.60	1939.43
893.78	1676.67
893.95	2137.06
894.13	2059.23
894.30	1820.23
894.48	1865.70
894.65	2196.45
894.83	2094.05
895.00	1710.67
895.18	1704.73
895.35	2235.56
895.53	2197.88
895.70	1815.52
895.88	2050.84
896.05	2218.56
896.23	1927.75
896.40	1915.26
896.58	1976.70
896.75	2234.95
896.93	2343.49
897.10	1899.08
897.28	1775.59
897.45	2109.82
897.63	2180.06
897.80	1964.21
897.98	1842.76
898.15	2169.62
898.33	2015.00
898.50	1920.59
898.67	1912.39
898.85	2050.43
899.02	2175.35
899.20	2123.74
899.37	1936.76
899.55	2097.94
899.72	2316.46
899.90	1883.93
900.07	1809.38
900.25	2152.62
900.42	2239.04
900.59	1831.50
900.77	1958.06
900.94	2171.67
901.12	2116.37
901.29	1876.76
901.47	2018.68
901.64	2178.63
901.82	2050.84
901.99	1669.09
902.16	1835.80
902.34	2251.33
902.51	2102.85
902.69	1837.64
902.86	1886.59
903.03	2691.65
903.21	2083.40
903.38	1877.58
903.56	1817.78
903.73	2245.60
903.91	2034.45
904.08	1804.67
904.25	1706.57
904.43	1949.67
904.60	2211.40
904.78	1862.63
904.95	1815.73
905.12	2052.47
905.30	2403.09
905.47	2006.80
905.65	2121.08
905.82	2158.76
905.99	2331.00
906.17	2014.38
906.34	2054.11
906.52	2183.13
906.69	2400.01
906.86	2180.68
907.04	2164.29
907.21	2447.32
907.38	2434.22
907.56	1971.78
907.73	1908.91
907.91	2408.62
908.08	2336.73
908.25	1932.67
908.43	1832.32
908.60	2226.35
908.77	2146.27
908.95	1965.44
909.12	1827.61
909.30	2227.37
909.47	1860.17
909.64	1934.10
909.82	2106.75
909.99	2033.02
910.16	2136.85
910.34	1848.29
910.51	1871.43
910.68	2133.57
910.86	2104.70
911.03	1909.53
911.20	2452.03
911.38	4254.04
911.55	6485.51
911.72	7335.41
911.90	8056.30
912.07	8899.04
912.24	8674.79
912.42	6701.98
912.59	4949.53
912.76	4846.93
912.94	4146.52
913.11	3583.54
913.28	3215.93
913.46	3132.37
913.63	3191.96
913.80	3183.57
913.98	2741.00
914.15	3035.50
914.32	3049.02
914.49	2660.11
914.67	2441.38
914.84	2738.34
915.01	2799.57
915.19	2505.48
915.36	2329.97
915.53	2634.71
915.71	2443.84
915.88	2147.50
916.05	1974.86
916.22	2313.80
916.40	2186.62
916.57	1799.55
916.74	2037.11
916.92	2363.15
917.09	1934.31
917.26	1865.09
917.43	1803.03
917.61	2044.49
917.78	1873.28
917.95	1846.45
918.13	1805.90
918.30	2478.45
918.47	2131.53
918.64	1906.45
918.82	1935.54
918.99	2269.76
919.16	2659.90
919.33	2206.48
919.51	2207.51
919.68	2343.29
919.85	2516.34
920.02	1922.43
920.20	2012.33
920.37	2462.48
920.54	2315.64
920.71	1870.00
920.89	1933.49
921.06	2450.19
921.23	2050.63
921.40	2045.51
921.58	2649.46
921.75	3731.19
921.92	3274.91
922.09	3395.94
922.27	3374.85
922.44	3357.85
922.61	3028.74
922.78	2428.48
922.96	2367.04
923.13	2434.42
923.30	2586.79
923.47	2058.41
923.64	2072.13
923.82	2367.25
923.99	2321.78
924.16	2166.75
924.33	1988.78
924.50	2262.39
924.68	2474.15
924.85	1970.15
925.02	1999.23
925.19	2347.18
925.36	2247.65
925.54	2040.19
925.71	2017.66
925.88	2733.42
926.05	2101.01
926.22	1856.69
926.40	1995.54
926.57	2149.96
926.74	2210.99
926.91	1845.02
927.08	2039.57
927.26	2253.99
927.43	2109.00
927.60	1834.57
927.77	1874.10
927.94	2377.28
928.11	2315.02
928.29	1770.26
928.46	1945.16
928.63	2021.75
928.80	2077.05
928.97	1997.79
929.14	1891.30
929.32	2497.91
929.49	2105.11
929.66	1841.12
929.83	1745.07
930.00	2006.19
930.17	2134.80
930.35	1796.27
930.52	1826.58
930.69	2343.49
930.86	1915.67
931.03	1896.83
931.20	1684.86
931.37	2291.68
931.55	2067.42
931.72	1935.74
931.89	1774.36
932.06	1887.82
932.23	2343.90
932.40	1964.00
932.57	1969.33
932.74	2323.83
932.92	2300.48
933.09	2040.80
933.26	1626.70
933.43	2011.92
933.60	2139.72
933.77	1916.28
933.94	1930.62
934.11	2038.55
934.29	2093.84
934.46	1818.80
934.63	1969.33
934.80	1937.38
934.97	2159.99
935.14	1987.14
935.31	1804.26
935.48	2025.85
935.65	2166.96
935.82	1951.51
936.00	1822.90
936.17	2355.78
936.34	2072.34
936.51	1972.19
936.68	1793.41
936.85	2142.79
937.02	2101.83
937.19	2000.87
937.36	1907.07
937.53	2160.20
937.70	2229.83
937.87	1867.95
938.05	1997.59
938.22	2121.49
938.39	1917.31
938.56	1891.91
938.73	1775.79
938.90	2025.03
939.07	1944.96
939.24	1955.81
939.41	1739.75
939.58	2165.11
939.75	2164.70
939.92	1847.06
940.09	2145.86
940.26	2046.13
940.43	2229.21
940.60	1910.35
940.77	1858.53
940.95	2142.79
941.12	2207.92
941.29	1884.54
941.46	1880.04
941.63	2283.89
941.80	2338.37
941.97	1737.09
942.14	1712.51
942.31	2186.21
942.48	2052.68
942.65	1974.24
942.82	1911.98
942.99	2149.75
943.16	2077.46
943.33	1781.53
943.50	1806.92
943.67	2199.11
943.84	2280.82
944.01	1845.42
944.18	1809.38
944.35	2302.94
944.52	1924.27
944.69	1917.31
944.86	1783.99
945.03	2214.26
945.20	2560.58
945.37	1761.25
945.54	1963.39
945.71	2351.27
945.88	2445.48
946.05	1874.51
946.22	1782.96
946.39	2317.89
946.56	2062.10
946.73	1727.87
946.90	1809.79
947.07	1997.79
947.24	2068.65
947.41	1742.21
947.58	1975.47
947.75	2190.71
947.92	2157.54
948.09	1652.92
948.26	1770.67
948.43	2110.43
948.60	2400.22
948.77	1794.84
948.94	1851.36
949.11	2187.64
949.27	2141.77
949.44	1817.78
949.61	1744.87
949.78	2125.59
949.95	2257.07
950.12	1739.95
950.29	1683.84
950.46	1983.66
950.63	2226.35
950.80	1796.27
950.97	1836.62
951.14	2259.93
951.31	2019.91
951.48	1765.55
951.65	1759.61
951.82	2405.34
951.99	2110.23
952.15	1747.12
952.32	1836.41
952.49	1971.58
952.66	1988.78
952.83	1792.38
953.00	1774.16
953.17	2060.87
953.34	2216.52
953.51	1866.93
953.68	1859.15
953.85	2253.38
954.02	2262.19
954.18	1880.04
954.35	1868.77
954.52	1934.51
954.69	2116.17
954.86	1719.88
955.03	1885.97
955.20	2168.18
955.37	2043.67
955.54	1825.15
955.71	1779.48
955.87	2137.67
956.04	2372.37
956.21	1807.95
956.38	1793.20
956.55	2064.76
956.72	2506.10
956.89	1916.90
957.06	1770.88
957.23	1949.46
957.39	2291.27
957.56	1845.22
957.73	1738.73
957.90	1728.49
958.07	2390.59
958.24	1874.30
958.41	1827.61
958.57	2174.74
958.74	2069.27
958.91	1732.58
959.08	1786.65
959.25	2177.40
959.42	2018.07
959.59	1856.69
959.75	1837.44
959.92	2244.37
960.09	2249.49
960.26	1791.97
960.43	1897.24
960.60	2138.28
960.76	2054.11
960.93	1710.67
961.10	1884.54
961.27	2242.73
961.44	2026.87
961.61	1756.13
961.77	1727.87
961.94	2088.72
962.11	2212.83
962.28	1820.64
962.45	1744.05
962.62	2036.91
962.78	2212.83
962.95	1714.56
963.12	1767.40
963.29	2178.22
963.46	2578.80
963.62	1894.17
963.79	1813.89
963.96	2500.37
964.13	2034.45
964.30	1910.35
964.46	1828.22
964.63	1927.96
964.80	2623.86
964.97	1842.97
965.14	2269.97
965.30	2537.84
965.47	2638.40
965.64	2421.93
965.81	2337.96
965.98	2652.53
966.14	2367.66
966.31	2026.26
966.48	2002.91
966.65	2456.33
966.81	2271.20
966.98	1993.90
967.15	1991.85
967.32	2207.30
967.49	2068.45
967.65	1811.84
967.82	1754.09
967.99	2131.94
968.16	1898.26
968.32	2077.87
968.49	1843.17
968.66	2124.36
968.83	2408.21
968.99	1991.24
969.16	1795.25
969.33	2361.10
969.50	2219.79
969.66	2014.79
969.83	2116.99
970.00	2235.97
970.17	2185.80
970.33	1841.12
970.50	1746.10
970.67	2323.83
970.84	2313.80
971.00	1776.61
971.17	1749.78
971.34	2174.74
971.50	2060.87
971.67	1907.48
971.84	1837.64
972.01	1887.82
972.17	1722.55
972.34	1726.85
972.51	1980.59
972.67	2285.33
972.84	2094.66
973.01	1774.56
973.18	1794.02
973.34	2222.25
973.51	1933.49
973.68	1841.94
973.84	1866.93
974.01	2002.09
974.18	2381.58
974.34	1882.49
974.51	1914.03
974.68	1959.29
974.85	2419.68
975.01	1933.28
975.18	1817.78
975.35	2047.35
975.51	1888.84
975.68	1709.64
975.85	1969.33
976.01	1961.13
976.18	2302.94
976.35	1831.29
976.51	1850.95
976.68	2357.62
976.85	2244.78
977.01	1854.03
977.18	1929.39
977.35	2185.80
977.51	1878.40
977.68	1691.83
977.85	1783.37
978.01	2306.01
978.18	2241.30
978.35	1962.16
978.51	1939.22
978.68	2309.08
978.85	2372.57
979.01	1904.41
979.18	1888.23
979.34	2076.44
979.51	2129.89
979.68	1807.54
979.84	1885.36
980.01	2519.41
980.18	2141.15
980.34	1783.37
980.51	1911.16
980.67	2242.32
980.84	2198.90
981.01	1828.84
981.17	1903.79
981.34	1801.80
981.51	2203.20
981.67	1755.93
981.84	1919.77
982.00	2168.59
982.17	2048.99
982.34	1684.66
982.50	1586.15
982.67	2355.78
982.83	1993.70
983.00	1724.39
983.17	1631.41
983.33	2235.15
983.50	1830.47
983.66	1714.97
983.83	1621.79
984.00	2012.54
984.16	2078.69
984.33	1634.28
984.49	1602.54
984.66	1923.66
984.83	2179.24
984.99	1647.80
985.16	1599.87
985.32	2164.50
985.49	2195.01
985.65	1755.72
985.82	1623.63
985.99	2320.96
986.15	2098.35
986.32	1726.64
986.48	1679.33
986.65	2009.88
986.81	2244.78
986.98	1621.38
987.14	1703.91
987.31	2078.07
987.48	1806.51
987.64	1551.95
987.81	1555.02
987.97	2413.12
988.14	1928.98
988.30	1621.17
988.47	1492.56
988.63	2104.49
988.80	1893.96
988.96	1705.75
989.13	1724.18
989.30	2011.92
989.46	2219.79
989.63	1597.42
989.79	1582.88
989.96	2027.28
990.12	2334.07
990.29	1649.43
990.45	1706.98
990.62	2063.53
990.78	2253.99
990.95	1734.42
991.11	1645.13
991.28	1978.34
991.44	2100.40
991.61	1534.75
991.77	1716.40
991.94	2082.58
992.10	2253.18
992.27	1716.81
992.43	1674.21
992.60	2156.31
992.76	2007.01
992.93	1831.29
993.09	1574.48
993.26	2224.50
993.42	2370.52
993.59	1645.34
993.75	1580.01
993.92	1941.06
994.08	1946.80
994.25	1693.67
994.41	1583.28
994.58	2162.65
994.74	2313.39
994.91	1610.11
995.07	1747.94
995.24	2042.85
995.40	2020.53
995.56	1781.12
995.73	1740.57
995.89	2355.98
996.06	2029.95
996.22	1609.70
996.39	1565.47
996.55	2048.99
996.72	2128.25
996.88	1571.61
997.05	1607.25
997.21	2445.89
997.37	2137.26
997.54	1738.32
997.70	1660.29
997.87	2107.56
998.03	2035.89
998.20	1561.17
998.36	1546.01
998.52	2179.04
998.69	2195.42
998.85	1575.09
999.02	1661.72
999.18	2240.89
999.35	2203.61
999.51	1705.55
999.67	1672.17
999.84	1888.23
1000.00	2191.74
1000.17	1733.40
1000.33	1634.48
1000.49	1968.71
1000.66	2034.45
1000.82	1627.52
1000.99	1728.49
1001.15	2268.74
1001.31	2006.60
1001.48	1649.02
1001.64	1748.76
1001.81	2005.78
1001.97	2414.35
1002.13	1671.55
1002.30	1650.66
1002.46	2286.76
1002.63	2021.55
1002.79	1743.23
1002.95	1625.68
1003.12	2249.69
1003.28	2147.91
1003.45	1626.09
1003.61	1597.83
1003.77	2096.10
1003.94	1834.57
1004.10	1657.22
1004.26	1760.64
1004.43	2179.86
1004.59	2372.57
1004.75	1639.19
1004.92	1631.62
1005.08	2003.53
1005.25	2129.68
1005.41	1659.26
1005.57	1748.97
1005.74	2317.69
1005.90	2043.26
1006.06	1825.56
1006.23	1690.39
1006.39	2161.02
1006.55	2556.48
1006.72	1814.71
1006.88	1600.90
1007.04	1908.50
1007.21	2036.91
1007.37	1692.03
1007.53	1652.51
1007.70	2343.08
1007.86	2227.37
1008.02	1741.80
1008.19	1635.92
1008.35	2127.23
1008.51	1930.82
1008.68	1656.81
1008.84	1609.29
1009.00	1907.89
1009.17	2225.94
1009.33	1851.36
1009.49	1749.17
1009.65	1951.30
1009.82	2138.69
1009.98	1719.27
1010.14	1565.67
1010.31	2190.92
1010.47	2168.39
1010.63	1723.98
1010.80	1702.07
1010.96	2129.89
1011.12	2023.39
1011.28	1669.30
1011.45	1593.93
1011.61	2530.67
1011.77	1891.50
1011.94	1622.81
1012.10	1596.39
1012.26	1892.94
1012.42	1965.64
1012.59	1717.43
1012.75	1680.97
1012.91	2025.85
1013.07	2213.24
1013.24	1622.81
1013.40	1623.83
1013.56	2094.25
1013.72	2049.61
1013.89	1710.87
1014.05	1732.99
1014.21	2404.72
1014.37	2497.29
1014.54	1691.21
1014.70	1621.17
1014.86	2024.42
1015.02	1883.72
1015.19	1671.76
1015.35	1594.75
1015.51	2030.77
1015.67	1966.87
1015.84	1639.19
1016.00	1665.20
1016.16	2244.98
1016.32	2201.16
1016.49	1644.31
1016.65	1607.45
1016.81	2035.27
1016.97	2164.91
1017.14	1745.89
1017.30	1666.84
1017.46	2006.39
1017.62	2124.77
1017.78	1721.93
1017.95	1632.23
1018.11	2189.89
1018.27	2503.85
1018.43	1821.87
1018.59	1713.95
1018.76	2209.55
1018.92	2502.41
1019.08	1613.80
1019.24	1657.42
1019.40	2282.05
1019.57	2107.97
1019.73	1762.89
1019.89	1670.12
1020.05	2100.60
1020.21	2396.74
1020.38	1599.46
1020.54	1791.97
1020.70	2162.86
1020.86	2151.80
1021.02	1653.12
1021.18	1650.46
1021.35	1988.17
1021.51	2119.44
1021.67	1827.40
1021.83	1680.15
1021.99	2072.95
1022.15	2097.53
1022.32	1724.80
1022.48	1701.04
1022.64	2288.61
1022.80	2319.53
1022.96	1744.66
1023.12	1592.71
1023.29	2231.06
1023.45	2135.62
1023.61	1642.68
1023.77	1871.02
1023.93	2101.63
1024.09	1923.66
1024.25	1631.82
1024.42	1574.48
1024.58	1990.63
1024.74	2094.66
1024.90	1678.11
1025.06	1741.18
1025.22	1963.18
1025.38	2351.27
1025.54	1588.40
1025.71	1768.63
1025.87	2146.89
1026.03	2158.56
1026.19	1613.59
1026.35	1823.72
1026.51	2154.67
1026.67	2047.97
1026.83	1718.25
1026.99	1802.62
1027.16	2139.10
1027.32	2033.02
1027.48	1676.88
1027.64	1630.80
1027.80	2157.94
1027.96	2086.47
1028.12	1677.70
1028.28	1645.13
1028.44	2114.73
1028.60	2325.06
1028.77	1792.59
1028.93	1725.21
1029.09	2003.53
1029.25	1899.49
1029.41	1710.26
1029.57	1761.66
1029.73	2136.44
1029.89	2320.96
1030.05	1764.53
1030.21	1740.36
1030.37	2478.04
1030.53	2174.94
1030.69	1718.66
1030.85	1608.88
1031.02	1914.44
1031.18	2082.37
1031.34	1665.82
1031.50	1756.34
1031.66	1933.49
1031.82	2322.60
1031.98	1716.20
1032.14	1604.17
1032.30	1903.59
1032.46	2194.81
1032.62	1797.30
1032.78	1580.83
1032.94	1957.45
1033.10	2008.65
1033.26	1724.80
1033.42	1821.67
1033.58	2465.55
1033.74	2008.44
1033.90	1668.68
1034.06	1838.67
1034.22	2479.27
1034.38	2234.74
1034.54	1695.72
1034.70	1717.02
1034.86	2400.83
>>>>>End Processed Spectral Data<<<<<
