SpectraSuite Data File
++++++++++++++++++++++++++++++++++++
Date: Thu Mar 30 14:30:58 PDT 2017
User: UCSD _CER
Dark Spectrum Present: No
Reference Spectrum Present: No
Number of Sampled Component Spectra: 1
Spectrometers: USB4C00073
Integration Time (usec): 380000 (USB4C00073)
Spectra Averaged: 10 (USB4C00073)
Boxcar Smoothing: 0 (USB4C00073)
Correct for Electrical Dark: No (USB4C00073)
Strobe/Lamp Enabled: No (USB4C00073)
Correct for Detector Non-linearity: No (USB4C00073)
Correct for Stray Light: No (USB4C00073)
Number of Pixels in Processed Spectrum: 3648
>>>>>Begin Processed Spectral Data<<<<<
345.37	1260.93
345.58	1260.93
345.80	1260.93
346.01	1243.12
346.22	1253.56
346.43	2050.63
346.65	1908.71
346.86	2489.10
347.07	2395.30
347.28	1856.07
347.50	1829.45
347.71	2127.63
347.92	1875.53
348.13	1826.79
348.35	1776.61
348.56	2168.39
348.77	1940.66
348.98	1854.03
349.20	1696.13
349.41	2129.89
349.62	2282.67
349.83	1947.62
350.05	1810.61
350.26	2208.12
350.47	2389.98
350.68	1859.76
350.90	1743.85
351.11	2426.64
351.32	2381.79
351.53	1858.33
351.75	1790.74
351.96	2202.80
352.17	2141.77
352.38	1904.41
352.60	1896.83
352.81	2159.17
353.02	2469.03
353.23	1807.13
353.44	1839.08
353.66	2069.68
353.87	2085.24
354.08	1906.45
354.29	1809.79
354.51	2016.63
354.72	2099.37
354.93	1810.40
355.14	1775.79
355.35	1878.40
355.57	2260.96
355.78	1844.61
355.99	1907.48
356.20	2120.06
356.42	2086.88
356.63	1921.20
356.84	1816.34
357.05	2274.27
357.26	2537.84
357.48	1968.30
357.69	1899.29
357.90	2189.07
358.11	2062.71
358.32	1839.08
358.54	1917.31
358.75	2066.61
358.96	2294.95
359.17	1858.53
359.38	1871.02
359.60	2273.25
359.81	2113.09
360.02	1840.10
360.23	1782.35
360.44	1979.57
360.66	2300.48
360.87	1830.68
361.08	1806.51
361.29	2223.89
361.50	2169.00
361.72	1844.81
361.93	1924.48
362.14	2147.09
362.35	1877.37
362.56	2010.49
362.77	1733.20
362.99	2225.53
363.20	2145.45
363.41	1905.84
363.62	1699.20
363.83	2244.78
364.05	2282.05
364.26	1785.83
364.47	1810.81
364.68	2352.71
364.89	2022.57
365.10	1755.11
365.32	1869.18
365.53	1997.79
365.74	2049.20
365.95	1842.35
366.16	1710.46
366.37	2107.97
366.59	2107.36
366.80	1846.45
367.01	1747.74
367.22	2512.04
367.43	2608.91
367.64	1906.45
367.86	1860.17
368.07	2233.92
368.28	2337.76
368.49	1756.95
368.70	1881.47
368.91	2105.11
369.12	2122.31
369.34	1786.65
369.55	1749.37
369.76	2104.90
369.97	2054.52
370.18	1748.76
370.39	1821.26
370.60	1902.77
370.82	1954.99
371.03	1855.46
371.24	1811.22
371.45	2266.90
371.66	2232.29
371.87	1832.52
372.08	1855.46
372.30	1993.29
372.51	2314.41
372.72	1986.94
372.93	1875.53
373.14	2449.78
373.35	2026.67
373.56	1771.49
373.78	1859.56
373.99	2288.61
374.20	2657.65
374.41	1824.54
374.62	1800.98
374.83	2430.53
375.04	2078.89
375.25	1901.54
375.47	1874.51
375.68	2069.88
375.89	2279.18
376.10	1894.58
376.31	1949.46
376.52	2211.40
376.73	2192.56
376.94	1909.12
377.15	1803.44
377.37	2164.50
377.58	2094.87
377.79	1733.40
378.00	1787.47
378.21	2178.01
378.42	2264.85
378.63	1914.85
378.84	1920.79
379.05	2339.19
379.27	2167.16
379.48	1945.16
379.69	1804.06
379.90	2346.97
380.11	1805.28
380.32	1851.16
380.53	1981.82
380.74	2379.53
380.95	2143.40
381.16	1913.01
381.37	1867.54
381.59	2395.51
381.80	2329.15
382.01	1837.64
382.22	1722.14
382.43	2234.54
382.64	2138.28
382.85	1754.90
383.06	1893.96
383.27	2252.56
383.48	2112.68
383.69	1876.14
383.91	1785.42
384.12	2249.69
384.33	2247.85
384.54	1921.20
384.75	1829.45
384.96	2740.59
385.17	2336.73
385.38	1848.50
385.59	1838.67
385.80	2279.18
386.01	2434.63
386.22	1960.11
386.43	1862.22
386.64	2566.51
386.86	2148.52
387.07	1957.24
387.28	1751.22
387.49	2026.06
387.70	2380.15
387.91	1984.89
388.12	1840.92
388.33	2219.59
388.54	2054.73
388.75	1794.02
388.96	1933.69
389.17	2051.86
389.38	2113.30
389.59	1906.45
389.80	1936.97
390.01	2130.50
390.22	2077.05
390.43	1950.08
390.64	1727.46
390.86	2218.97
391.07	2324.44
391.28	1825.97
391.49	1899.08
391.70	1917.31
391.91	2047.15
392.12	1871.84
392.33	1948.85
392.54	2224.30
392.75	2137.26
392.96	1964.41
393.17	1833.75
393.38	2561.80
393.59	2338.58
393.80	1757.36
394.01	1883.93
394.22	2095.48
394.43	2436.06
394.64	1748.35
394.85	1935.13
395.06	2102.85
395.27	2147.70
395.48	1865.90
395.69	1774.97
395.90	2070.29
396.11	2136.03
396.32	1863.65
396.53	1959.70
396.74	2098.76
396.95	2336.32
397.16	1816.14
397.37	1718.86
397.58	2302.74
397.79	2148.32
398.00	1889.46
398.21	1863.45
398.42	2197.88
398.63	2534.36
398.84	1820.64
399.05	1823.51
399.26	2360.28
399.47	2213.04
399.68	1719.47
399.89	1786.03
400.10	1960.52
400.31	2055.34
400.52	1918.95
400.73	1828.63
400.94	1907.68
401.15	2193.78
401.36	1878.40
401.57	1900.92
401.78	2369.09
401.99	2316.66
402.20	1821.67
402.41	1986.53
402.62	2389.57
402.83	2085.86
403.04	1828.63
403.25	2056.16
403.46	2236.79
403.67	2381.58
403.88	1824.74
404.09	1799.35
404.30	2005.58
404.51	1995.34
404.72	1797.91
404.93	1993.90
405.14	1995.95
405.35	2137.26
405.56	1891.30
405.77	1804.47
405.98	2176.17
406.19	2136.65
406.40	1792.79
406.61	1841.74
406.82	2046.54
407.03	2553.61
407.24	1794.23
407.45	1892.53
407.66	2214.67
407.87	2331.20
408.08	1955.20
408.29	1931.23
408.49	2276.32
408.70	2128.04
408.91	1837.23
409.12	1983.46
409.33	1972.60
409.54	2359.06
409.75	1816.14
409.96	1881.47
410.17	2289.42
410.38	2095.48
410.59	1807.33
410.80	1984.28
411.01	2124.56
411.22	2118.62
411.43	1931.64
411.64	1818.19
411.85	1992.67
412.06	1969.74
412.27	1689.37
412.47	1801.39
412.68	2147.09
412.89	2205.87
413.10	1854.44
413.31	1747.53
413.52	2463.91
413.73	2468.83
413.94	1825.76
414.15	1997.38
414.36	2044.28
414.57	1979.57
414.78	1768.42
414.99	1776.20
415.19	2207.92
415.40	2154.26
415.61	1932.67
415.82	1900.92
416.03	2227.99
416.24	2193.58
416.45	1873.69
416.66	1783.37
416.87	1897.65
417.08	2232.08
417.29	1787.06
417.50	1885.36
417.70	2238.43
417.91	2164.91
418.12	1896.83
418.33	1843.79
418.54	2198.29
418.75	2300.07
418.96	1954.17
419.17	1910.35
419.38	2359.87
419.59	2210.78
419.79	1926.11
420.00	1887.61
420.21	2612.18
420.42	2157.54
420.63	1832.73
420.84	1900.11
421.05	2159.79
421.26	2159.99
421.47	1786.44
421.67	2229.62
421.88	2005.78
422.09	1972.19
422.30	2066.81
422.51	1868.16
422.72	2491.97
422.93	2302.94
423.14	1920.18
423.35	1775.79
423.55	1877.78
423.76	1998.82
423.97	1860.78
424.18	1717.84
424.39	2086.68
424.60	2264.85
424.81	1878.19
425.02	1934.51
425.22	2083.19
425.43	2053.09
425.64	2043.87
425.85	1892.12
426.06	2506.71
426.27	2307.24
426.48	1978.95
426.68	1974.86
426.89	2319.53
427.10	2463.30
427.31	1902.56
427.52	1831.29
427.73	2222.66
427.94	2204.84
428.14	2028.10
428.35	1902.97
428.56	2406.98
428.77	2337.55
428.98	1933.08
429.19	1901.13
429.40	2063.53
429.60	2104.70
429.81	1981.61
430.02	1919.15
430.23	2103.67
430.44	2235.36
430.65	1819.21
430.85	1866.11
431.06	2231.47
431.27	1904.20
431.48	1875.73
431.69	1922.22
431.90	2117.60
432.10	2172.49
432.31	1968.30
432.52	1856.89
432.73	2592.32
432.94	2425.20
433.15	2052.27
433.35	1824.54
433.56	2360.69
433.77	2170.85
433.98	2131.94
434.19	2048.17
434.40	2345.95
434.60	2342.47
434.81	2201.57
435.02	2085.86
435.23	2256.04
435.44	2123.95
435.64	1837.44
435.85	1824.54
436.06	2099.58
436.27	2068.45
436.48	1805.90
436.68	1845.83
436.89	2509.99
437.10	2326.90
437.31	1989.60
437.52	2105.52
437.73	2257.27
437.93	2265.87
438.14	1986.73
438.35	1797.91
438.56	2100.40
438.77	2091.59
438.97	2051.86
439.18	1876.14
439.39	2326.90
439.60	1960.52
439.80	1858.12
440.01	1897.85
440.22	2062.10
440.43	2262.60
440.64	1809.18
440.84	1896.42
441.05	1935.13
441.26	2623.24
441.47	1978.54
441.68	1936.35
441.88	2262.39
442.09	2303.56
442.30	2278.57
442.51	2267.72
442.71	2344.31
442.92	2362.33
443.13	2024.42
443.34	1943.32
443.55	2046.33
443.75	2292.91
443.96	1894.58
444.17	1797.91
444.38	2322.81
444.58	1990.01
444.79	1974.86
445.00	1942.70
445.21	2141.15
445.41	2080.12
445.62	1678.92
445.83	1970.56
446.04	2158.15
446.24	1909.32
446.45	1713.33
446.66	1875.94
446.87	2198.70
447.07	2075.21
447.28	2083.81
447.49	1898.06
447.70	2285.74
447.90	2323.01
448.11	1951.71
448.32	1998.20
448.53	2401.86
448.73	2373.19
448.94	1877.78
449.15	2028.31
449.36	2161.43
449.56	2210.99
449.77	1908.50
449.98	1787.26
450.19	2057.18
450.39	2098.55
450.60	1955.40
450.81	1944.55
451.02	2104.29
451.22	2375.03
451.43	1846.65
451.64	1860.78
451.84	2059.64
452.05	2323.83
452.26	1891.09
452.47	1917.72
452.67	2047.15
452.88	2392.44
453.09	1793.00
453.30	1803.65
453.50	2295.16
453.71	2493.20
453.92	2016.23
454.12	2243.75
454.33	2228.19
454.54	2256.25
454.75	1941.88
454.95	1912.39
455.16	2215.49
455.37	2252.15
455.57	2014.18
455.78	1923.25
455.99	2123.13
456.19	2166.34
456.40	1844.40
456.61	1898.06
456.82	2179.65
457.02	2315.02
457.23	2080.33
457.44	2263.21
457.64	2217.54
457.85	2380.97
458.06	2055.34
458.26	2112.07
458.47	2179.86
458.68	2338.17
458.89	1883.11
459.09	2052.06
459.30	2508.97
459.51	2179.86
459.71	1777.64
459.92	1868.16
460.13	2300.89
460.33	2572.45
460.54	1966.05
460.75	1968.51
460.95	2021.14
461.16	2222.46
461.37	1933.49
461.57	1887.61
461.78	2149.96
461.99	1932.05
462.19	2144.02
462.40	1833.96
462.61	2553.61
462.81	2333.25
463.02	1858.53
463.23	1885.16
463.43	2253.99
463.64	2061.49
463.85	3198.93
464.05	1891.91
464.26	2687.96
464.47	2371.96
464.67	2058.21
464.88	2064.56
465.09	2138.08
465.29	2340.83
465.50	2192.35
465.71	2133.37
465.91	2195.22
466.12	2200.75
466.33	2028.72
466.53	1875.53
466.74	2417.83
466.94	2122.51
467.15	1963.18
467.36	2095.69
467.56	1971.78
467.77	2178.42
467.98	1936.76
468.18	1885.56
468.39	2068.65
468.60	2449.99
468.80	1900.92
469.01	1828.02
469.21	2208.73
469.42	2369.70
469.63	1918.13
469.83	1865.09
470.04	2249.28
470.25	2373.60
470.45	2026.06
470.66	1880.85
470.86	2204.84
471.07	2076.85
471.28	2024.83
471.48	1990.22
471.69	2213.85
471.90	2936.17
472.10	2150.57
472.31	2153.44
472.51	2297.62
472.72	2270.38
472.93	2036.50
473.13	2163.88
473.34	2337.14
473.54	2247.65
473.75	2034.86
473.96	2167.98
474.16	2162.25
474.37	2248.06
474.57	2029.54
474.78	1866.93
474.99	2214.67
475.19	2191.94
475.40	1921.40
475.60	1971.37
475.81	2618.12
476.02	2366.02
476.22	2258.09
476.43	2332.43
476.63	2267.31
476.84	2443.43
477.05	1857.51
477.25	1913.01
477.46	2723.80
477.66	2158.35
477.87	1887.41
478.08	1915.67
478.28	2317.89
478.49	2126.20
478.69	1932.46
478.90	1899.90
479.10	2243.75
479.31	2454.08
479.52	1992.88
479.72	2061.28
479.93	2296.80
480.13	2108.59
480.34	1976.09
480.54	2043.67
480.75	2054.93
480.96	2375.64
481.16	1889.46
481.37	2026.67
481.57	2318.51
481.78	2237.61
481.98	2126.41
482.19	2027.90
482.40	2461.86
482.60	2241.91
482.81	2008.65
483.01	1809.99
483.22	2296.59
483.42	2272.43
483.63	2008.24
483.83	1965.44
484.04	2103.88
484.24	2306.83
484.45	2113.30
484.66	1913.83
484.86	2261.98
485.07	2026.06
485.27	2001.89
485.48	1863.45
485.68	2364.38
485.89	2015.00
486.09	2042.85
486.30	1913.01
486.50	2168.39
486.71	2135.21
486.91	2020.12
487.12	2283.49
487.33	2928.60
487.53	3012.97
487.74	2671.78
487.94	2580.85
488.15	2555.66
488.35	2475.18
488.56	2115.14
488.76	2042.44
488.97	2229.21
489.17	2322.60
489.38	2065.58
489.58	1988.99
489.79	2276.93
489.99	2211.19
490.20	1951.92
490.40	2081.56
490.61	2234.54
490.81	2051.04
491.02	2006.80
491.22	1995.54
491.43	2275.29
491.63	2112.48
491.84	2068.45
492.04	1839.69
492.25	2242.73
492.45	2090.57
492.66	1910.96
492.86	1862.63
493.07	2099.99
493.27	2501.39
493.48	1828.84
493.68	1896.62
493.89	2097.12
494.09	2266.90
494.30	1958.47
494.50	2169.21
494.71	2239.45
494.91	1904.82
495.12	1923.25
495.32	1992.67
495.53	2156.72
495.73	2005.17
495.94	2185.18
496.14	2027.28
496.35	2717.86
496.55	2269.76
496.76	2021.96
496.96	2046.33
497.17	2140.33
497.37	2234.74
497.58	1952.94
497.78	1883.72
497.98	2097.73
498.19	2122.11
498.39	1949.67
498.60	1981.41
498.80	1864.68
499.01	2229.01
499.21	1825.97
499.42	1993.90
499.62	2096.30
499.83	2494.02
500.03	1831.50
500.24	2072.95
500.44	2376.67
500.64	2347.59
500.85	1932.87
501.05	2051.45
501.26	1889.25
501.46	2377.90
501.67	1915.87
501.87	1855.66
502.08	1969.94
502.28	2084.83
502.48	1996.77
502.69	2055.14
502.89	1883.31
503.10	1998.00
503.30	2034.04
503.51	1986.73
503.71	1897.24
503.92	2233.11
504.12	2001.68
504.32	1916.69
504.53	2236.79
504.73	2225.12
504.94	2075.00
505.14	2180.06
505.35	2277.34
505.55	2242.53
505.75	1961.34
505.96	2122.31
506.16	2498.32
506.37	2031.58
506.57	1906.25
506.78	2030.56
506.98	2329.56
507.18	1933.08
507.39	1860.78
507.59	1938.20
507.80	2006.39
508.00	2127.84
508.20	2149.75
508.41	1940.25
508.61	2366.43
508.82	2289.83
509.02	2111.25
509.22	1867.34
509.43	1982.23
509.63	2027.69
509.84	1968.51
510.04	1798.53
510.24	2397.76
510.45	2282.46
510.65	1862.42
510.86	1995.54
511.06	1935.74
511.26	2279.80
511.47	2120.88
511.67	1883.31
511.88	2207.30
512.08	2307.45
512.28	1833.55
512.49	2006.39
512.69	2128.04
512.90	2183.34
513.10	1879.63
513.30	2004.55
513.51	2216.52
513.71	2421.11
513.91	2023.39
514.12	2051.66
514.32	2304.58
514.53	2025.44
514.73	2040.60
514.93	1941.88
515.14	2122.51
515.34	2334.27
515.54	1910.14
515.75	2031.38
515.95	2216.31
516.15	2353.53
516.36	1955.81
516.56	1998.82
516.77	1749.37
516.97	2207.92
517.17	1956.83
517.38	2050.02
517.58	2369.70
517.78	2030.36
517.99	2025.44
518.19	1958.47
518.39	2316.46
518.60	2018.68
518.80	1840.51
519.00	1983.25
519.21	2100.81
519.41	2425.41
519.61	1878.40
519.82	2073.36
520.02	2136.24
520.22	2120.67
520.43	1894.58
520.63	2023.60
520.83	2014.38
521.04	1852.80
521.24	2028.10
521.44	1984.07
521.65	1982.64
521.85	2248.06
522.05	1916.49
522.26	1897.03
522.46	2454.90
522.66	2259.73
522.87	1965.64
523.07	2159.38
523.27	2041.01
523.48	2368.48
523.68	1965.64
523.88	2021.35
524.09	2324.85
524.29	2173.71
524.49	1821.26
524.70	2038.96
524.90	2374.21
525.10	2213.44
525.31	1857.71
525.51	1861.40
525.71	2264.03
525.91	2223.48
526.12	1931.03
526.32	1874.30
526.52	2047.56
526.73	2018.68
526.93	2030.77
527.13	1816.75
527.34	2082.37
527.54	2116.58
527.74	1958.27
527.94	1861.81
528.15	1965.85
528.35	2135.42
528.55	2061.89
528.76	1993.08
528.96	1871.02
529.16	2309.49
529.36	2088.93
529.57	1860.99
529.77	2367.45
529.97	1992.88
530.18	2049.61
530.38	1912.80
530.58	2206.07
530.78	2140.33
530.99	1942.29
531.19	2030.56
531.39	2009.26
531.60	2150.78
531.80	1986.32
532.00	2126.20
532.20	2164.70
532.41	1994.93
532.61	1935.33
532.81	1895.19
533.01	2049.40
533.22	2187.85
533.42	2099.99
533.62	1844.20
533.82	2372.16
534.03	2103.06
534.23	2062.71
534.43	1884.95
534.63	2010.08
534.84	2181.91
535.04	2060.26
535.24	1965.23
535.44	2603.58
535.65	2026.87
535.85	1926.32
536.05	1894.78
536.25	2124.97
536.46	2007.83
536.66	2090.36
536.86	1981.82
537.06	2234.74
537.27	2360.69
537.47	1993.70
537.67	1926.73
537.87	2385.88
538.08	2111.87
538.28	1875.12
538.48	1840.51
538.68	2098.14
538.88	2254.61
539.09	1797.91
539.29	1959.50
539.49	2302.12
539.69	2184.77
539.90	2061.49
540.10	1883.52
540.30	2360.90
540.50	2060.67
540.70	1827.61
540.91	1890.68
541.11	2273.65
541.31	2407.39
541.51	2013.77
541.72	2027.28
541.92	2188.46
542.12	2004.14
542.32	1993.70
542.52	1944.14
542.73	2002.91
542.93	2223.68
543.13	1930.82
543.33	2078.07
543.53	2264.44
543.74	2233.31
543.94	1910.55
544.14	2039.57
544.34	2294.13
544.54	2116.58
544.75	2043.26
544.95	2119.03
545.15	2225.53
545.35	2406.98
545.55	2102.04
545.75	1962.77
545.96	2520.64
546.16	2008.44
546.36	1973.83
546.56	1984.28
546.76	2317.48
546.97	2438.31
547.17	2000.25
547.37	2078.48
547.57	2046.94
547.77	2253.99
547.97	2054.11
548.18	2054.11
548.38	2105.11
548.58	2369.50
548.78	1916.90
548.98	1976.49
549.18	2271.61
549.39	2366.84
549.59	2040.60
549.79	2001.28
549.99	2385.47
550.19	2276.32
550.39	2127.43
550.60	1999.23
550.80	2167.16
551.00	2222.05
551.20	1946.39
551.40	1990.22
551.60	2211.40
551.80	2180.88
552.01	2048.38
552.21	1966.87
552.41	2163.06
552.61	2465.96
552.81	2068.04
553.01	1921.61
553.21	2235.97
553.42	1975.27
553.62	1976.29
553.82	1886.38
554.02	2386.09
554.22	2286.15
554.42	1865.90
554.62	2096.92
554.83	2395.51
555.03	2349.02
555.23	1978.95
555.43	2218.15
555.63	2166.55
555.83	2141.56
556.03	2052.88
556.23	1862.63
556.44	2155.08
556.64	2332.84
556.84	1745.69
557.04	1974.45
557.24	2167.98
557.44	2138.28
557.64	2040.60
557.84	1915.47
558.04	2072.75
558.25	2282.26
558.45	1902.77
558.65	1995.13
558.85	2148.73
559.05	1845.63
559.25	1976.70
559.45	2047.76
559.65	2482.96
559.85	2963.82
560.05	2013.15
560.26	2045.92
560.46	2083.40
560.66	2010.70
560.86	1929.80
561.06	1902.15
561.26	2362.33
561.46	2220.20
561.66	1982.64
561.86	2087.08
562.06	1980.80
562.26	2108.59
562.47	2019.91
562.67	1913.01
562.87	2236.38
563.07	1879.83
563.27	2005.78
563.47	1966.05
563.67	2056.37
563.87	2259.73
564.07	1873.89
564.27	1962.57
564.47	2131.73
564.67	2165.93
564.87	1944.75
565.08	2043.26
565.28	2029.33
565.48	2207.71
565.68	2023.80
565.88	2131.32
566.08	2442.41
566.28	2150.78
566.48	1889.66
566.68	2002.91
566.88	2113.50
567.08	2285.12
567.28	2016.43
567.48	1988.37
567.68	2212.63
567.88	1920.99
568.08	1975.06
568.28	2109.00
568.48	2105.52
568.68	2345.54
568.89	2023.80
569.09	1871.02
569.29	2280.82
569.49	2258.30
569.69	1907.27
569.89	1914.44
570.09	1837.85
570.29	2001.89
570.49	1852.59
570.69	1941.68
570.89	2271.40
571.09	2497.91
571.29	1875.94
571.49	2133.37
571.69	2210.99
571.89	2178.63
572.09	1981.82
572.29	2041.62
572.49	2275.91
572.69	2229.42
572.89	2022.37
573.09	1732.79
573.29	2088.11
573.49	2116.99
573.69	1959.70
573.89	2009.88
574.09	2035.07
574.29	2302.12
574.49	1963.39
574.69	1884.54
574.89	1932.46
575.09	1950.28
575.29	1846.24
575.49	1971.99
575.69	2162.04
575.89	1913.83
576.09	1983.46
576.29	2005.17
576.49	1944.75
576.69	2103.26
576.89	1932.26
577.09	1999.84
577.29	1863.04
577.49	2457.97
577.69	1931.64
577.89	2112.89
578.09	2113.09
578.29	1857.92
578.49	2017.66
578.69	1914.85
578.89	2281.23
579.09	2141.36
579.29	1875.94
579.49	2110.02
579.69	2073.16
579.89	2443.43
580.09	1767.81
580.29	1821.87
580.49	2035.89
580.69	1931.03
580.89	1926.11
581.09	1953.35
581.29	2052.88
581.49	2118.21
581.69	1894.99
581.89	1899.90
582.09	1990.01
582.28	1993.49
582.48	2034.04
582.68	2103.88
582.88	2379.74
583.08	2058.62
583.28	1996.36
583.48	1989.81
583.68	1970.56
583.88	2105.52
584.08	1999.02
584.28	2029.13
584.48	2487.26
584.68	2208.94
584.88	1937.79
585.08	2175.97
585.28	2260.96
585.48	2331.00
585.68	2037.93
585.87	2092.00
586.07	2198.90
586.27	2106.95
586.47	2020.12
586.67	1952.94
586.87	2107.36
587.07	2059.03
587.27	1872.05
587.47	2059.85
587.67	2401.65
587.87	2602.76
588.07	2017.04
588.27	1928.78
588.46	2225.53
588.66	2266.49
588.86	1960.52
589.06	2040.60
589.26	2281.44
589.46	2263.82
589.66	1920.79
589.86	1856.28
590.06	2028.10
590.26	2186.21
590.46	1943.93
590.66	2030.97
590.85	1973.22
591.05	2153.44
591.25	1904.82
591.45	1968.92
591.65	2179.65
591.85	2124.97
592.05	1906.66
592.25	2009.47
592.45	2291.27
592.64	2046.33
592.84	1983.87
593.04	1895.80
593.24	2574.09
593.44	2047.97
593.64	2010.49
593.84	2071.11
594.04	2043.87
594.24	2392.44
594.43	1966.46
594.63	1990.42
594.83	2318.92
595.03	2307.65
595.23	1886.38
595.43	1851.98
595.63	2007.21
595.83	2285.33
596.02	1767.81
596.22	1988.58
596.42	2184.98
596.62	2099.99
596.82	1944.14
597.02	2023.80
597.22	2353.53
597.41	2155.49
597.61	1932.46
597.81	2064.97
598.01	2242.12
598.21	2047.35
598.41	1881.67
598.61	1866.52
598.80	2116.37
599.00	2135.21
599.20	2113.91
599.40	2000.25
599.60	2071.93
599.80	2259.93
599.99	2107.97
600.19	1933.28
600.39	2126.41
600.59	2210.17
600.79	2053.70
600.99	1999.23
601.19	2386.50
601.38	2460.63
601.58	2028.10
601.78	1735.86
601.98	2197.27
602.18	2187.85
602.37	2217.75
602.57	2002.71
602.77	2251.74
602.97	2157.74
603.17	2161.22
603.37	2083.60
603.56	2276.32
603.76	2256.86
603.96	1995.13
604.16	2027.49
604.36	2383.84
604.56	2268.94
604.75	1915.26
604.95	2059.64
605.15	2348.61
605.35	2263.82
605.55	1923.45
605.74	1900.31
605.94	2298.44
606.14	2127.84
606.34	2004.55
606.54	2037.73
606.73	2043.05
606.93	2240.89
607.13	1950.08
607.33	2044.69
607.53	2377.90
607.72	2295.36
607.92	2059.64
608.12	2138.08
608.32	2078.28
608.51	2254.40
608.71	1900.92
608.91	2035.07
609.11	2223.07
609.31	2068.04
609.50	1974.04
609.70	2189.69
609.90	2268.33
610.10	2292.09
610.29	1956.42
610.49	1856.28
610.69	2241.30
610.89	2126.82
611.09	1976.70
611.28	2158.76
611.48	2317.48
611.68	2095.89
611.88	1955.61
612.07	1881.67
612.27	2268.94
612.47	1994.93
612.67	2003.73
612.86	2099.58
613.06	2137.87
613.26	1868.98
613.46	1905.84
613.65	2037.32
613.85	2609.73
614.05	2267.51
614.25	2085.86
614.44	1989.40
614.64	2110.02
614.84	2040.80
615.04	1910.75
615.23	1965.23
615.43	2201.16
615.63	2195.63
615.83	1905.23
616.02	1833.14
616.22	2252.77
616.42	1892.73
616.62	1852.18
616.81	1988.58
617.01	2166.14
617.21	2078.07
617.41	1872.05
617.60	1982.02
617.80	2185.80
618.00	2227.58
618.19	2094.05
618.39	1968.51
618.59	2232.70
618.79	2137.87
618.98	1839.69
619.18	1987.55
619.38	2528.01
619.57	2099.58
619.77	1982.84
619.97	1957.65
620.17	1993.29
620.36	1896.21
620.56	2136.03
620.76	1828.84
620.95	1916.08
621.15	2031.79
621.35	1880.44
621.54	1960.93
621.74	2116.58
621.94	1978.95
622.14	1856.48
622.33	1830.68
622.53	2103.47
622.73	2086.68
622.92	1846.04
623.12	1967.89
623.32	2483.57
623.51	2271.40
623.71	1882.70
623.91	2146.68
624.10	1956.22
624.30	2147.91
624.50	1855.87
624.69	1819.21
624.89	2818.21
625.09	2066.40
625.29	1767.40
625.48	1850.75
625.68	2160.20
625.88	2334.07
626.07	2041.01
626.27	1910.55
626.47	2025.85
626.66	1882.29
626.86	1978.75
627.06	2005.37
627.25	2147.70
627.45	2429.10
627.64	1970.15
627.84	2151.39
628.04	2000.25
628.23	2487.87
628.43	1852.59
628.63	1890.68
628.82	2008.03
629.02	2426.23
629.22	2020.32
629.41	2114.53
629.61	2132.35
629.81	2474.56
630.00	1906.45
630.20	1877.58
630.40	2143.81
630.59	2165.73
630.79	1975.88
630.98	1930.62
631.18	2067.22
631.38	2105.52
631.57	2075.62
631.77	1844.81
631.97	2132.75
632.16	2179.04
632.36	1983.46
632.56	2002.50
632.75	2175.56
632.95	2312.77
633.14	1877.99
633.34	2133.37
633.54	1828.63
633.73	2063.33
633.93	1949.05
634.12	1801.80
634.32	2619.76
634.52	2112.89
634.71	1823.72
634.91	2016.02
635.11	1913.21
635.30	2017.04
635.50	1964.41
635.69	1879.42
635.89	2447.53
636.09	2245.39
636.28	1879.63
636.48	1899.70
636.67	2208.53
636.87	2246.01
637.07	2046.33
637.26	1932.05
637.46	2140.33
637.65	2250.92
637.85	2010.90
638.04	1897.65
638.24	2024.62
638.44	2175.97
638.63	1989.19
638.83	1951.71
639.02	2170.03
639.22	2227.58
639.42	1969.33
639.61	1962.36
639.81	2132.14
640.00	2111.46
640.20	2102.44
640.39	1988.58
640.59	2438.31
640.79	2249.28
640.98	2025.44
641.18	1893.76
641.37	2033.63
641.57	2006.60
641.76	1993.90
641.96	1746.51
642.15	2141.56
642.35	2018.48
642.55	2008.85
642.74	1828.63
642.94	2233.92
643.13	2333.05
643.33	1927.34
643.52	1883.31
643.72	2059.23
643.91	2131.73
644.11	1834.57
644.31	1892.73
644.50	2000.05
644.70	2323.63
644.89	1982.84
645.09	2068.86
645.28	2144.84
645.48	2199.93
645.67	1891.09
645.87	1779.28
646.06	2088.72
646.26	2182.93
646.45	1735.65
646.65	1744.46
646.84	2459.61
647.04	2070.09
647.24	1837.44
647.43	1977.72
647.63	2143.40
647.82	2372.16
648.02	1875.73
648.21	1929.60
648.41	2354.55
648.60	2076.44
648.80	2081.15
648.99	1961.34
649.19	2016.63
649.38	1867.34
649.58	1968.30
649.77	2029.13
649.97	2339.60
650.16	2182.32
650.36	1745.89
650.55	2112.89
650.75	2168.18
650.94	2403.91
651.14	1968.92
651.33	2033.22
651.53	2398.17
651.72	1973.83
651.92	1937.38
652.11	1803.44
652.31	2204.02
652.50	2163.88
652.70	1980.18
652.89	1830.88
653.09	2390.59
653.28	2052.88
653.48	1768.83
653.67	1781.32
653.87	2625.91
654.06	2125.79
654.25	2184.36
654.45	1909.73
654.64	2066.40
654.84	2064.35
655.03	1747.33
655.23	2110.64
655.42	2295.16
655.62	2486.64
655.81	2137.26
656.01	1981.82
656.20	2324.24
656.40	2440.36
656.59	2066.81
656.79	2118.21
656.98	2191.33
657.17	2286.35
657.37	1965.44
657.56	1970.56
657.76	2192.15
657.95	2294.34
658.15	1636.53
658.34	1977.52
658.54	2121.29
658.73	1901.95
658.92	1950.08
659.12	1949.87
659.31	2211.81
659.51	1932.87
659.70	2008.24
659.90	1895.19
660.09	2279.80
660.29	2062.92
660.48	1842.56
660.67	2104.70
660.87	2030.77
661.06	2182.52
661.26	2040.39
661.45	2051.66
661.65	2193.58
661.84	2007.21
662.03	1900.52
662.23	1932.05
662.42	2482.34
662.62	1953.97
662.81	1868.57
663.00	1936.35
663.20	2179.04
663.39	2207.30
663.59	2102.04
663.78	1909.94
663.97	2083.19
664.17	2283.08
664.36	1867.95
664.56	1914.03
664.75	2267.31
664.94	2218.77
665.14	2013.36
665.33	1956.63
665.53	2103.26
665.72	2086.47
665.91	2056.16
666.11	2010.70
666.30	2140.13
666.50	2078.07
666.69	1980.80
666.88	1891.71
667.08	2148.52
667.27	2046.94
667.47	1958.06
667.66	1931.23
667.85	2240.27
668.05	2118.83
668.24	1875.94
668.43	2162.25
668.63	2036.30
668.82	2294.75
669.02	2042.23
669.21	1918.54
669.40	1908.71
669.60	2457.36
669.79	1810.81
669.98	2581.67
670.18	1953.76
670.37	1931.85
670.56	1959.50
670.76	2027.90
670.95	2096.92
671.15	2251.54
671.34	1983.25
671.53	1968.10
671.73	2021.55
671.92	1987.55
672.11	1878.19
672.31	1911.98
672.50	2182.52
672.69	1914.03
672.89	1732.58
673.08	1948.44
673.27	2229.21
673.47	2188.66
673.66	1989.81
673.85	1847.47
674.05	2116.37
674.24	2099.99
674.43	1835.39
674.63	2014.79
674.82	2493.81
675.01	1755.52
675.21	2049.20
675.40	1915.06
675.59	2015.00
675.79	2333.05
675.98	1920.99
676.17	2113.30
676.37	2162.25
676.56	2005.17
676.75	1927.14
676.95	1969.53
677.14	2063.94
677.33	2297.00
677.52	1848.50
677.72	1919.15
677.91	2169.41
678.10	1859.76
678.30	1861.60
678.49	1850.13
678.68	2496.47
678.88	1797.09
679.07	2128.86
679.26	1917.10
679.45	2405.75
679.65	2357.21
679.84	1778.05
680.03	1778.25
680.23	2049.40
680.42	2564.26
680.61	1868.77
680.81	1917.51
681.00	2132.96
681.19	2173.71
681.38	2090.36
681.58	2036.91
681.77	2029.33
681.96	2261.57
682.15	1839.90
682.35	1986.94
682.54	2160.20
682.73	1908.30
682.93	1871.43
683.12	1837.03
683.31	2249.08
683.50	2598.26
683.70	1875.32
683.89	1980.80
684.08	1929.19
684.27	2291.06
684.47	1801.19
684.66	1927.75
684.85	2471.69
685.04	2342.88
685.24	1857.10
685.43	1910.35
685.62	1834.16
685.81	2169.21
686.01	2028.72
686.20	1842.15
686.39	1849.11
686.58	2440.56
686.78	1965.64
686.97	1942.29
687.16	2245.19
687.35	2138.90
687.55	1920.99
687.74	1975.68
687.93	1898.06
688.12	2067.22
688.32	1981.20
688.51	1778.46
688.70	2148.93
688.89	1902.15
689.08	1814.09
689.28	1877.17
689.47	2102.44
689.66	2110.64
689.85	2021.14
690.05	1885.56
690.24	1968.71
690.43	2163.88
690.62	1985.10
690.81	1870.82
691.01	2101.22
691.20	2057.18
691.39	1805.49
691.58	1988.99
691.77	2402.88
691.97	2129.27
692.16	2016.43
692.35	1938.40
692.54	2018.48
692.73	2192.56
692.93	1965.85
693.12	1981.82
693.31	2156.10
693.50	2132.14
693.69	2035.27
693.89	1901.13
694.08	2319.94
694.27	2309.90
694.46	1900.52
694.65	1946.18
694.85	2206.07
695.04	2165.32
695.23	1873.69
695.42	2083.40
695.61	2181.70
695.80	2306.22
696.00	2248.67
696.19	2268.74
696.38	2079.30
696.57	2264.44
696.76	2108.59
696.95	2008.85
697.15	2388.96
697.34	2402.27
697.53	1936.56
697.72	2025.24
697.91	2022.37
698.10	2360.08
698.30	1939.84
698.49	1931.85
698.68	2191.74
698.87	2068.04
699.06	1887.20
699.25	1970.15
699.45	2308.88
699.64	2086.88
699.83	2107.97
700.02	1904.82
700.21	2176.17
700.40	2017.66
700.59	1919.15
700.79	1952.12
700.98	2179.86
701.17	1991.65
701.36	1849.73
701.55	1919.77
701.74	2279.39
701.93	1886.18
702.12	1916.69
702.32	1823.31
702.51	2243.55
702.70	2167.37
702.89	1953.35
703.08	1897.44
703.27	2285.53
703.46	2149.75
703.65	1857.10
703.85	1821.67
704.04	1969.74
704.23	2270.99
704.42	1853.00
704.61	1865.90
704.80	2369.30
704.99	1999.02
705.18	2007.62
705.37	1925.91
705.57	2157.74
705.76	2327.31
705.95	1960.73
706.14	2284.51
706.33	2470.06
706.52	2692.46
706.71	2160.81
706.90	2022.78
707.09	2258.09
707.28	2204.43
707.47	1865.90
707.67	2075.41
707.86	1989.60
708.05	2276.73
708.24	1930.01
708.43	1986.32
708.62	2053.29
708.81	1960.32
709.00	1872.87
709.19	1883.52
709.38	2258.50
709.57	1897.24
709.76	1921.81
709.96	1870.00
710.15	2313.18
710.34	2095.69
710.53	2047.56
710.72	1919.15
710.91	2303.76
711.10	2192.35
711.29	2012.95
711.48	1894.58
711.67	1901.33
711.86	2152.42
712.05	1780.91
712.24	1823.10
712.43	2209.96
712.62	2346.56
712.81	1951.71
713.00	2115.76
713.19	1916.90
713.39	2185.59
713.58	1817.16
713.77	2003.94
713.96	2194.19
714.15	2029.74
714.34	1913.62
714.53	1779.07
714.72	2419.68
714.91	1908.09
715.10	2000.46
715.29	1843.58
715.48	2607.68
715.67	2190.71
715.86	1958.68
716.05	1906.04
716.24	2038.34
716.43	2000.87
716.62	1829.04
716.81	1820.03
717.00	2043.67
717.19	2356.39
717.38	1895.60
717.57	1934.31
717.76	1890.28
717.95	2292.91
718.14	1956.83
718.33	1996.36
718.52	1827.61
718.71	1879.63
718.90	1843.58
719.09	1881.06
719.28	2125.38
719.47	2266.69
719.66	2022.57
719.85	2017.66
720.04	2017.86
720.23	2086.06
720.42	1867.34
720.61	2000.66
720.80	1871.64
720.99	2121.70
721.18	1891.91
721.37	1836.41
721.56	2030.36
721.75	2243.14
721.94	1843.17
722.13	1903.79
722.32	2043.46
722.51	2261.78
722.70	1974.65
722.89	2013.56
723.08	2069.06
723.27	2262.19
723.46	2004.76
723.65	1956.63
723.84	2007.01
724.03	2320.14
724.22	1791.97
724.41	1952.94
724.60	2072.54
724.79	2251.54
724.98	1989.19
725.16	1919.56
725.35	2229.21
725.54	1890.07
725.73	1958.47
725.92	1972.19
726.11	2049.20
726.30	2220.82
726.49	1848.29
726.68	1898.67
726.87	2128.45
727.06	2286.15
727.25	1920.59
727.44	2004.35
727.63	2080.12
727.82	2004.14
728.01	1973.42
728.20	2016.84
728.38	2341.44
728.57	2018.27
728.76	1902.77
728.95	2073.77
729.14	1881.06
729.33	1945.16
729.52	1682.00
729.71	1852.18
729.90	1937.58
730.09	1991.24
730.28	1871.23
730.47	1858.12
730.66	2261.16
730.84	2110.23
731.03	1917.31
731.22	1933.90
731.41	2112.27
731.60	2145.86
731.79	1753.06
731.98	1820.85
732.17	2184.16
732.36	2151.39
732.55	1884.34
732.73	1784.19
732.92	2284.92
733.11	2167.37
733.30	1881.67
733.49	1800.78
733.68	2187.44
733.87	2144.43
734.06	1778.46
734.25	1828.02
734.43	1982.43
734.62	2091.18
734.81	1880.44
735.00	1848.29
735.19	1996.77
735.38	2154.87
735.57	1779.68
735.76	2008.44
735.94	2156.51
736.13	2453.06
736.32	2001.07
736.51	1910.14
736.70	2387.73
736.89	2410.66
737.08	2082.58
737.27	2233.92
737.45	2500.57
737.64	2344.72
737.83	2309.49
738.02	2291.47
738.21	2508.97
738.40	2551.77
738.59	2068.24
738.77	2119.85
738.96	2047.35
739.15	2166.96
739.34	2107.36
739.53	2031.79
739.72	2334.07
739.90	2251.54
740.09	1887.61
740.28	1973.63
740.47	2218.36
740.66	2190.71
740.85	1831.70
741.03	1930.62
741.22	1925.30
741.41	2042.03
741.60	1775.79
741.79	2012.13
741.98	2278.77
742.16	2411.69
742.35	1946.18
742.54	1960.73
742.73	2425.20
742.92	1990.63
743.10	1760.02
743.29	1868.36
743.48	2497.70
743.67	1964.82
743.86	1765.96
744.05	1830.68
744.23	1890.07
744.42	1930.82
744.61	1956.83
744.80	1784.60
744.99	1969.33
745.17	1781.53
745.36	1756.75
745.55	2013.36
745.74	2058.21
745.93	1941.88
746.11	1819.01
746.30	1790.13
746.49	2226.35
746.68	1911.16
746.86	1903.38
747.05	1865.09
747.24	2166.55
747.43	2189.89
747.62	1810.20
747.80	1834.98
747.99	2273.04
748.18	2197.47
748.37	1934.72
748.56	2001.89
748.74	2241.09
748.93	2125.18
749.12	2126.82
749.31	2425.41
749.49	2711.31
749.68	2960.54
749.87	3042.46
750.06	2833.98
750.24	2981.02
750.43	2937.61
750.62	2737.72
750.81	2860.40
750.99	3095.10
751.18	3075.23
751.37	2637.99
751.56	2672.80
751.74	3104.11
751.93	3174.35
752.12	2245.60
752.31	2181.91
752.49	2291.47
752.68	2559.35
752.87	2088.52
753.06	2043.87
753.24	2114.94
753.43	2373.80
753.62	1906.45
753.81	1922.43
753.99	2395.30
754.18	2179.86
754.37	1892.94
754.55	1935.74
754.74	2385.27
754.93	1807.54
755.12	1853.21
755.30	1826.38
755.49	2256.66
755.68	2088.11
755.86	2006.60
756.05	1790.33
756.24	2339.19
756.43	1884.13
756.61	1865.29
756.80	1950.08
756.99	2294.34
757.17	2043.87
757.36	1854.23
757.55	1918.13
757.74	2172.69
757.92	2090.98
758.11	1804.06
758.30	1759.41
758.48	2040.80
758.67	1869.18
758.86	1935.74
759.04	1819.21
759.23	2000.46
759.42	2062.71
759.60	1859.76
759.79	1906.66
759.98	2019.50
760.16	1942.70
760.35	1867.95
760.54	1795.86
760.73	2094.66
760.91	1827.81
761.10	1877.58
761.29	1993.90
761.47	2070.70
761.66	2462.07
761.85	1966.46
762.03	2096.10
762.22	2307.86
762.41	2641.88
762.59	2841.56
762.78	3010.92
762.97	3672.21
763.15	3639.85
763.34	3321.19
763.52	2865.72
763.71	3027.51
763.90	3067.24
764.08	2613.00
764.27	2623.65
764.46	2911.19
764.64	2501.39
764.83	2393.67
765.02	2275.70
765.20	2400.01
765.39	2423.36
765.58	1947.21
765.76	2002.91
765.95	2201.77
766.13	2137.26
766.32	1903.38
766.51	1882.49
766.69	2866.34
766.88	2176.79
767.07	1807.74
767.25	1700.43
767.44	2250.10
767.62	2301.10
767.81	1810.61
768.00	1910.96
768.18	2051.86
768.37	1993.49
768.56	1718.66
768.74	1851.36
768.93	1834.98
769.11	2137.46
769.30	1958.88
769.49	1862.63
769.67	2033.63
769.86	1994.72
770.04	1897.24
770.23	1858.74
770.42	2290.24
770.60	2111.05
770.79	1833.14
770.97	1882.49
771.16	2276.11
771.35	2142.58
771.53	2053.09
771.72	2116.78
771.90	2358.85
772.09	2649.87
772.27	2394.08
772.46	2125.18
772.65	2506.10
772.83	2372.57
773.02	2209.76
773.20	2017.66
773.39	2317.89
773.58	2337.96
773.76	1911.98
773.95	1935.74
774.13	2193.78
774.32	2085.86
774.50	1871.84
774.69	1969.12
774.87	2039.98
775.06	2480.70
775.25	1895.19
775.43	1917.92
775.62	2150.98
775.80	2214.47
775.99	1974.24
776.17	1891.50
776.36	2096.51
776.54	2287.99
776.73	1884.75
776.92	1991.65
777.10	2268.33
777.29	2161.43
777.47	1904.82
777.66	1902.56
777.84	2125.18
778.03	2085.24
778.21	1874.30
778.40	1990.42
778.58	2189.48
778.77	2276.11
778.95	1838.87
779.14	1888.84
779.32	2426.02
779.51	2261.98
779.70	1872.25
779.88	1774.77
780.07	2039.57
780.25	2543.58
780.44	1948.23
780.62	2002.09
780.81	2190.10
780.99	2157.74
781.18	1880.44
781.36	1856.89
781.55	2077.05
781.73	2355.16
781.92	1802.62
782.10	1815.93
782.29	2161.63
782.47	2355.57
782.66	1874.71
782.84	1774.16
783.03	1976.90
783.21	2292.91
783.40	1859.56
783.58	1897.85
783.77	1985.92
783.95	2064.97
784.14	1854.44
784.32	1922.22
784.51	2261.78
784.69	1951.92
784.88	1793.41
785.06	1911.78
785.24	1848.70
785.43	2236.59
785.61	1975.88
785.80	1869.59
785.98	2159.79
786.17	2077.05
786.35	1797.50
786.54	2012.54
786.72	2220.20
786.91	2250.92
787.09	1893.14
787.28	1781.12
787.46	2087.90
787.65	2202.59
787.83	1744.66
788.01	1883.93
788.20	1866.31
788.38	2031.99
788.57	1848.70
788.75	1858.12
788.94	2381.17
789.12	2313.59
789.31	1955.20
789.49	2011.92
789.67	1986.53
789.86	2133.57
790.04	1839.90
790.23	1752.86
790.41	2442.41
790.60	2004.35
790.78	1848.09
790.96	1884.95
791.15	2208.53
791.33	2043.46
791.52	1893.35
791.70	1781.12
791.89	2090.36
792.07	2190.51
792.25	1936.35
792.44	1765.35
792.62	2263.21
792.81	1983.87
792.99	1917.92
793.17	1872.87
793.36	1930.82
793.54	2379.33
793.73	2093.23
793.91	1975.06
794.10	2409.03
794.28	2522.89
794.46	2190.10
794.65	2230.65
794.83	2156.31
795.01	2258.30
795.20	2193.37
795.38	2114.32
795.57	2286.76
795.75	2250.10
795.93	1996.97
796.12	1995.54
796.30	2255.63
796.49	2235.15
796.67	1872.46
796.85	2027.49
797.04	2148.11
797.22	2206.89
797.40	1829.25
797.59	1941.88
797.77	2130.71
797.96	1922.22
798.14	1816.34
798.32	1873.48
798.51	2201.16
798.69	2433.81
798.87	1904.82
799.06	1883.31
799.24	1826.38
799.42	2207.10
799.61	1999.43
799.79	1978.34
799.98	2509.58
800.16	2123.54
800.34	2174.33
800.53	2306.63
800.71	2412.10
800.89	2884.15
801.08	2544.60
801.26	2580.03
801.44	2507.94
801.63	2304.78
801.81	2242.53
801.99	2129.68
802.18	2242.73
802.36	2293.32
802.54	2149.96
802.73	1965.64
802.91	2199.52
803.09	2235.56
803.28	2087.70
803.46	2070.09
803.64	2420.70
803.83	1953.15
804.01	1889.87
804.19	1781.94
804.38	2221.23
804.56	2155.49
804.74	1919.97
804.92	1925.71
805.11	1882.29
805.29	2265.87
805.47	1871.84
805.66	1781.32
805.84	1850.95
806.02	2201.36
806.21	1842.35
806.39	2101.42
806.57	2267.31
806.76	2222.05
806.94	1923.86
807.12	1848.91
807.30	1947.00
807.49	2084.01
807.67	1926.52
807.85	2017.04
808.04	2195.22
808.22	2469.85
808.40	1812.25
808.58	1727.46
808.77	2148.32
808.95	2311.95
809.13	1904.61
809.31	2242.12
809.50	2477.02
809.68	2598.87
809.86	2289.22
810.05	2410.46
810.23	2959.11
810.41	3023.01
810.59	4099.83
810.78	4756.20
810.96	5405.82
811.14	5766.06
811.32	5198.77
811.51	4540.35
811.69	4210.83
811.87	4291.93
812.05	3721.36
812.24	3545.65
812.42	3723.82
812.60	3609.34
812.78	2971.60
812.97	2777.05
813.15	3166.98
813.33	2849.75
813.51	2631.44
813.70	2264.85
813.88	2275.50
814.06	2332.02
814.24	2102.44
814.42	1890.89
814.61	2211.81
814.79	2453.47
814.97	1806.10
815.15	1879.01
815.34	2124.97
815.52	2256.45
815.70	1817.98
815.88	1899.49
816.06	1919.15
816.25	2004.35
816.43	1891.09
816.61	2003.12
816.79	2323.42
816.98	1812.66
817.16	1817.37
817.34	1807.74
817.52	2116.99
817.70	2345.33
817.89	1924.48
818.07	1808.56
818.25	2048.38
818.43	2075.21
818.61	1889.05
818.80	1881.26
818.98	2388.75
819.16	2109.20
819.34	1804.47
819.52	2149.96
819.70	1936.76
819.89	2081.97
820.07	1795.04
820.25	1747.12
820.43	2136.65
820.61	2230.03
820.80	1920.59
820.98	1808.56
821.16	1829.25
821.34	1867.13
821.52	1901.33
821.70	2009.47
821.89	2086.68
822.07	2045.92
822.25	1961.54
822.43	1856.07
822.61	2344.11
822.79	2140.33
822.98	1909.12
823.16	1754.29
823.34	2131.32
823.52	2294.34
823.70	1995.54
823.88	1746.71
824.06	2204.64
824.25	2080.94
824.43	2037.52
824.61	1825.35
824.79	2071.73
824.97	2125.79
825.15	2013.15
825.33	2132.14
825.52	2327.11
825.70	2166.34
825.88	2032.81
826.06	2079.71
826.24	2249.49
826.42	2329.97
826.60	2066.81
826.78	2103.06
826.97	2121.49
827.15	2340.21
827.33	1941.88
827.51	1985.51
827.69	2002.71
827.87	2136.03
828.05	2014.59
828.23	1863.86
828.41	2253.38
828.60	2240.07
828.78	1788.29
828.96	2030.36
829.14	1998.82
829.32	2060.67
829.50	1905.63
829.68	1902.56
829.86	2016.23
830.04	2170.03
830.22	2001.89
830.41	1810.61
830.59	2057.18
830.77	2167.77
830.95	1855.87
831.13	1879.42
831.31	1942.09
831.49	2241.91
831.67	2048.79
831.85	2036.30
832.03	2041.21
832.21	2209.55
832.39	1790.95
832.57	1823.10
832.76	2212.01
832.94	2039.78
833.12	1749.99
833.30	1882.90
833.48	2284.30
833.66	2177.40
833.84	1881.26
834.02	1922.84
834.20	2217.54
834.38	2217.75
834.56	1765.96
834.74	1819.62
834.92	1883.52
835.10	2403.70
835.28	1928.57
835.46	1944.34
835.64	2075.41
835.82	1966.87
836.01	2177.20
836.19	2113.50
836.37	1992.88
836.55	1917.10
836.73	1843.58
836.91	1835.80
837.09	2170.03
837.27	2320.96
837.45	1757.36
837.63	1788.49
837.81	1878.19
837.99	2068.65
838.17	1995.13
838.35	1822.49
838.53	2450.60
838.71	2190.51
838.89	1853.41
839.07	1808.56
839.25	2068.65
839.43	2200.54
839.61	1884.54
839.79	2187.03
839.97	2373.60
840.15	2482.96
840.33	2261.98
840.51	2485.82
840.69	2380.15
840.87	2341.44
841.05	2242.32
841.23	2171.26
841.41	2401.45
841.59	2811.04
841.77	2644.54
841.95	2736.29
842.13	3206.30
842.31	2901.56
842.49	2554.64
842.67	2547.47
842.85	2763.73
843.03	2379.13
843.21	2255.22
843.39	2442.82
843.57	2459.20
843.75	2445.48
843.93	2118.62
844.11	2161.63
844.29	2277.34
844.47	2183.75
844.65	2183.13
844.83	2020.53
845.01	2081.76
845.19	2312.36
845.36	1996.97
845.54	2028.10
845.72	2133.57
845.90	2225.32
846.08	1881.06
846.26	1984.07
846.44	2165.11
846.62	2167.57
846.80	2004.96
846.98	1863.45
847.16	2042.85
847.34	2115.14
847.52	1833.34
847.70	1783.58
847.88	2058.00
848.06	2327.72
848.24	2037.52
848.41	1802.21
848.59	2268.13
848.77	2124.77
848.95	1912.80
849.13	1886.79
849.31	2211.19
849.49	2139.72
849.67	1898.88
849.85	1831.91
850.03	2166.14
850.21	2136.24
850.39	1826.17
850.57	2037.93
850.74	2326.29
850.92	2312.57
851.10	2068.24
851.28	1964.82
851.46	2270.79
851.64	2636.35
851.82	2061.08
852.00	2122.31
852.18	2490.94
852.36	2341.65
852.53	2035.07
852.71	2100.40
852.89	2249.49
853.07	2257.27
853.25	1935.33
853.43	1839.08
853.61	2145.86
853.79	2195.01
853.97	1855.05
854.14	1904.82
854.32	2324.85
854.50	2222.66
854.68	1934.92
854.86	1882.70
855.04	1960.11
855.22	2219.18
855.40	1779.07
855.57	1869.80
855.75	2228.80
855.93	2185.39
856.11	1774.16
856.29	1884.13
856.47	1999.84
856.65	2139.31
856.82	1803.03
857.00	1795.86
857.18	2067.63
857.36	2017.86
857.54	1974.04
857.72	2039.37
857.89	2214.88
858.07	2131.53
858.25	2118.21
858.43	1824.54
858.61	2059.44
858.79	2073.98
858.97	1820.23
859.14	1994.11
859.32	2066.20
859.50	2043.05
859.68	1946.80
859.86	1846.04
860.03	2095.48
860.21	2177.40
860.39	1845.22
860.57	2030.56
860.75	2177.61
860.93	2417.42
861.10	2093.84
861.28	1841.94
861.46	2139.92
861.64	2169.21
861.82	1890.68
861.99	1980.39
862.17	2247.85
862.35	2270.58
862.53	1905.63
862.71	1908.09
862.88	2126.61
863.06	2216.11
863.24	1895.60
863.42	1844.61
863.60	2062.30
863.77	2181.29
863.95	1746.71
864.13	1887.00
864.31	2015.61
864.49	2214.67
864.66	1815.73
864.84	1866.11
865.02	2159.99
865.20	2556.68
865.37	1979.36
865.55	1836.00
865.73	1863.65
865.91	2221.84
866.09	2031.99
866.26	1914.65
866.44	2195.63
866.62	2023.60
866.80	1817.98
866.97	1889.66
867.15	2004.76
867.33	2107.16
867.51	1967.89
867.68	1913.42
867.86	2012.13
868.04	1989.40
868.22	1684.45
868.39	1893.35
868.57	2154.87
868.75	2351.68
868.93	1782.35
869.10	1844.81
869.28	2398.38
869.46	2326.49
869.64	1879.83
869.81	1861.40
869.99	2122.92
870.17	2093.23
870.35	1834.16
870.52	1868.16
870.70	2252.97
870.88	1981.41
871.05	1797.30
871.23	1715.38
871.41	2094.05
871.59	2077.87
871.76	1865.90
871.94	1833.96
872.12	2092.82
872.29	1868.98
872.47	1849.93
872.65	1795.45
872.83	2112.68
873.00	2353.94
873.18	1898.06
873.36	1838.67
873.53	2218.36
873.71	1865.90
873.89	1794.84
874.06	1884.54
874.24	2154.87
874.42	2304.99
874.60	2045.92
874.77	1994.72
874.95	1962.57
875.13	2269.56
875.30	1860.17
875.48	1831.29
875.66	2346.36
875.83	1943.93
876.01	1840.71
876.19	1950.28
876.36	1883.31
876.54	2107.77
876.72	1815.11
876.89	1954.17
877.07	2228.80
877.25	1834.98
877.42	1923.86
877.60	1882.90
877.78	2412.30
877.95	2025.65
878.13	1811.43
878.31	2003.53
878.48	2248.67
878.66	2216.72
878.84	1835.39
879.01	1864.06
879.19	2184.77
879.37	2195.83
879.54	1905.02
879.72	1770.26
879.90	1782.35
880.07	2242.12
880.25	1634.69
880.42	2059.03
880.60	2109.00
880.78	2215.49
880.95	1864.27
881.13	1945.37
881.31	2098.14
881.48	1982.43
881.66	1844.81
881.83	1998.00
882.01	1964.21
882.19	1862.42
882.36	1926.11
882.54	1864.47
882.72	2204.02
882.89	2120.06
883.07	1866.93
883.24	1859.35
883.42	2217.13
883.60	2087.08
883.77	1791.97
883.95	1892.73
884.12	2225.94
884.30	2132.35
884.48	2001.28
884.65	1899.70
884.83	2126.61
885.00	2137.67
885.18	1777.02
885.36	1880.04
885.53	2162.65
885.71	2299.87
885.88	1795.04
886.06	1857.10
886.23	2183.34
886.41	2002.50
886.59	1861.60
886.76	1817.37
886.94	2195.01
887.11	2594.37
887.29	1893.35
887.47	1812.86
887.64	2277.55
887.82	2313.59
887.99	1731.35
888.17	1918.54
888.34	2029.54
888.52	1916.49
888.69	1874.30
888.87	1789.31
889.05	2029.54
889.22	2043.26
889.40	1855.66
889.57	2085.24
889.75	2390.18
889.92	2040.19
890.10	1807.74
890.27	1918.33
890.45	1987.96
890.62	1800.78
890.80	1812.66
890.98	1691.42
891.15	2377.08
891.33	2272.43
891.50	1814.50
891.68	1758.39
891.85	2213.24
892.03	2213.85
892.20	1821.26
892.38	1822.28
892.55	2218.36
892.73	2214.26
892.90	1769.65
893.08	1858.33
893.25	1976.90
893.43	2008.85
893.60	1964.41
893.78	1685.07
893.95	2159.79
894.13	2051.66
894.30	1832.73
894.48	1894.58
894.65	2234.54
894.83	2129.07
895.00	1720.70
895.18	1725.41
895.35	2237.41
895.53	2193.99
895.70	1768.42
895.88	1959.50
896.05	2181.91
896.23	1870.82
896.40	1860.99
896.58	1918.95
896.75	2213.24
896.93	2311.13
897.10	1882.90
897.28	1770.88
897.45	2106.34
897.63	2187.23
897.80	1956.01
897.98	1836.62
898.15	2115.96
898.33	2006.19
898.50	1886.79
898.67	1859.56
898.85	2016.63
899.02	2184.77
899.20	2111.25
899.37	1870.82
899.55	2094.25
899.72	2307.65
899.90	1845.83
900.07	1839.69
900.25	2129.48
900.42	2298.84
900.59	1832.11
900.77	1968.51
900.94	2180.68
901.12	2124.15
901.29	1864.47
901.47	1987.55
901.64	2200.34
901.82	2082.78
901.99	1659.67
902.16	1815.32
902.34	2265.87
902.51	2129.07
902.69	1853.62
902.86	1895.19
903.03	2715.20
903.21	2073.77
903.38	1861.81
903.56	1829.45
903.73	2266.90
903.91	2038.34
904.08	1782.96
904.25	1698.99
904.43	1967.48
904.60	2208.94
904.78	1854.03
904.95	1779.48
905.12	2030.36
905.30	2393.87
905.47	1940.66
905.65	2037.32
905.82	2069.68
905.99	2163.27
906.17	1886.59
906.34	1833.96
906.52	1914.65
906.69	2175.15
906.86	1951.51
907.04	1928.37
907.21	2197.06
907.38	2264.03
907.56	1812.86
907.73	1785.62
907.91	2344.31
908.08	2248.06
908.25	1879.83
908.43	1745.89
908.60	2172.08
908.77	2141.77
908.95	1886.79
909.12	1789.52
909.30	2193.17
909.47	1858.53
909.64	1920.99
909.82	2048.79
909.99	2039.78
910.16	2115.35
910.34	1845.22
910.51	1825.97
910.68	2109.20
910.86	2107.16
911.03	1734.42
911.20	1810.20
911.38	2267.72
911.55	2530.47
911.72	2391.00
911.90	2326.08
912.07	2649.46
912.24	2850.16
912.42	2287.38
912.59	2095.28
912.76	2454.08
912.94	2275.70
913.11	1974.04
913.28	1914.44
913.46	1933.08
913.63	2179.04
913.80	2194.60
913.98	1832.11
914.15	2275.50
914.32	2299.25
914.49	1960.11
914.67	1759.82
914.84	2115.55
915.01	2171.26
915.19	1939.22
915.36	1847.47
915.53	2240.27
915.71	2146.89
915.88	1954.79
916.05	1834.16
916.22	2280.00
916.40	2143.40
916.57	1767.19
916.74	2021.96
916.92	2355.78
917.09	1925.09
917.26	1802.21
917.43	1768.01
917.61	2007.21
917.78	1823.72
917.95	1788.49
918.13	1779.89
918.30	2458.79
918.47	2086.88
918.64	1787.06
918.82	1755.11
918.99	2037.11
919.16	2345.95
919.33	1865.29
919.51	1871.02
919.68	2026.06
919.85	2275.70
920.02	1758.18
920.20	1880.24
920.37	2382.61
920.54	2219.79
920.71	1820.64
920.89	1853.62
921.06	2395.30
921.23	1924.07
921.40	1761.87
921.58	1913.01
921.75	2630.41
921.92	1995.34
922.09	1937.79
922.27	1887.82
922.44	2074.80
922.61	2164.09
922.78	1837.64
922.96	1854.85
923.13	2039.57
923.30	2234.95
923.47	1735.86
923.64	1804.06
923.82	2168.80
923.99	2121.90
924.16	1947.00
924.33	1759.21
924.50	2080.12
924.68	2336.94
924.85	1801.60
925.02	1862.22
925.19	2203.82
925.36	2103.67
925.54	1884.54
925.71	1903.38
925.88	2618.74
926.05	2027.90
926.22	1800.78
926.40	1924.07
926.57	2161.43
926.74	2217.34
926.91	1835.59
927.08	2028.31
927.26	2277.14
927.43	2123.33
927.60	1831.09
927.77	1901.95
927.94	2392.23
928.11	2291.27
928.29	1734.22
928.46	1899.49
928.63	1961.34
928.80	2020.73
928.97	1922.02
929.14	1806.92
929.32	2459.61
929.49	2086.47
929.66	1806.10
929.83	1766.17
930.00	2040.19
930.17	2176.99
930.35	1758.80
930.52	1832.32
930.69	2359.67
930.86	1914.85
931.03	1892.94
931.20	1676.47
931.37	2279.59
931.55	2094.25
931.72	1917.51
931.89	1759.00
932.06	1925.09
932.23	2360.69
932.40	1939.22
932.57	1978.75
932.74	2292.50
932.92	2307.45
933.09	2015.00
933.26	1600.28
933.43	2005.78
933.60	2157.33
933.77	1882.08
933.94	1950.49
934.11	2089.75
934.29	2134.19
934.46	1789.52
934.63	1934.51
934.80	1868.57
934.97	2047.15
935.14	1876.35
935.31	1703.30
935.48	1929.39
935.65	2121.90
935.82	1883.31
936.00	1766.99
936.17	2355.98
936.34	2068.24
936.51	1930.01
936.68	1748.35
936.85	2160.81
937.02	2134.39
937.19	1944.14
937.36	1848.70
937.53	2175.35
937.70	2248.46
937.87	1847.06
938.05	1965.64
938.22	2105.31
938.39	1919.36
938.56	1870.61
938.73	1769.85
938.90	2038.55
939.07	1971.99
939.24	1939.63
939.41	1710.67
939.58	2133.37
939.75	2162.65
939.92	1831.70
940.09	2112.89
940.26	2039.98
940.43	2229.01
940.60	1876.96
940.77	1856.48
940.95	2137.06
941.12	2214.67
941.29	1870.82
941.46	1883.93
941.63	2290.45
941.80	2366.22
941.97	1750.81
942.14	1703.71
942.31	2192.35
942.48	2076.03
942.65	1965.44
942.82	1883.72
942.99	2175.56
943.16	2084.01
943.33	1764.53
943.50	1836.00
943.67	2244.37
943.84	2266.28
944.01	1843.38
944.18	1808.97
944.35	2344.51
944.52	1950.49
944.69	1923.86
944.86	1792.59
945.03	2196.65
945.20	2488.08
945.37	1688.76
945.54	1869.80
945.71	2286.97
945.88	2354.55
946.05	1805.08
946.22	1771.49
946.39	2331.82
946.56	2090.77
946.73	1731.76
946.90	1795.04
947.07	1991.24
947.24	2050.84
947.41	1717.84
947.58	1962.98
947.75	2201.36
947.92	2114.53
948.09	1646.57
948.26	1711.69
948.43	2108.18
948.60	2395.51
948.77	1788.29
948.94	1861.19
949.11	2227.78
949.27	2135.83
949.44	1810.20
949.61	1756.75
949.78	2156.51
949.95	2275.50
950.12	1758.80
950.29	1730.33
950.46	2007.83
950.63	2256.04
950.80	1804.06
950.97	1840.10
951.14	2292.50
951.31	2076.44
951.48	1783.37
951.65	1744.25
951.82	2423.98
951.99	2119.85
952.15	1763.71
952.32	1825.56
952.49	1966.87
952.66	1993.08
952.83	1816.96
953.00	1786.85
953.17	2097.73
953.34	2222.87
953.51	1882.29
953.68	1890.48
953.85	2275.91
954.02	2293.93
954.18	1897.03
954.35	1863.86
954.52	1954.17
954.69	2108.79
954.86	1727.05
955.03	1902.56
955.20	2231.88
955.37	2055.55
955.54	1843.58
955.71	1758.80
955.87	2142.18
956.04	2386.29
956.21	1809.79
956.38	1794.23
956.55	2129.68
956.72	2531.70
956.89	1883.93
957.06	1780.71
957.23	1971.78
957.39	2313.18
957.56	1855.46
957.73	1756.34
957.90	1742.82
958.07	2416.81
958.24	1878.19
958.41	1874.51
958.57	2215.08
958.74	2112.48
958.91	1759.61
959.08	1777.84
959.25	2216.93
959.42	2026.26
959.59	1891.91
959.75	1859.76
959.92	2309.90
960.09	2262.39
960.26	1789.72
960.43	1891.50
960.60	2152.01
960.76	2050.63
960.93	1715.38
961.10	1875.32
961.27	2271.20
961.44	2054.11
961.61	1743.23
961.77	1746.51
961.94	2108.59
962.11	2257.68
962.28	1814.50
962.45	1744.66
962.62	2054.32
962.78	2255.84
962.95	1709.44
963.12	1798.73
963.29	2180.06
963.46	2580.65
963.62	1917.31
963.79	1839.08
963.96	2534.36
964.13	2048.58
964.30	1913.21
964.46	1845.83
964.63	1943.93
964.80	2567.74
964.97	1636.74
965.14	1958.06
965.30	2129.27
965.47	2224.30
965.64	1981.82
965.81	1924.07
965.98	2289.42
966.14	2143.20
966.31	1806.10
966.48	1775.18
966.65	2295.57
966.81	2137.46
966.98	1819.21
967.15	1802.01
967.32	2074.80
967.49	1936.15
967.65	1674.62
967.82	1655.99
967.99	2039.16
968.16	1812.66
968.32	1975.47
968.49	1822.08
968.66	2042.64
968.83	2352.91
968.99	1930.42
969.16	1747.94
969.33	2283.08
969.50	2172.49
969.66	1955.40
969.83	2107.16
970.00	2225.53
970.17	2181.91
970.33	1858.53
970.50	1746.71
970.67	2341.44
970.84	2341.65
971.00	1762.07
971.17	1702.27
971.34	2239.25
971.50	2086.88
971.67	1935.74
971.84	1886.18
972.01	1894.99
972.17	1724.39
972.34	1742.00
972.51	2011.51
972.67	2291.68
972.84	2163.27
973.01	1799.35
973.18	1814.50
973.34	2271.81
973.51	1918.74
973.68	1867.95
973.84	1863.24
974.01	2035.07
974.18	2388.55
974.34	1911.57
974.51	1940.66
974.68	1995.54
974.85	2441.59
975.01	1951.92
975.18	1813.07
975.35	2119.65
975.51	1941.88
975.68	1716.20
975.85	1974.24
976.01	1999.23
976.18	2341.24
976.35	1852.80
976.51	1867.95
976.68	2376.87
976.85	2310.11
977.01	1887.82
977.18	1906.86
977.35	2185.39
977.51	1901.54
977.68	1683.64
977.85	1771.49
978.01	2244.16
978.18	2197.47
978.35	1876.76
978.51	1890.28
978.68	2245.19
978.85	2343.49
979.01	1869.18
979.18	1866.93
979.34	2097.53
979.51	2109.00
979.68	1788.29
979.84	1894.58
980.01	2520.64
980.18	2125.59
980.34	1797.09
980.51	1915.47
980.67	2199.72
980.84	2241.91
981.01	1848.09
981.17	1866.11
981.34	1794.64
981.51	2206.69
981.67	1777.02
981.84	1908.71
982.00	2205.25
982.17	2088.52
982.34	1680.36
982.50	1559.94
982.67	2366.63
982.83	2005.58
983.00	1740.98
983.17	1630.59
983.33	2288.81
983.50	1838.46
983.66	1729.10
983.83	1639.60
984.00	2027.49
984.16	2082.17
984.33	1603.76
984.49	1594.96
984.66	1940.86
984.83	2243.75
984.99	1649.64
985.16	1608.27
985.32	2225.32
985.49	2204.43
985.65	1777.43
985.82	1621.79
985.99	2357.83
986.15	2113.09
986.32	1783.37
986.48	1688.55
986.65	2023.60
986.81	2231.26
986.98	1600.08
987.14	1691.83
987.31	2108.38
987.48	1849.11
987.64	1575.09
987.81	1605.40
987.97	2452.65
988.14	1918.54
988.30	1635.92
988.47	1486.21
988.63	2159.79
988.80	1910.55
988.96	1690.39
989.13	1756.54
989.30	2030.97
989.46	2229.21
989.63	1573.45
989.79	1597.01
989.96	2061.28
990.12	2361.72
990.29	1648.82
990.45	1723.98
990.62	2092.41
990.78	2288.81
990.95	1773.34
991.11	1672.17
991.28	1996.77
991.44	2157.94
991.61	1538.84
991.77	1743.03
991.94	2134.60
992.10	2268.33
992.27	1712.31
992.43	1706.37
992.60	2195.01
992.76	2044.69
992.93	1860.37
993.09	1600.90
993.26	2281.44
993.42	2403.29
993.59	1634.48
993.75	1578.78
993.92	1956.83
994.08	1958.88
994.25	1713.74
994.41	1626.50
994.58	2214.67
994.74	2355.98
994.91	1613.80
995.07	1745.48
995.24	2035.48
995.40	2080.74
995.56	1845.02
995.73	1753.68
995.89	2375.64
996.06	2070.29
996.22	1641.04
996.39	1571.41
996.55	2062.30
996.72	2178.83
996.88	1588.61
997.05	1617.90
997.21	2445.27
997.37	2216.11
997.54	1754.70
997.70	1680.15
997.87	2142.99
998.03	2102.65
998.20	1570.38
998.36	1573.04
998.52	2222.66
998.69	2256.25
998.85	1595.98
999.02	1680.77
999.18	2232.70
999.35	2243.55
999.51	1722.96
999.67	1710.46
999.84	1904.82
1000.00	2213.04
1000.17	1765.35
1000.33	1623.83
1000.49	1999.84
1000.66	2086.06
1000.82	1645.34
1000.99	1703.09
1001.15	2312.98
1001.31	2042.44
1001.48	1677.29
1001.64	1741.80
1001.81	2037.32
1001.97	2486.23
1002.13	1660.90
1002.30	1697.36
1002.46	2291.27
1002.63	2011.11
1002.79	1754.49
1002.95	1635.51
1003.12	2260.75
1003.28	2158.35
1003.45	1654.35
1003.61	1606.84
1003.77	2122.11
1003.94	1854.85
1004.10	1657.42
1004.26	1745.28
1004.43	2198.90
1004.59	2385.88
1004.75	1682.61
1004.92	1614.00
1005.08	1992.06
1005.25	2135.21
1005.41	1667.25
1005.57	1729.51
1005.74	2295.16
1005.90	2001.68
1006.06	1819.83
1006.23	1668.89
1006.39	2217.95
1006.55	2570.61
1006.72	1780.91
1006.88	1598.64
1007.04	1933.49
1007.21	2037.11
1007.37	1701.45
1007.53	1628.75
1007.70	2342.47
1007.86	2245.39
1008.02	1747.12
1008.19	1599.46
1008.35	2134.19
1008.51	1944.14
1008.68	1666.84
1008.84	1620.35
1009.00	1941.68
1009.17	2264.03
1009.33	1828.63
1009.49	1778.66
1009.65	1928.57
1009.82	2161.43
1009.98	1728.90
1010.14	1557.48
1010.31	2207.10
1010.47	2195.22
1010.63	1745.07
1010.80	1720.29
1010.96	2177.81
1011.12	2055.34
1011.28	1700.22
1011.45	1645.13
1011.61	2559.76
1011.77	1935.54
1011.94	1645.13
1012.10	1623.63
1012.26	1904.20
1012.42	1978.13
1012.59	1717.43
1012.75	1703.91
1012.91	2054.52
1013.07	2242.73
1013.24	1621.99
1013.40	1649.23
1013.56	2123.95
1013.72	2045.92
1013.89	1730.53
1014.05	1792.38
1014.21	2404.32
1014.37	2531.49
1014.54	1743.23
1014.70	1613.80
1014.86	2050.84
1015.02	1914.65
1015.19	1680.15
1015.35	1612.16
1015.51	2076.64
1015.67	2029.13
1015.84	1658.24
1016.00	1672.37
1016.16	2274.27
1016.32	2222.87
1016.49	1681.59
1016.65	1610.52
1016.81	2070.91
1016.97	2170.64
1017.14	1772.31
1017.30	1689.57
1017.46	2009.26
1017.62	2166.14
1017.78	1732.38
1017.95	1648.61
1018.11	2226.35
1018.27	2475.99
1018.43	1835.18
1018.59	1746.51
1018.76	2242.32
1018.92	2542.35
1019.08	1657.22
1019.24	1703.30
1019.40	2321.37
1019.57	2137.46
1019.73	1765.55
1019.89	1688.96
1020.05	2134.19
1020.21	2451.01
1020.38	1650.25
1020.54	1824.33
1020.70	2202.80
1020.86	2190.30
1021.02	1638.17
1021.18	1657.42
1021.35	2021.14
1021.51	2186.21
1021.67	1845.22
1021.83	1718.86
1021.99	2086.68
1022.15	2112.68
1022.32	1738.11
1022.48	1704.93
1022.64	2323.42
1022.80	2384.86
1022.96	1744.05
1023.12	1613.80
1023.29	2275.91
1023.45	2182.52
1023.61	1641.86
1023.77	1915.47
1023.93	2120.47
1024.09	1957.86
1024.25	1675.44
1024.42	1609.09
1024.58	2011.31
1024.74	2127.63
1024.90	1671.96
1025.06	1735.45
1025.22	2020.12
1025.38	2390.59
1025.54	1631.00
1025.71	1786.03
1025.87	2178.83
1026.03	2198.70
1026.19	1634.48
1026.35	1871.64
1026.51	2194.60
1026.67	2091.39
1026.83	1717.22
1026.99	1833.34
1027.16	2175.35
1027.32	2318.30
1027.48	1685.07
1027.64	1636.12
1027.80	2216.31
1027.96	2141.56
1028.12	1678.31
1028.28	1646.77
1028.44	2135.42
1028.60	2368.89
1028.77	1815.32
1028.93	1727.05
1029.09	2001.48
1029.25	1914.03
1029.41	1730.33
1029.57	1763.71
1029.73	2129.07
1029.89	2365.20
1030.05	1793.61
1030.21	1762.89
1030.37	2515.72
1030.53	2212.01
1030.69	1720.09
1030.85	1637.56
1031.02	1950.28
1031.18	2095.89
1031.34	1694.08
1031.50	1801.19
1031.66	1962.36
1031.82	2322.19
1031.98	1709.44
1032.14	1602.54
1032.30	1947.62
1032.46	2191.53
1032.62	1816.75
1032.78	1596.60
1032.94	1984.48
1033.10	2026.87
1033.26	1745.89
1033.42	1818.39
1033.58	2501.18
1033.74	2001.68
1033.90	1660.70
1034.06	1854.44
1034.22	2475.99
1034.38	2259.32
1034.54	1713.54
1034.70	1734.22
1034.86	2437.90
>>>>>End Processed Spectral Data<<<<<
