SpectraSuite Data File
++++++++++++++++++++++++++++++++++++
Date: Thu Mar 30 16:11:45 PDT 2017
User: UCSD _CER
Dark Spectrum Present: No
Reference Spectrum Present: No
Number of Sampled Component Spectra: 1
Spectrometers: USB4C00073
Integration Time (usec): 250000 (USB4C00073)
Spectra Averaged: 10 (USB4C00073)
Boxcar Smoothing: 0 (USB4C00073)
Correct for Electrical Dark: No (USB4C00073)
Strobe/Lamp Enabled: No (USB4C00073)
Correct for Detector Non-linearity: No (USB4C00073)
Correct for Stray Light: No (USB4C00073)
Number of Pixels in Processed Spectrum: 3648
>>>>>Begin Processed Spectral Data<<<<<
345.37	1256.63
345.58	1256.63
345.80	1256.63
346.01	1280.59
346.22	1279.98
346.43	1970.56
346.65	1763.30
346.86	2142.79
347.07	2073.57
347.28	1811.84
347.50	1806.31
347.71	1926.11
347.92	1713.13
348.13	1789.11
348.35	1704.73
348.56	1936.15
348.77	1772.11
348.98	1792.38
349.20	1657.22
349.41	1910.14
349.62	1986.53
349.83	1867.54
350.05	1720.91
350.26	1974.86
350.47	2060.26
350.68	1757.16
350.90	1735.24
351.11	2102.44
351.32	2041.82
351.53	1819.42
351.75	1713.95
351.96	1957.86
352.17	1878.40
352.38	1851.57
352.60	1822.28
352.81	1927.34
353.02	2118.21
353.23	1766.17
353.44	1794.02
353.66	1845.02
353.87	1890.07
354.08	1879.01
354.29	1790.54
354.51	1810.61
354.72	1839.28
354.93	1753.27
355.14	1678.11
355.35	1689.78
355.57	2006.80
355.78	1778.87
355.99	1851.98
356.20	1888.84
356.42	1864.88
356.63	1876.35
356.84	1807.33
357.05	2010.49
357.26	2176.99
357.48	1877.78
357.69	1825.35
357.90	1934.72
358.11	1859.56
358.32	1790.33
358.54	1832.32
358.75	1851.77
358.96	1976.90
359.17	1789.31
359.38	1811.63
359.60	1969.12
359.81	1884.95
360.02	1816.75
360.23	1759.21
360.44	1800.98
360.66	2010.90
360.87	1763.71
361.08	1727.87
361.29	1951.51
361.50	1900.11
361.72	1782.35
361.93	1831.91
362.14	1899.29
362.35	1738.32
362.56	1883.11
362.77	1714.56
362.99	1948.23
363.20	1899.29
363.41	1837.85
363.62	1679.33
363.83	1944.75
364.05	2023.19
364.26	1682.61
364.47	1768.63
364.68	2048.17
364.89	1823.72
365.10	1716.20
365.32	1796.27
365.53	1780.30
365.74	1828.22
365.95	1782.76
366.16	1702.27
366.37	1877.99
366.59	1874.71
366.80	1799.75
367.01	1651.69
367.22	2149.75
367.43	2258.50
367.64	1802.62
367.86	1798.12
368.07	1983.05
368.28	2047.56
368.49	1744.25
368.70	1832.32
368.91	1868.77
369.12	1882.90
369.34	1706.16
369.55	1705.75
369.76	1901.54
369.97	1834.16
370.18	1740.16
370.39	1752.86
370.60	1762.28
370.82	1762.89
371.03	1789.31
371.24	1768.22
371.45	1965.85
371.66	1963.80
371.87	1784.60
372.08	1748.97
372.30	1750.81
372.51	1991.65
372.72	1871.23
372.93	1742.82
373.14	2102.65
373.35	1808.77
373.56	1723.78
373.78	1826.38
373.99	2011.51
374.20	2252.15
374.41	1813.27
374.62	1803.85
374.83	2083.19
375.04	1847.68
375.25	1824.13
375.47	1747.53
375.68	1865.49
375.89	1984.89
376.10	1816.14
376.31	1883.93
376.52	1945.98
376.73	1922.43
376.94	1812.04
377.15	1787.26
377.37	1890.48
377.58	1879.42
377.79	1661.93
378.00	1714.15
378.21	1969.33
378.42	1976.09
378.63	1797.30
378.84	1858.94
379.05	2018.68
379.27	1917.51
379.48	1920.59
379.69	1764.53
379.90	2034.86
380.11	1673.40
380.32	1805.69
380.53	1901.95
380.74	2064.97
380.95	1901.74
381.16	1804.87
381.37	1784.80
381.59	2065.79
381.80	1993.49
382.01	1744.46
382.22	1696.33
382.43	1979.36
382.64	1901.54
382.85	1750.19
383.06	1829.45
383.27	1975.88
383.48	1892.94
383.69	1806.72
383.91	1742.82
384.12	1948.85
384.33	1961.13
384.54	1817.37
384.75	1703.91
384.96	2269.97
385.17	1986.32
385.38	1774.97
385.59	1766.17
385.80	1992.26
386.01	2078.69
386.22	1874.51
386.43	1819.62
386.64	2185.59
386.86	1880.65
387.07	1919.15
387.28	1687.12
387.49	1839.08
387.70	2053.91
387.91	1873.28
388.12	1752.86
388.33	1924.27
388.54	1832.93
388.75	1773.95
388.96	1848.29
389.17	1836.62
389.38	1868.16
389.59	1869.59
389.80	1809.18
390.01	1903.38
390.22	1826.58
390.43	1893.14
390.64	1686.30
390.86	1932.46
391.07	2014.59
391.28	1803.24
391.49	1839.90
391.70	1759.21
391.91	1801.19
392.12	1817.16
392.33	1789.92
392.54	1888.84
392.75	1891.91
392.96	1845.83
393.17	1733.40
393.38	2205.25
393.59	2034.66
393.80	1708.01
394.01	1789.11
394.22	1881.67
394.43	2130.30
394.64	1765.55
394.85	1906.25
395.06	1881.88
395.27	1901.33
395.48	1787.06
395.69	1727.26
395.90	1870.00
396.11	1893.35
396.32	1756.75
396.53	1892.12
396.74	1851.98
396.95	2028.10
397.16	1741.80
397.37	1693.67
397.58	1996.36
397.79	1915.67
398.00	1844.20
398.21	1783.37
398.42	1957.45
398.63	2166.34
398.84	1813.27
399.05	1771.90
399.26	2058.21
399.47	1965.03
399.68	1640.42
399.89	1708.62
400.10	1766.58
400.31	1856.89
400.52	1837.03
400.73	1782.76
400.94	1730.94
401.15	1936.56
401.36	1796.27
401.57	1852.18
401.78	2035.89
401.99	2012.54
402.20	1715.58
402.41	1915.06
402.62	2085.04
402.83	1863.04
403.04	1798.94
403.25	1933.49
403.46	1936.35
403.67	2071.11
403.88	1767.60
404.09	1775.59
404.30	1811.02
404.51	1802.83
404.72	1727.67
404.93	1880.85
405.14	1800.78
405.35	1893.96
405.56	1781.53
405.77	1774.36
405.98	1907.68
406.19	1864.27
406.40	1730.53
406.61	1776.41
406.82	1814.30
407.03	2182.32
407.24	1712.72
407.45	1823.51
407.66	1934.92
407.87	1979.36
408.08	1857.71
408.29	1881.26
408.49	1962.98
408.70	1901.13
408.91	1793.00
409.12	1880.24
409.33	1774.97
409.54	2053.09
409.75	1763.10
409.96	1786.85
410.17	2032.40
410.38	1843.99
410.59	1760.02
410.80	1884.54
411.01	1896.21
411.22	1863.04
411.43	1839.49
411.64	1767.60
411.85	1765.96
412.06	1790.74
412.27	1637.35
412.47	1757.98
412.68	1869.59
412.89	1974.45
413.10	1737.50
413.31	1696.74
413.52	2128.04
413.73	2115.76
413.94	1734.42
414.15	1895.19
414.36	1816.55
414.57	1777.43
414.78	1702.68
414.99	1733.40
415.19	1991.44
415.40	1968.10
415.61	1964.41
415.82	1831.09
416.03	1994.52
416.24	1946.39
416.45	1791.77
416.66	1737.91
416.87	1744.05
417.08	1996.77
417.29	1763.51
417.50	1826.79
417.70	1975.88
417.91	1960.73
418.12	1824.13
418.33	1814.09
418.54	1930.82
418.75	2065.17
418.96	1986.53
419.17	1924.07
419.38	2133.16
419.59	2051.04
419.79	1925.09
420.00	1858.94
420.21	2329.77
420.42	1960.32
420.63	1781.73
420.84	1887.82
421.05	1904.20
421.26	1926.73
421.47	1720.09
421.67	2046.33
421.88	1799.96
422.09	1724.59
422.30	1944.55
422.51	1812.86
422.72	2101.42
422.93	1983.46
423.14	1811.43
423.35	1675.44
423.55	1695.51
423.76	1783.78
423.97	1819.21
424.18	1680.77
424.39	1871.84
424.60	1987.96
424.81	1785.21
425.02	1897.65
425.22	1915.87
425.43	1899.29
425.64	2005.17
425.85	1871.02
426.06	2179.65
426.27	2036.50
426.48	1908.09
426.68	1863.24
426.89	1995.54
427.10	2133.16
427.31	1804.47
427.52	1757.77
427.73	1950.08
427.94	1939.02
428.14	1850.54
428.35	1798.12
428.56	2071.32
428.77	1986.94
428.98	1856.69
429.19	1818.60
429.40	1842.35
429.60	1871.64
429.81	1922.63
430.02	1852.80
430.23	1896.42
430.44	1979.36
430.65	1786.03
430.85	1831.50
431.06	1963.80
431.27	1709.85
431.48	1796.48
431.69	1840.30
431.90	1910.96
432.10	1899.08
432.31	1854.03
432.52	1717.02
432.73	2178.22
432.94	2061.49
433.15	1921.40
433.35	1764.12
433.56	2049.20
433.77	1857.71
433.98	1913.21
434.19	1765.76
434.40	1884.34
434.60	1875.32
434.81	1810.20
435.02	1848.09
435.23	1881.06
435.44	1829.66
435.64	1680.36
435.85	1735.65
436.06	1873.69
436.27	1807.13
436.48	1708.01
436.68	1784.40
436.89	2094.25
437.10	1944.96
437.31	1807.74
437.52	1889.25
437.73	1927.55
437.93	1886.38
438.14	1868.77
438.35	1689.98
438.56	1826.58
438.77	1877.37
438.97	1925.30
439.18	1731.35
439.39	2013.15
439.60	1747.53
439.80	1689.16
440.01	1807.95
440.22	1825.35
440.43	1951.30
440.64	1703.30
440.84	1814.50
441.05	1741.39
441.26	2235.97
441.47	1841.33
441.68	1738.52
441.88	1847.06
442.09	1837.64
442.30	1921.40
442.51	1860.37
442.71	1831.70
442.92	1922.84
443.13	1742.41
443.34	1732.38
443.55	1747.12
443.75	1968.10
443.96	1747.33
444.17	1738.52
444.38	1999.84
444.58	1778.05
444.79	1868.57
445.00	1809.99
445.21	1873.28
445.41	1868.77
445.62	1616.46
445.83	1858.74
446.04	1913.01
446.24	1739.75
446.45	1628.54
446.66	1776.61
446.87	1970.15
447.07	1809.59
447.28	1992.26
447.49	1823.51
447.70	1980.18
447.90	1986.73
448.11	1809.79
448.32	1889.25
448.53	2068.86
448.73	2056.16
448.94	1786.44
449.15	1913.62
449.36	1911.98
449.56	1928.37
449.77	1774.77
449.98	1712.31
450.19	1851.16
450.39	1879.63
450.60	1884.95
450.81	1870.00
451.02	1907.89
451.22	2080.12
451.43	1767.60
451.64	1788.29
451.84	1839.69
452.05	2056.78
452.26	1827.61
452.47	1823.51
452.67	1819.83
452.88	2064.35
453.09	1774.36
453.30	1716.81
453.50	1995.13
453.71	2077.46
453.92	1770.67
454.12	1881.06
454.33	1814.50
454.54	1846.04
454.75	1720.91
454.95	1693.47
455.16	1891.09
455.37	1983.87
455.57	1819.83
455.78	1787.47
455.99	1877.17
456.19	1897.65
456.40	1730.53
456.61	1814.50
456.82	1918.74
457.02	1978.34
457.23	1843.38
457.44	1933.49
457.64	1797.71
457.85	1945.98
458.06	1803.03
458.26	1982.43
458.47	1864.06
458.68	1984.28
458.89	1720.70
459.09	1907.89
459.30	2141.36
459.51	1923.45
459.71	1676.88
459.92	1805.69
460.13	1985.51
460.33	2184.16
460.54	1772.52
460.75	1802.21
460.95	1755.72
461.16	1960.52
461.37	1791.36
461.57	1842.97
461.78	1905.43
461.99	1747.12
462.19	1999.64
462.40	1772.93
462.61	2317.07
462.81	2023.60
463.02	1725.82
463.23	1779.68
463.43	1982.02
463.64	1847.68
463.85	2746.94
464.05	1752.04
464.26	2274.88
464.47	2055.34
464.67	1949.05
464.88	1857.71
465.09	1755.52
465.29	1911.57
465.50	1904.82
465.71	1780.09
465.91	1810.81
466.12	1897.85
466.33	1848.70
466.53	1771.08
466.74	2043.46
466.94	1857.51
467.15	1811.22
467.36	1998.41
467.56	1782.55
467.77	1913.83
467.98	1856.28
468.18	1797.09
468.39	1822.69
468.60	2122.92
468.80	1833.34
469.01	1746.71
469.21	1965.44
469.42	2012.13
469.63	1799.14
469.83	1737.70
470.04	1982.23
470.25	2060.87
470.45	1880.44
470.66	1761.25
470.86	1952.94
471.07	1858.12
471.28	1897.44
471.48	1936.97
471.69	1905.23
471.90	2341.24
472.10	1789.52
472.31	1794.64
472.51	1823.72
472.72	1795.25
472.93	1749.17
473.13	1902.36
473.34	1936.76
473.54	1873.48
473.75	1824.13
473.96	1980.80
474.16	1863.86
474.37	1929.60
474.57	1833.14
474.78	1746.30
474.99	1958.47
475.19	1918.33
475.40	1780.09
475.60	1717.22
475.81	2035.89
476.02	1843.79
476.22	1817.98
476.43	1926.11
476.63	1847.47
476.84	2041.62
477.05	1662.95
477.25	1779.48
477.46	2251.95
477.66	1908.71
477.87	1679.13
478.08	1786.24
478.28	2015.82
478.49	1865.49
478.69	1744.66
478.90	1800.37
479.10	1970.56
479.31	2085.04
479.52	1816.96
479.72	1920.99
479.93	1963.80
480.13	1806.92
480.34	1774.97
480.54	1875.53
480.75	1781.94
480.96	2036.70
481.16	1773.34
481.37	1924.07
481.57	2008.65
481.78	1960.93
481.98	1990.01
482.19	1854.44
482.40	2118.01
482.60	2013.97
482.81	1882.29
483.01	1758.80
483.22	2030.56
483.42	1988.78
483.63	1914.24
483.83	1884.34
484.04	1809.38
484.24	1953.15
484.45	1844.20
484.66	1710.26
484.86	1939.84
485.07	1797.71
485.27	1862.63
485.48	1753.27
485.68	2073.98
485.89	1798.12
486.09	1862.01
486.30	1784.40
486.50	1912.19
486.71	1877.99
486.91	1846.45
487.12	1905.63
487.33	2096.51
487.53	2091.39
487.74	1946.18
487.94	1800.16
488.15	1895.40
488.35	1935.74
488.56	1829.45
488.76	1764.12
488.97	1878.40
489.17	1970.35
489.38	1815.93
489.58	1803.03
489.79	1971.99
489.99	1937.79
490.20	1850.95
490.40	1906.66
490.61	1930.01
490.81	1830.68
491.02	1852.39
491.22	1895.40
491.43	1993.49
491.63	1874.51
491.84	1938.20
492.04	1711.90
492.25	1948.64
492.45	1842.97
492.66	1783.58
492.86	1691.62
493.07	1845.42
493.27	2174.33
493.48	1680.97
493.68	1810.81
493.89	1874.10
494.09	1983.66
494.30	1754.49
494.50	2041.42
494.71	1935.33
494.91	1717.84
495.12	1819.01
495.32	1906.45
495.53	1885.97
495.73	1686.91
495.94	1812.86
496.14	1667.25
496.35	2123.95
496.55	1856.89
496.76	1800.37
496.96	1852.18
497.17	1889.46
497.37	1963.80
497.58	1786.44
497.78	1737.09
497.98	1854.44
498.19	1867.75
498.39	1847.68
498.60	1907.07
498.80	1698.18
499.01	1985.10
499.21	1724.80
499.42	1836.62
499.62	1847.47
499.83	2157.13
500.03	1718.04
500.24	1875.32
500.44	2051.66
500.64	2008.85
500.85	1813.89
501.05	1929.39
501.26	1723.16
501.46	2042.03
501.67	1762.89
501.87	1737.70
502.08	1803.24
502.28	1859.15
502.48	1861.60
502.69	1946.80
502.89	1715.17
503.10	1812.45
503.30	1844.81
503.51	1840.71
503.71	1745.48
503.92	1967.28
504.12	1875.53
504.32	1809.79
504.53	1989.40
504.73	2006.80
504.94	1946.80
505.14	2010.70
505.35	1993.29
505.55	1936.35
505.75	1857.51
505.96	1932.67
506.16	2139.92
506.37	1856.28
506.57	1773.95
506.78	1849.11
506.98	2034.04
507.18	1747.74
507.39	1719.06
507.59	1837.85
507.80	1788.90
508.00	1895.40
508.20	1955.61
508.41	1819.21
508.61	2053.91
508.82	1988.99
509.02	1932.67
509.22	1744.46
509.43	1738.52
509.63	1803.24
509.84	1821.05
510.04	1724.59
510.24	2023.39
510.45	1972.40
510.65	1743.44
510.86	1840.92
511.06	1748.15
511.26	1961.34
511.47	1901.95
511.67	1780.50
511.88	1946.80
512.08	1994.11
512.28	1712.10
512.49	1915.67
512.69	1915.06
512.90	1916.49
513.10	1795.86
513.30	1818.19
513.51	1935.33
513.71	2075.82
513.91	1870.82
514.12	1875.53
514.32	1958.68
514.53	1827.40
514.73	1872.46
514.93	1782.35
515.14	1884.54
515.34	2049.81
515.54	1849.32
515.75	1899.29
515.95	1981.41
516.15	2048.17
516.36	1895.80
516.56	1910.14
516.77	1651.28
516.97	1961.34
517.17	1827.40
517.38	1936.15
517.58	2058.41
517.78	1846.24
517.99	1891.50
518.19	1872.05
518.39	2059.64
518.60	1850.13
518.80	1789.72
519.00	1934.31
519.21	1888.23
519.41	2126.61
519.61	1785.62
519.82	1900.51
520.02	1933.90
520.22	1884.13
520.43	1835.80
520.63	1889.87
520.83	1814.91
521.04	1723.98
521.24	1914.24
521.44	1844.81
521.65	1804.06
521.85	1989.19
522.05	1803.65
522.26	1834.78
522.46	2149.34
522.66	1976.49
522.87	1832.73
523.07	1981.20
523.27	1826.58
523.48	2092.61
523.68	1870.41
523.88	1893.76
524.09	2049.40
524.29	1906.86
524.49	1694.69
524.70	1973.01
524.90	2093.64
525.10	1957.65
525.31	1758.59
525.51	1746.30
525.71	1965.23
525.91	1962.36
526.12	1816.96
526.32	1737.91
526.52	1847.06
526.73	1801.60
526.93	1903.79
527.13	1701.04
527.34	1902.97
527.54	1887.61
527.74	1798.32
527.94	1743.64
528.15	1776.41
528.35	1881.06
528.55	1911.57
528.76	1911.37
528.96	1705.96
529.16	1997.18
529.36	1960.32
529.57	1754.70
529.77	2028.72
529.97	1797.50
530.18	1945.16
530.38	1831.09
530.58	1931.03
530.78	1891.91
530.99	1808.36
531.19	1933.69
531.39	1783.58
531.60	1914.24
531.80	1838.87
532.00	1983.66
532.20	1878.60
532.41	1822.08
532.61	1814.30
532.81	1821.46
533.01	1850.13
533.22	1939.43
533.42	1949.87
533.62	1704.11
533.82	2054.32
534.03	1854.23
534.23	1912.80
534.43	1751.01
534.63	1823.51
534.84	1913.42
535.04	1917.10
535.24	1851.57
535.44	2190.51
535.65	1867.54
535.85	1813.68
536.05	1829.86
536.25	1880.44
536.46	1806.10
536.66	1993.08
536.86	1875.73
537.06	1963.39
537.27	2060.46
537.47	1935.54
537.67	1809.18
537.87	2068.65
538.08	1843.58
538.28	1765.76
538.48	1760.23
538.68	1890.48
538.88	1971.37
539.09	1728.69
539.29	1821.05
539.49	1967.69
539.69	1939.02
539.90	1936.97
540.10	1769.24
540.30	2032.81
540.50	1845.63
540.70	1726.23
540.91	1846.45
541.11	1966.46
541.31	2099.58
541.51	1899.49
541.72	1932.46
541.92	1948.85
542.12	1835.59
542.32	1830.47
542.52	1827.40
542.73	1800.16
542.93	1957.04
543.13	1841.12
543.33	1905.23
543.53	1987.55
543.74	1985.92
543.94	1796.27
544.14	1939.43
544.34	2037.52
544.54	1896.21
544.75	1915.06
544.95	2057.39
545.15	2017.04
545.35	2088.52
545.55	1960.73
545.75	1804.87
545.96	2182.93
546.16	1815.93
546.36	1849.52
546.56	1879.22
546.76	2035.68
546.97	2104.29
547.17	1848.09
547.37	1918.33
547.57	1836.21
547.77	1987.55
547.97	1908.50
548.18	1886.79
548.38	1875.73
548.58	2060.87
548.78	1807.33
548.98	1901.95
549.18	2044.49
549.39	2149.34
549.59	1966.87
549.79	1900.11
549.99	2101.83
550.19	2026.87
550.39	1974.86
550.60	1885.56
550.80	1950.90
551.00	1976.09
551.20	1811.22
551.40	1810.81
551.60	1936.56
551.80	1919.15
552.01	1994.52
552.21	1859.97
552.41	1940.25
552.61	2122.31
552.81	1880.24
553.01	1782.76
553.21	1959.09
553.42	1777.84
553.62	1797.91
553.82	1790.13
554.02	2072.75
554.22	1983.25
554.42	1795.45
554.62	1904.82
554.83	2115.76
555.03	2070.29
555.23	1845.63
555.43	2105.93
555.63	1955.61
555.83	1960.73
556.03	1902.36
556.23	1756.54
556.44	1925.30
556.64	2063.33
556.84	1631.41
557.04	1833.34
557.24	1925.50
557.44	1948.44
557.64	1915.26
557.84	1790.54
558.04	1873.07
558.25	1982.64
558.45	1794.64
558.65	1877.37
558.85	1905.84
559.05	1708.62
559.25	1839.90
559.45	1938.61
559.65	2185.59
559.85	2557.91
560.05	1917.51
560.26	1937.79
560.46	1931.03
560.66	1850.95
560.86	1860.37
561.06	1790.13
561.26	2086.47
561.46	1981.20
561.66	1825.15
561.86	1953.56
562.06	1796.89
562.26	1895.60
562.47	1891.71
562.67	1758.39
562.87	1973.42
563.07	1756.95
563.27	1895.60
563.47	1873.28
563.67	1856.07
563.87	1996.56
564.07	1825.15
564.27	1872.25
564.47	1897.44
564.67	1942.70
564.87	1797.09
565.08	1915.87
565.28	1825.35
565.48	1998.82
565.68	1930.62
565.88	1947.21
566.08	2134.80
566.28	1862.63
566.48	1745.89
566.68	1848.91
566.88	1830.27
567.08	2004.96
567.28	1855.46
567.48	1852.18
567.68	1955.81
567.88	1759.41
568.08	1919.56
568.28	2017.04
568.48	1866.93
568.68	2043.87
568.89	1914.03
569.09	1717.84
569.29	1996.97
569.49	1998.20
569.69	1757.16
569.89	1780.91
570.09	1673.40
570.29	1810.81
570.49	1729.30
570.69	1805.69
570.89	1989.60
571.09	2139.51
571.29	1718.25
571.49	1995.13
571.69	1953.15
571.89	1957.86
572.09	1831.29
572.29	1815.93
572.49	1988.58
572.69	1970.15
572.89	1838.05
573.09	1606.84
573.29	1897.65
573.49	1904.20
573.69	1867.95
573.89	1977.31
574.09	1846.45
574.29	2034.66
574.49	1798.73
574.69	1814.09
574.89	1756.13
575.09	1769.24
575.29	1755.11
575.49	1854.44
575.69	1945.57
575.89	1723.16
576.09	1859.97
576.29	1873.89
576.49	1780.71
576.69	1879.22
576.89	1808.36
577.09	1836.00
577.29	1721.52
577.49	2125.79
577.69	1790.95
577.89	1957.04
578.09	1905.63
578.29	1709.85
578.49	1865.49
578.69	1796.68
578.89	2016.84
579.09	1903.79
579.29	1758.18
579.49	1971.17
579.69	1849.52
579.89	2111.25
580.09	1689.57
580.29	1711.69
580.49	1827.40
580.69	1777.84
580.89	1837.23
581.09	1823.92
581.29	1840.92
581.49	1877.99
581.69	1748.76
581.89	1790.95
582.09	1800.78
582.28	1778.87
582.48	1943.93
582.68	2050.43
582.88	2059.85
583.08	1852.39
583.28	1861.60
583.48	1866.11
583.68	1821.26
583.88	1901.33
584.08	1876.96
584.28	1850.13
584.48	2145.86
584.68	1968.10
584.88	1860.78
585.08	2007.21
585.28	1997.18
585.48	2046.13
585.68	1936.76
585.87	1975.88
586.07	1964.62
586.27	1875.12
586.47	1967.07
586.67	1883.31
586.87	1899.70
587.07	1837.85
587.27	1723.16
587.47	1866.11
587.67	2088.93
587.87	2211.19
588.07	1933.90
588.27	1848.09
588.46	2015.61
588.66	2041.82
588.86	1901.54
589.06	1939.43
589.26	2045.51
589.46	1988.58
589.66	1762.07
589.86	1792.79
590.06	1896.01
590.26	1960.32
590.46	1815.11
590.66	1942.29
590.85	1843.99
591.05	1952.12
591.25	1779.68
591.45	1851.16
591.65	1971.99
591.85	1918.54
592.05	1844.40
592.25	1963.39
592.45	2029.13
592.64	1838.26
592.84	1878.40
593.04	1797.71
593.24	2232.29
593.44	1833.14
593.64	1924.89
593.84	1969.53
594.04	1868.77
594.24	2064.35
594.43	1817.78
594.63	1888.02
594.83	2016.02
595.03	1984.07
595.23	1808.77
595.43	1749.37
595.63	1803.85
595.83	2015.20
596.02	1662.95
596.22	1883.11
596.42	1925.71
596.62	1903.18
596.82	1819.42
597.02	1956.01
597.22	2051.25
597.41	1922.02
597.61	1801.19
597.81	1939.84
598.01	1997.79
598.21	1822.08
598.41	1803.44
598.61	1785.21
598.80	1859.15
599.00	1918.33
599.20	1987.55
599.40	1838.26
599.60	1876.55
599.80	1961.34
599.99	2033.63
600.19	1866.52
600.39	1899.70
600.59	1983.46
600.79	1895.40
600.99	1897.65
601.19	2106.54
601.38	2156.51
601.58	1902.36
601.78	1663.36
601.98	1962.57
602.18	1996.36
602.37	2186.41
602.57	1980.80
602.77	2152.21
602.97	2087.49
603.17	2139.72
603.37	2041.42
603.56	2173.92
603.76	2075.21
603.96	2031.38
604.16	2039.16
604.36	2111.66
604.56	2068.45
604.75	1833.55
604.95	1901.54
605.15	2078.07
605.35	2051.25
605.55	1855.66
605.74	1800.78
605.94	2038.14
606.14	1910.14
606.34	1914.44
606.54	1863.65
606.73	1853.62
606.93	1974.65
607.13	1821.46
607.33	1873.28
607.53	2104.49
607.72	2018.27
607.92	1943.32
608.12	1991.85
608.32	1887.41
608.51	1962.98
608.71	1812.66
608.91	1922.43
609.11	1990.42
609.31	1895.40
609.50	1907.68
609.70	2082.58
609.90	2025.03
610.10	2038.14
610.29	1867.95
610.49	1806.72
610.69	1983.05
610.89	1905.84
611.09	1898.88
611.28	1991.44
611.48	2010.08
611.68	1880.85
611.88	1808.56
612.07	1799.55
612.27	1960.93
612.47	1805.49
612.67	1907.89
612.86	1974.86
613.06	1879.42
613.26	1698.99
613.46	1815.93
613.65	1902.56
613.85	2254.61
614.05	2010.08
614.25	1966.25
614.44	1848.70
614.64	1913.21
614.84	1854.03
615.04	1813.27
615.23	1821.05
615.43	1976.29
615.63	1981.61
615.83	1783.99
616.02	1738.73
616.22	1987.55
616.42	1749.58
616.62	1787.88
616.81	1865.90
617.01	1949.67
617.21	1883.72
617.41	1786.24
617.60	1893.76
617.80	1992.47
618.00	1969.12
618.19	1938.20
618.39	1920.18
618.59	1981.61
618.79	1900.11
618.98	1732.17
619.18	1870.61
619.38	2153.85
619.57	1878.40
619.77	1862.01
619.97	1853.62
620.17	1801.80
620.36	1757.16
620.56	1987.14
620.76	1773.75
620.95	1770.26
621.15	1847.27
621.35	1783.58
621.54	1820.44
621.74	1876.96
621.94	1821.26
622.14	1774.97
622.33	1728.69
622.53	1870.41
622.73	1855.66
622.92	1727.26
623.12	1867.54
623.32	2125.79
623.51	1969.33
623.71	1730.74
623.91	1965.64
624.10	1760.64
624.30	1886.18
624.50	1766.37
624.69	1737.29
624.89	2349.43
625.09	1846.45
625.29	1657.63
625.48	1730.94
625.68	1919.56
625.88	2011.51
626.07	1893.55
626.27	1757.77
626.47	1818.19
626.66	1691.62
626.86	1840.10
627.06	1845.42
627.25	1881.67
627.45	2077.66
627.64	1858.94
627.84	2012.95
628.04	1793.61
628.23	2113.50
628.43	1770.67
628.63	1802.62
628.82	1845.42
629.02	2129.27
629.22	1950.69
629.41	2034.86
629.61	1900.51
629.81	2130.91
630.00	1778.25
630.20	1753.06
630.40	1924.27
630.59	1983.25
630.79	1862.22
630.98	1840.92
631.18	1871.23
631.38	1876.76
631.57	1993.49
631.77	1702.89
631.97	1890.28
632.16	1919.97
632.36	1899.08
632.56	1902.56
632.75	1912.19
632.95	2004.14
633.14	1773.34
633.34	2002.30
633.54	1674.83
633.73	1844.40
633.93	1823.92
634.12	1697.36
634.32	2233.72
634.52	1886.59
634.71	1740.36
634.91	1907.48
635.11	1744.05
635.30	1806.92
635.50	1896.01
635.69	1776.20
635.89	2103.88
636.09	2001.89
636.28	1759.82
636.48	1785.62
636.67	1944.14
636.87	1939.02
637.07	1931.03
637.26	1793.20
637.46	1920.38
637.65	2031.18
637.85	1900.72
638.04	1770.06
638.24	1821.26
638.44	1930.21
638.63	1872.87
638.83	1832.11
639.02	1926.73
639.22	1963.39
639.42	1860.78
639.61	1848.50
639.81	1884.13
640.00	1860.58
640.20	1958.88
640.39	1920.38
640.59	2132.55
640.79	2021.35
640.98	1901.74
641.18	1841.53
641.37	1879.22
641.57	1818.80
641.76	1875.94
641.96	1683.23
642.15	1901.95
642.35	1816.34
642.55	1872.46
642.74	1761.05
642.94	1982.02
643.13	2059.44
643.33	1832.93
643.52	1819.42
643.72	1808.56
643.91	1886.79
644.11	1816.96
644.31	1789.11
644.50	1799.96
644.70	2021.75
644.89	1862.42
645.09	1924.89
645.28	1899.08
645.48	1945.37
645.67	1787.26
645.87	1676.88
646.06	1858.12
646.26	1916.69
646.45	1657.22
646.65	1649.84
646.84	2133.16
647.04	1816.34
647.24	1745.89
647.43	1855.25
647.63	1913.83
647.82	2050.84
648.02	1715.38
648.21	1794.43
648.41	2038.14
648.60	1836.82
648.80	1988.99
648.99	1896.21
649.19	1827.40
649.38	1717.02
649.58	1862.83
649.77	1894.17
649.97	2015.82
650.16	1933.90
650.36	1662.13
650.55	1957.24
650.75	1902.56
650.94	2057.80
651.14	1858.94
651.33	1891.09
651.53	2092.41
651.72	1805.49
651.92	1828.02
652.11	1674.01
652.31	1950.49
652.50	1930.62
652.70	1893.14
652.89	1738.93
653.09	2050.63
653.28	1844.61
653.48	1676.06
653.67	1691.21
653.87	2255.43
654.06	1926.32
654.25	2023.39
654.45	1791.36
654.64	1835.18
654.84	1857.51
655.03	1666.23
655.23	1960.32
655.42	1963.18
655.62	2064.76
655.81	1852.59
656.01	1775.18
656.20	1954.58
656.40	2074.59
656.59	1843.38
656.79	1991.85
656.98	1920.59
657.17	1966.25
657.37	1874.30
657.56	1789.11
657.76	1938.61
657.95	1984.69
658.15	1576.53
658.34	1880.44
658.54	1888.02
658.73	1723.16
658.92	1808.77
659.12	1879.63
659.31	1958.27
659.51	1762.69
659.70	1908.09
659.90	1835.18
660.09	1977.72
660.29	1875.94
660.48	1763.51
660.67	2012.74
660.87	1808.36
661.06	1929.39
661.26	1957.45
661.45	1933.69
661.65	1918.95
661.84	1808.36
662.03	1806.92
662.23	1793.20
662.42	2135.21
662.62	1773.13
662.81	1759.41
663.00	1808.15
663.20	1926.11
663.39	1914.85
663.59	1930.01
663.78	1809.59
663.97	1827.61
664.17	1983.05
664.36	1698.79
664.56	1760.43
664.75	1948.44
664.94	1929.39
665.14	1867.75
665.33	1814.91
665.53	1884.34
665.72	1843.58
665.91	1947.82
666.11	1833.96
666.30	1876.14
666.50	1843.17
666.69	1874.71
666.88	1851.16
667.08	1897.65
667.27	1849.73
667.47	1844.61
667.66	1826.99
667.85	1971.17
668.05	1881.67
668.24	1787.47
668.43	1981.00
668.63	1815.93
668.82	2021.14
669.02	1930.62
669.21	1859.15
669.40	1719.68
669.60	2114.32
669.79	1710.46
669.98	2304.99
670.18	1760.23
670.37	1760.23
670.56	1796.27
670.76	1881.47
670.95	1885.16
671.15	1977.11
671.34	1909.12
671.53	1862.63
671.73	1829.25
671.92	1817.57
672.11	1752.24
672.31	1806.31
672.50	1928.37
672.69	1732.38
672.89	1640.63
673.08	1826.17
673.27	1967.89
673.47	1893.76
673.66	1920.18
673.85	1768.63
674.05	1892.73
674.24	1895.60
674.43	1805.69
674.63	1993.70
674.82	2254.61
675.01	1732.79
675.21	2061.28
675.40	1912.60
675.59	1870.00
675.79	2118.21
675.98	1852.39
676.17	2005.17
676.37	1933.90
676.56	1831.29
676.75	1876.76
676.95	1868.16
677.14	1842.15
677.33	2010.08
677.52	1755.31
677.72	1809.79
677.91	1911.16
678.10	1684.04
678.30	1757.16
678.49	1743.23
678.68	2146.89
678.88	1682.20
679.07	1978.95
679.26	1835.59
679.45	2137.87
679.65	2016.84
679.84	1669.09
680.03	1721.52
680.23	1814.09
680.42	2206.48
680.61	1738.93
680.81	1806.31
681.00	1885.97
681.19	1930.21
681.38	1977.11
681.58	1932.46
681.77	1853.82
681.96	1967.69
682.15	1785.83
682.35	1876.55
682.54	1935.33
682.73	1743.85
682.93	1771.70
683.12	1762.28
683.31	1980.80
683.50	2210.78
683.70	1782.55
683.89	1880.04
684.08	1754.09
684.27	2018.89
684.47	1718.45
684.66	1873.69
684.85	2110.43
685.04	2002.50
685.24	1763.30
685.43	1847.27
685.62	1669.71
685.81	1905.63
686.01	1899.70
686.20	1794.84
686.39	1753.88
686.58	2193.37
686.78	1940.25
686.97	1951.92
687.16	2044.28
687.35	1952.74
687.55	1844.81
687.74	1859.76
687.93	1779.68
688.12	1848.70
688.32	1906.86
688.51	1726.23
688.70	1926.11
688.89	1751.01
689.08	1727.67
689.28	1789.72
689.47	1900.51
689.66	1882.29
689.85	1929.19
690.05	1823.31
690.24	1781.53
690.43	1899.08
690.62	1883.72
690.81	1804.87
691.01	1887.82
691.20	1823.10
691.39	1756.75
691.58	1909.73
691.77	2081.35
691.97	1889.87
692.16	1898.26
692.35	1841.53
692.54	1810.81
692.73	1939.84
692.93	1894.99
693.12	1909.73
693.31	1947.41
693.50	1906.45
693.69	1954.79
693.89	1856.48
694.08	2052.27
694.27	2040.60
694.46	1771.90
694.65	1895.40
694.85	1952.94
695.04	1956.63
695.23	1821.87
695.42	2028.92
695.61	2088.31
695.80	2218.36
696.00	2322.60
696.19	2340.62
696.38	2082.78
696.57	2138.28
696.76	2148.73
696.95	2027.28
697.15	2193.78
697.34	2151.80
697.53	1925.50
697.72	1950.49
697.91	1901.33
698.10	2107.36
698.30	1838.87
698.49	1855.25
698.68	1932.87
698.87	1838.67
699.06	1785.83
699.25	1847.88
699.45	1998.82
699.64	1893.14
699.83	1969.53
700.02	1749.99
700.21	1906.45
700.40	1823.92
700.59	1849.73
700.79	1826.17
700.98	1929.19
701.17	1798.73
701.36	1788.29
701.55	1796.48
701.74	2009.67
701.93	1765.35
702.12	1897.03
702.32	1811.43
702.51	2035.27
702.70	1999.64
702.89	1907.68
703.08	1823.31
703.27	2074.18
703.46	1956.22
703.65	1851.36
703.85	1750.19
704.04	1809.18
704.23	2020.73
704.42	1765.76
704.61	1782.55
704.80	2073.16
704.99	1798.32
705.18	1882.70
705.37	1832.32
705.57	1995.34
705.76	2175.97
705.95	1984.28
706.14	2291.88
706.33	2363.56
706.52	2524.12
706.71	2137.67
706.90	2012.33
707.09	2131.73
707.28	2060.67
707.47	1890.48
707.67	2010.49
707.86	1876.35
708.05	2078.48
708.24	1911.78
708.43	1884.34
708.62	1875.53
708.81	1806.72
709.00	1727.67
709.19	1787.88
709.38	1978.13
709.57	1764.73
709.76	1887.20
709.96	1791.56
710.15	2027.49
710.34	1865.29
710.53	1950.28
710.72	1872.46
710.91	2047.76
711.10	1958.88
711.29	1937.58
711.48	1791.36
711.67	1736.47
711.86	1952.33
712.05	1745.89
712.24	1780.09
712.43	1938.40
712.62	2042.03
712.81	1872.25
713.00	2012.33
713.19	1736.27
713.39	1944.96
713.58	1732.17
713.77	1851.16
713.96	1951.51
714.15	1861.60
714.34	1825.76
714.53	1726.03
714.72	2111.87
714.91	1762.48
715.10	1875.32
715.29	1742.82
715.48	2266.28
715.67	1958.06
715.86	1885.36
716.05	1845.42
716.24	1833.96
716.43	1826.58
716.62	1754.09
716.81	1721.93
717.00	1828.84
717.19	2030.36
717.38	1891.71
717.57	1850.13
717.76	1712.51
717.95	1987.96
718.14	1872.25
718.33	1795.45
718.52	1714.76
718.71	1709.64
718.90	1724.59
719.09	1815.73
719.28	1883.31
719.47	1969.94
719.66	1943.11
719.85	1937.79
720.04	1813.07
720.23	1908.09
720.42	1791.56
720.61	1945.37
720.80	1731.97
720.99	1909.94
721.18	1822.08
721.37	1757.36
721.56	1841.33
721.75	1987.76
721.94	1772.93
722.13	1819.21
722.32	1834.98
722.51	1975.47
722.70	1860.99
722.89	1896.62
723.08	1863.24
723.27	2002.09
723.46	1889.25
723.65	1859.56
723.84	1824.74
724.03	2016.23
724.22	1727.67
724.41	1894.99
724.60	1800.37
724.79	1988.17
724.98	1892.32
725.16	1822.28
725.35	1959.91
725.54	1739.95
725.73	1840.51
725.92	1840.30
726.11	1865.49
726.30	1983.05
726.49	1806.92
726.68	1886.38
726.87	1963.18
727.06	2077.66
727.25	1841.94
727.44	1941.88
727.63	1894.58
727.82	1840.51
728.01	1894.78
728.20	1916.69
728.38	2071.73
728.57	1872.05
728.76	1871.23
728.95	1980.59
729.14	1729.71
729.33	1752.45
729.52	1681.18
729.71	1771.70
729.90	1759.61
730.09	1794.23
730.28	1809.99
730.47	1777.02
730.66	2008.03
730.84	1894.37
731.03	1895.60
731.22	1926.32
731.41	1891.91
731.60	1928.78
731.79	1685.48
731.98	1787.26
732.17	1950.28
732.36	1927.75
732.55	1821.46
732.73	1723.98
732.92	2021.55
733.11	1909.12
733.30	1769.45
733.49	1676.67
733.68	1932.67
733.87	1905.63
734.06	1762.89
734.25	1745.48
734.43	1805.28
734.62	1929.80
734.81	1886.18
735.00	1834.57
735.19	1869.18
735.38	1916.28
735.57	1747.74
735.76	1906.45
735.94	1959.91
736.13	2185.18
736.32	2016.02
736.51	1981.00
736.70	2233.72
736.89	2255.84
737.08	2112.48
737.27	2215.70
737.45	2432.17
737.64	2345.74
737.83	2532.72
738.02	2462.27
738.21	2526.99
738.40	2519.00
738.59	2170.23
738.77	2225.32
738.96	2042.23
739.15	2130.71
739.34	2152.62
739.53	2070.29
739.72	2148.93
739.90	2106.54
740.09	1880.65
740.28	1932.05
740.47	2020.12
740.66	1983.05
740.85	1788.70
741.03	1877.58
741.22	1788.08
741.41	1821.46
741.60	1727.87
741.79	1880.65
741.98	2037.93
742.16	2099.37
742.35	1913.42
742.54	1824.74
742.73	2139.72
742.92	1854.85
743.10	1718.86
743.29	1787.67
743.48	2169.21
743.67	1832.93
743.86	1712.72
744.05	1736.06
744.23	1750.60
744.42	1763.92
744.61	1833.34
744.80	1730.33
744.99	1805.90
745.17	1668.28
745.36	1691.42
745.55	1891.71
745.74	1888.02
745.93	1778.25
746.11	1782.76
746.30	1764.53
746.49	1962.36
746.68	1754.29
746.86	1827.40
747.05	1826.79
747.24	1939.43
747.43	1948.64
747.62	1727.46
747.80	1787.06
747.99	2024.01
748.18	1984.69
748.37	1922.84
748.56	1937.17
748.74	2008.44
748.93	1906.45
749.12	2072.13
749.31	2514.70
749.49	2859.37
749.68	3164.52
749.87	3429.32
750.06	3433.21
750.24	3339.83
750.43	3271.22
750.62	3298.05
750.81	3346.59
750.99	3509.40
751.18	3504.48
751.37	3099.40
751.56	2980.20
751.74	3141.99
751.93	3125.41
752.12	2487.05
752.31	2354.55
752.49	2311.95
752.68	2420.90
752.87	2160.81
753.06	2028.10
753.24	1987.14
753.43	2143.20
753.62	1903.38
753.81	1867.13
753.99	2099.58
754.18	1958.68
754.37	1764.53
754.55	1874.92
754.74	2092.20
754.93	1668.07
755.12	1826.79
755.30	1771.29
755.49	1992.47
755.68	1871.23
755.86	1892.94
756.05	1726.85
756.24	2060.67
756.43	1705.14
756.61	1749.37
756.80	1896.62
756.99	2003.73
757.17	1861.81
757.36	1739.54
757.55	1824.13
757.74	1926.93
757.92	1874.10
758.11	1729.10
758.30	1674.21
758.48	1807.74
758.67	1706.16
758.86	1840.51
759.04	1722.14
759.23	1791.36
759.42	1866.72
759.60	1757.98
759.79	1862.42
759.98	1847.06
760.16	1769.65
760.35	1757.57
760.54	1706.98
760.73	1903.18
760.91	1706.78
761.10	1852.59
761.29	1885.77
761.47	1867.13
761.66	2141.97
761.85	1853.82
762.03	1948.23
762.22	2146.07
762.41	2659.49
762.59	3264.05
762.78	3520.46
762.97	4169.25
763.15	4257.32
763.34	3973.26
763.52	3321.81
763.71	3260.98
763.90	3224.53
764.08	2945.18
764.27	2861.63
764.46	2954.40
764.64	2546.65
764.83	2522.69
765.02	2429.10
765.20	2354.34
765.39	2312.36
765.58	1956.63
765.76	2008.44
765.95	2004.55
766.13	1925.71
766.32	1886.59
766.51	1901.95
766.69	2418.86
766.88	1901.13
767.07	1754.90
767.25	1663.77
767.44	1965.23
767.62	2015.82
767.81	1756.54
768.00	1849.93
768.18	1850.54
768.37	1768.22
768.56	1685.68
768.74	1756.54
768.93	1718.45
769.11	1912.19
769.30	1842.56
769.49	1781.32
769.67	1842.97
769.86	1821.67
770.04	1811.84
770.23	1817.57
770.42	2023.39
770.60	1846.04
770.79	1746.51
770.97	1789.92
771.16	2065.58
771.35	2056.57
771.53	2156.31
771.72	2195.83
771.90	2407.39
772.09	2625.09
772.27	2469.44
772.46	2209.55
772.65	2370.73
772.83	2260.34
773.02	2244.57
773.20	2003.94
773.39	2154.46
773.58	2155.90
773.76	1890.07
773.95	1953.97
774.13	2026.47
774.32	1920.59
774.50	1798.53
774.69	1902.56
774.87	1834.98
775.06	2141.15
775.25	1806.10
775.43	1846.86
775.62	1900.31
775.80	1949.05
775.99	1885.77
776.17	1735.04
776.36	1837.44
776.54	1953.97
776.73	1723.78
776.92	1827.61
777.10	1909.53
777.29	1885.97
777.47	1690.80
777.66	1749.99
777.84	1857.10
778.03	1840.10
778.21	1724.39
778.40	1839.28
778.58	1876.14
778.77	1969.94
778.95	1702.48
779.14	1774.16
779.32	2086.06
779.51	1978.34
779.70	1831.29
779.88	1722.34
780.07	1826.79
780.25	2195.01
780.44	1792.38
780.62	1991.85
780.81	1934.72
780.99	1912.19
781.18	1796.07
781.36	1819.83
781.55	1857.71
781.73	2059.03
781.92	1749.99
782.10	1725.00
782.29	1932.05
782.47	2055.55
782.66	1847.47
782.84	1711.08
783.03	1769.04
783.21	2027.69
783.40	1830.68
783.58	1799.35
783.77	1800.37
783.95	1851.57
784.14	1763.92
784.32	1842.35
784.51	2011.31
784.69	1773.95
784.88	1708.42
785.06	1846.45
785.24	1717.43
785.43	1978.75
785.61	1912.60
785.80	1761.87
785.98	1936.15
786.17	1852.59
786.35	1768.83
786.54	1896.21
786.72	1965.85
786.91	1981.61
787.09	1836.82
787.28	1743.44
787.46	1874.10
787.65	1988.99
787.83	1719.27
788.01	1864.68
788.20	1724.39
788.38	1838.05
788.57	1781.94
788.75	1822.28
788.94	2084.42
789.12	2008.03
789.31	1848.09
789.49	1931.85
789.67	1791.56
789.86	1895.60
790.04	1714.56
790.23	1682.61
790.41	2108.38
790.60	1811.84
790.78	1815.52
790.96	1841.33
791.15	1952.33
791.33	1820.23
791.52	1829.25
791.70	1761.46
791.89	1856.28
792.07	2003.12
792.25	1845.63
792.44	1713.74
792.62	1998.82
792.81	1811.22
792.99	1835.59
793.17	1766.17
793.36	1765.96
793.54	2071.52
793.73	2066.61
793.91	2028.31
794.10	2331.20
794.28	2459.00
794.46	2287.38
794.65	2319.53
794.83	2107.36
795.01	2148.52
795.20	2285.12
795.38	2135.83
795.57	2151.39
795.75	2126.00
795.93	1988.78
796.12	2043.46
796.30	2080.74
796.49	2052.88
796.67	1835.39
796.85	1993.29
797.04	1918.13
797.22	1984.48
797.40	1715.79
797.59	1885.16
797.77	1882.29
797.96	1783.17
798.14	1778.05
798.32	1785.42
798.51	1954.99
798.69	2080.33
798.87	1846.65
799.06	1819.21
799.24	1703.09
799.42	1989.81
799.61	1967.48
799.79	2004.35
799.98	2336.53
800.16	2119.44
800.34	2273.04
800.53	2443.84
800.71	2492.38
800.89	2892.14
801.08	2761.89
801.26	2718.06
801.44	2501.59
801.63	2353.32
801.81	2326.49
801.99	2279.59
802.18	2211.60
802.36	2250.31
802.54	2184.57
802.73	1965.23
802.91	2101.42
803.09	2077.66
803.28	2036.70
803.46	2049.40
803.64	2146.68
803.83	1822.08
804.01	1797.09
804.19	1764.53
804.38	1950.49
804.56	1944.96
804.74	1840.51
804.92	1857.10
805.11	1755.52
805.29	2018.89
805.47	1803.85
805.66	1710.87
805.84	1728.90
806.02	1962.57
806.21	1779.89
806.39	1945.37
806.57	1981.41
806.76	1976.29
806.94	1823.51
807.12	1771.90
807.30	1764.94
807.49	1878.81
807.67	1842.97
807.85	1923.86
808.04	1983.87
808.22	2151.60
808.40	1722.55
808.58	1721.73
808.77	1911.98
808.95	2054.73
809.13	1889.87
809.31	2275.70
809.50	2464.53
809.68	2619.56
809.86	2561.60
810.05	2679.36
810.23	3087.93
810.41	3464.75
810.59	4937.86
810.78	5843.47
810.96	6589.95
811.14	7146.59
811.32	6784.72
811.51	5771.18
811.69	5016.70
811.87	5021.82
812.05	4514.34
812.24	4344.56
812.42	4210.62
812.60	3987.80
812.78	3435.88
812.97	3154.49
813.15	3233.33
813.33	2918.15
813.51	2738.54
813.70	2367.04
813.88	2213.65
814.06	2193.78
814.24	2098.35
814.42	1877.78
814.61	2004.55
814.79	2164.50
814.97	1745.69
815.15	1814.71
815.34	1919.15
815.52	2003.94
815.70	1751.63
815.88	1785.01
816.06	1767.40
816.25	1813.48
816.43	1749.17
816.61	1898.67
816.79	2051.25
816.98	1675.44
817.16	1762.07
817.34	1738.52
817.52	1915.67
817.70	2040.19
817.89	1803.65
818.07	1723.16
818.25	1830.27
818.43	1885.77
818.61	1838.26
818.80	1785.42
818.98	2114.32
819.16	1894.58
819.34	1736.88
819.52	2030.77
819.70	1773.95
819.89	1868.16
820.07	1721.73
820.25	1682.61
820.43	1891.30
820.61	1978.75
820.80	1824.94
820.98	1744.46
821.16	1680.15
821.34	1718.86
821.52	1815.11
821.70	1873.07
821.89	1876.55
822.07	1812.25
822.25	1811.84
822.43	1715.99
822.61	2055.96
822.79	1902.15
822.98	1833.55
823.16	1660.90
823.34	1897.44
823.52	2029.74
823.70	1945.57
823.88	1681.18
824.06	1952.12
824.25	1875.12
824.43	1916.49
824.61	1749.99
824.79	1882.90
824.97	1863.86
825.15	1940.45
825.33	2057.80
825.52	2137.87
825.70	2058.82
825.88	2063.33
826.06	2155.08
826.24	2176.38
826.42	2169.62
826.60	2088.31
826.78	2097.32
826.97	1997.59
827.15	2152.01
827.33	1874.71
827.51	2005.17
827.69	1898.47
827.87	1961.34
828.05	1978.34
828.23	1814.09
828.41	2016.43
828.60	1999.43
828.78	1728.08
828.96	1910.75
829.14	1810.20
829.32	1823.10
829.50	1818.39
829.68	1816.96
829.86	1806.10
830.04	1956.63
830.22	1858.94
830.41	1721.93
830.59	1842.97
830.77	1932.46
830.95	1785.62
831.13	1777.43
831.31	1770.26
831.49	1971.17
831.67	1955.40
831.85	1959.09
832.03	1818.80
832.21	1960.73
832.39	1720.91
832.57	1728.49
832.76	1985.51
832.94	1839.90
833.12	1673.19
833.30	1815.32
833.48	2035.89
833.66	1882.70
833.84	1778.66
834.02	1842.97
834.20	1960.11
834.38	1953.97
834.56	1685.89
834.74	1745.07
834.92	1716.61
835.10	2072.75
835.28	1861.19
835.46	1820.44
835.64	1834.57
835.82	1820.44
836.01	2050.43
836.19	1956.63
836.37	1810.40
836.55	1746.51
836.73	1772.72
836.91	1713.95
837.09	1954.79
837.27	2050.22
837.45	1684.45
837.63	1742.41
837.81	1739.14
837.99	1866.93
838.17	1806.72
838.35	1748.56
838.53	2155.08
838.71	1905.63
838.89	1771.08
839.07	1773.75
839.25	1868.36
839.43	1963.18
839.61	1828.43
839.79	2168.59
839.97	2278.16
840.15	2411.69
840.33	2363.97
840.51	2599.08
840.69	2393.05
840.87	2323.42
841.05	2322.19
841.23	2229.42
841.41	2436.67
841.59	2910.37
841.77	2965.05
841.95	3082.19
842.13	3426.25
842.31	3206.91
842.49	2795.07
842.67	2761.28
842.85	2735.68
843.03	2463.30
843.21	2436.88
843.39	2496.06
843.57	2399.40
843.75	2354.55
843.93	2199.93
844.11	2136.85
844.29	2155.08
844.47	2061.08
844.65	2165.73
844.83	1926.52
845.01	1931.85
845.19	2057.39
845.36	1923.45
845.54	1948.44
845.72	1919.77
845.90	1957.45
846.08	1747.94
846.26	1825.35
846.44	1929.39
846.62	1939.43
846.80	1859.97
846.98	1771.29
847.16	1863.24
847.34	1910.55
847.52	1745.07
847.70	1736.06
847.88	1842.15
848.06	2068.45
848.24	1877.17
848.41	1708.42
848.59	1969.74
848.77	1920.99
848.95	1820.85
849.13	1790.13
849.31	1954.99
849.49	1911.98
849.67	1748.56
849.85	1728.08
850.03	1907.89
850.21	1906.25
850.39	1799.14
850.57	1919.36
850.74	2035.48
850.92	2034.66
851.10	1957.24
851.28	1964.82
851.46	2119.85
851.64	2388.96
851.82	2081.35
852.00	2144.84
852.18	2264.23
852.36	2164.29
852.53	1963.18
852.71	2041.42
852.89	2061.89
853.07	2061.28
853.25	1865.90
853.43	1802.62
853.61	1974.24
853.79	1966.46
853.97	1801.19
854.14	1782.76
854.32	2064.15
854.50	2002.71
854.68	1832.32
854.86	1811.22
855.04	1766.17
855.22	1972.81
855.40	1719.68
855.57	1779.48
855.75	1981.00
855.93	1952.12
856.11	1675.03
856.29	1765.14
856.47	1762.89
856.65	1916.28
856.82	1783.99
857.00	1706.57
857.18	1854.03
857.36	1787.26
857.54	1874.30
857.72	1931.85
857.89	1944.14
858.07	1906.66
858.25	1958.06
858.43	1714.76
858.61	1849.73
858.79	1889.46
858.97	1786.44
859.14	1881.47
859.32	1860.17
859.50	1832.93
859.68	1875.94
859.86	1760.84
860.03	1875.53
860.21	1922.43
860.39	1758.80
860.57	1868.57
860.75	1911.16
860.93	2104.49
861.10	1945.78
861.28	1761.25
861.46	1932.26
861.64	1921.61
861.82	1801.60
861.99	1883.52
862.17	2007.83
862.35	1991.65
862.53	1851.57
862.71	1813.68
862.88	1911.57
863.06	1936.35
863.24	1834.98
863.42	1785.62
863.60	1833.75
863.77	1925.91
863.95	1658.04
864.13	1850.54
864.31	1798.94
864.49	1965.85
864.66	1727.67
864.84	1795.66
865.02	1881.06
865.20	2203.41
865.37	1885.56
865.55	1776.41
865.73	1716.40
865.91	1966.25
866.09	1886.18
866.26	1859.76
866.44	1972.19
866.62	1837.64
866.80	1769.24
866.97	1848.91
867.15	1840.71
867.33	1907.68
867.51	1920.59
867.68	1812.86
867.86	1800.16
868.04	1828.22
868.22	1635.71
868.39	1791.56
868.57	1928.37
868.75	2051.04
868.93	1710.26
869.10	1775.38
869.28	2112.48
869.46	2041.82
869.64	1812.86
869.81	1841.12
869.99	1883.11
870.17	1873.07
870.35	1772.52
870.52	1739.95
870.70	2001.48
870.88	1807.33
871.05	1727.05
871.23	1633.05
871.41	1860.78
871.59	1853.82
871.76	1802.21
871.94	1775.18
872.12	1853.82
872.29	1741.59
872.47	1772.31
872.65	1759.82
872.83	1898.26
873.00	2051.86
873.18	1810.20
873.36	1771.70
873.53	1971.58
873.71	1719.27
873.89	1730.94
874.06	1832.73
874.24	1927.75
874.42	2025.65
874.60	1921.40
874.77	1851.16
874.95	1796.27
875.13	2001.07
875.30	1770.06
875.48	1779.68
875.66	2063.33
875.83	1766.37
876.01	1807.54
876.19	1919.15
876.36	1771.90
876.54	1874.51
876.72	1744.25
876.89	1899.29
877.07	1958.68
877.25	1677.70
877.42	1846.04
877.60	1833.55
877.78	2073.36
877.95	1837.44
878.13	1795.45
878.31	1886.38
878.48	1970.76
878.66	1958.27
878.84	1806.51
879.01	1821.67
879.19	1918.54
879.37	1953.35
879.54	1789.72
879.72	1717.63
879.90	1671.14
880.07	1961.13
880.25	1597.42
880.42	1914.24
880.60	1897.03
880.78	1956.63
880.95	1785.83
881.13	1795.04
881.31	1866.93
881.48	1813.07
881.66	1771.70
881.83	1883.93
882.01	1778.46
882.19	1731.35
882.36	1872.66
882.54	1812.04
882.72	1957.65
882.89	1875.32
883.07	1747.74
883.24	1803.24
883.42	1969.74
883.60	1894.78
883.77	1750.40
883.95	1803.85
884.12	1954.99
884.30	1903.79
884.48	1961.34
884.65	1813.89
884.83	1906.45
885.00	1924.89
885.18	1735.65
885.36	1790.13
885.53	1951.71
885.71	2018.68
885.88	1727.46
886.06	1805.90
886.23	1960.52
886.41	1833.55
886.59	1769.04
886.76	1777.02
886.94	1952.12
887.11	2232.49
887.29	1830.06
887.47	1696.54
887.64	2029.33
887.82	2029.74
887.99	1686.30
888.17	1859.76
888.34	1841.94
888.52	1740.16
888.69	1868.16
888.87	1756.54
889.05	1820.23
889.22	1823.72
889.40	1785.62
889.57	1960.32
889.75	2068.65
889.92	1801.60
890.10	1711.49
890.27	1812.86
890.45	1798.12
890.62	1677.90
890.80	1714.97
890.98	1695.72
891.15	2075.41
891.33	1977.31
891.50	1773.95
891.68	1694.08
891.85	1983.66
892.03	1972.60
892.20	1768.22
892.38	1737.91
892.55	1961.75
892.73	1952.12
892.90	1741.18
893.08	1796.48
893.25	1793.00
893.43	1815.93
893.60	1911.37
893.78	1634.69
893.95	1902.36
894.13	1854.03
894.30	1769.04
894.48	1834.78
894.65	1976.09
894.83	1872.05
895.00	1651.07
895.18	1667.66
895.35	1965.64
895.53	1947.82
895.70	1713.54
895.88	1882.29
896.05	1941.06
896.23	1718.86
896.40	1768.83
896.58	1862.22
896.75	1965.44
896.93	2027.90
897.10	1747.33
897.28	1698.79
897.45	1892.73
897.63	1942.09
897.80	1912.19
897.98	1800.37
898.15	1906.04
898.33	1770.88
898.50	1844.40
898.67	1806.10
898.85	1818.60
899.02	1910.14
899.20	2005.99
899.37	1802.21
899.55	1889.66
899.72	2046.74
899.90	1738.93
900.07	1759.00
900.25	1939.84
900.42	1993.90
900.59	1785.62
900.77	1895.60
900.94	1934.92
901.12	1911.37
901.29	1748.56
901.47	1933.08
901.64	1937.99
901.82	1868.57
901.99	1625.06
902.16	1737.91
902.34	2000.66
902.51	1897.85
902.69	1781.12
902.86	1843.99
903.03	2296.18
903.21	1877.58
903.38	1841.12
903.56	1768.42
903.73	1994.31
903.91	1828.84
904.08	1722.96
904.25	1673.19
904.43	1762.28
904.60	1989.19
904.78	1812.04
904.95	1723.37
905.12	1828.43
905.30	2054.11
905.47	1902.56
905.65	1930.62
905.82	1838.05
905.99	1921.20
906.17	1833.96
906.34	1757.57
906.52	1766.37
906.69	1936.76
906.86	1905.23
907.04	1828.22
907.21	2027.49
907.38	1973.63
907.56	1768.01
907.73	1769.85
907.91	2032.61
908.08	2007.21
908.25	1743.64
908.43	1739.54
908.60	1943.73
908.77	1891.50
908.95	1777.64
909.12	1716.40
909.30	1953.15
909.47	1725.62
909.64	1826.99
909.82	1924.68
909.99	1837.44
910.16	1899.70
910.34	1767.60
910.51	1798.32
910.68	1912.39
910.86	1843.38
911.03	1720.09
911.20	1824.54
911.38	2066.61
911.55	2459.20
911.72	2557.71
911.90	2452.44
912.07	2666.46
912.24	2797.12
912.42	2338.58
912.59	2131.94
912.76	2274.88
912.94	2131.53
913.11	2007.62
913.28	1885.56
913.46	1839.69
913.63	1995.13
913.80	2159.17
913.98	1829.25
914.15	2040.39
914.32	2047.56
914.49	1922.43
914.67	1775.18
914.84	1946.59
915.01	1994.11
915.19	1907.89
915.36	1803.85
915.53	2022.16
915.71	1923.66
915.88	1884.75
916.05	1772.72
916.22	1994.93
916.40	1894.99
916.57	1774.16
916.74	1860.37
916.92	2058.41
917.09	1716.20
917.26	1722.96
917.43	1711.08
917.61	1814.30
917.78	1692.65
917.95	1631.00
918.13	1714.35
918.30	2141.77
918.47	1881.88
918.64	1723.57
918.82	1727.26
918.99	1807.33
919.16	2057.80
919.33	1800.16
919.51	1755.72
919.68	1856.48
919.85	2012.33
920.02	1702.27
920.20	1816.34
920.37	2086.47
920.54	1968.71
920.71	1743.23
920.89	1787.47
921.06	2092.20
921.23	1773.34
921.40	1727.46
921.58	1882.70
921.75	2305.60
921.92	1880.65
922.09	1924.68
922.27	1930.62
922.44	1953.15
922.61	1952.33
922.78	1838.26
922.96	1836.21
923.13	1857.51
923.30	2001.68
923.47	1710.46
923.64	1767.60
923.82	1914.65
923.99	1900.31
924.16	1836.62
924.33	1715.58
924.50	1880.44
924.68	2067.83
924.85	1712.72
925.02	1807.54
925.19	1972.60
925.36	1881.06
925.54	1854.03
925.71	1823.51
925.88	2247.85
926.05	1815.93
926.22	1725.21
926.40	1831.91
926.57	1904.82
926.74	1929.80
926.91	1778.87
927.08	1952.12
927.26	1989.81
927.43	1888.23
927.60	1757.57
927.77	1821.05
927.94	2070.50
928.11	2017.86
928.29	1688.55
928.46	1808.56
928.63	1767.81
928.80	1843.17
928.97	1883.93
929.14	1743.03
929.32	2140.13
929.49	1878.19
929.66	1765.35
929.83	1685.48
930.00	1819.42
930.17	1921.61
930.35	1706.37
930.52	1784.60
930.69	2048.99
930.86	1741.59
931.03	1866.72
931.20	1614.62
931.37	1996.97
931.55	1862.83
931.72	1863.65
931.89	1693.47
932.06	1747.53
932.23	2064.35
932.40	1884.13
932.57	1856.28
932.74	2038.75
932.92	2005.17
933.09	1916.69
933.26	1550.72
933.43	1809.79
933.60	1908.91
933.77	1824.74
933.94	1842.97
934.11	1841.53
934.29	1890.28
934.46	1694.69
934.63	1835.59
934.80	1703.91
934.97	1842.35
935.14	1786.85
935.31	1688.35
935.48	1756.54
935.65	1894.78
935.82	1854.23
936.00	1727.87
936.17	2042.64
936.34	1846.24
936.51	1891.91
936.68	1696.33
936.85	1878.81
937.02	1904.61
937.19	1863.45
937.36	1804.47
937.53	1918.74
937.70	1948.85
937.87	1826.17
938.05	1877.78
938.22	1878.19
938.39	1758.80
938.56	1824.54
938.73	1731.35
938.90	1835.18
939.07	1790.13
939.24	1856.28
939.41	1656.40
939.58	1928.37
939.75	1934.10
939.92	1746.71
940.09	1928.98
940.26	1835.59
940.43	1980.39
940.60	1780.09
940.77	1798.73
940.95	1906.25
941.12	1967.69
941.29	1760.23
941.46	1832.52
941.63	2016.02
941.80	2049.81
941.97	1716.20
942.14	1685.89
942.31	1954.99
942.48	1860.17
942.65	1853.00
942.82	1819.83
942.99	1926.73
943.16	1876.55
943.33	1737.09
943.50	1753.27
943.67	1971.99
943.84	2024.62
944.01	1775.38
944.18	1716.20
944.35	2073.16
944.52	1791.36
944.69	1838.46
944.86	1685.07
945.03	1963.59
945.20	2158.56
945.37	1628.14
945.54	1803.24
945.71	2033.63
945.88	2066.40
946.05	1748.76
946.22	1717.63
946.39	2041.62
946.56	1867.95
946.73	1692.24
946.90	1726.85
947.07	1806.92
947.24	1829.86
947.41	1627.11
947.58	1908.09
947.75	1973.42
947.92	1910.55
948.09	1592.30
948.26	1659.26
948.43	1916.49
948.60	2101.01
948.77	1759.00
948.94	1765.14
949.11	1953.15
949.27	1903.59
949.44	1778.05
949.61	1755.72
949.78	1891.09
949.95	2011.11
950.12	1699.40
950.29	1718.45
950.46	1785.01
950.63	1991.44
950.80	1747.12
950.97	1804.67
951.14	1964.82
951.31	1839.28
951.48	1771.29
951.65	1712.51
951.82	2110.43
951.99	1900.52
952.15	1670.73
952.32	1777.64
952.49	1789.92
952.66	1811.43
952.83	1756.54
953.00	1730.74
953.17	1858.74
953.34	1973.22
953.51	1820.44
953.68	1784.19
953.85	1993.90
954.02	1999.23
954.18	1804.06
954.35	1820.23
954.52	1751.22
954.69	1903.38
954.86	1637.76
955.03	1808.36
955.20	1967.69
955.37	1866.93
955.54	1758.59
955.71	1753.88
955.87	1929.39
956.04	2089.75
956.21	1809.18
956.38	1745.07
956.55	1876.14
956.72	2196.45
956.89	1846.24
957.06	1748.56
957.23	1800.16
957.39	2012.54
957.56	1774.97
957.73	1726.03
957.90	1629.98
958.07	2101.22
958.24	1811.63
958.41	1781.32
958.57	1975.47
958.74	1868.36
958.91	1709.85
959.08	1783.37
959.25	1943.73
959.42	1854.64
959.59	1824.94
959.75	1797.09
959.92	2026.06
960.09	2003.94
960.26	1757.57
960.43	1836.00
960.60	1893.35
960.76	1847.68
960.93	1683.64
961.10	1829.04
961.27	1978.13
961.44	1838.05
961.61	1709.85
961.77	1732.79
961.94	1873.28
962.11	1976.09
962.28	1776.20
962.45	1698.38
962.62	1851.57
962.78	1991.44
962.95	1712.72
963.12	1770.88
963.29	1942.70
963.46	2176.99
963.62	1841.94
963.79	1784.60
963.96	2165.32
964.13	1846.86
964.30	1876.76
964.46	1789.72
964.63	1750.19
964.80	2173.71
964.97	1621.38
965.14	1845.42
965.30	1894.37
965.47	1984.28
965.64	1902.97
965.81	1906.45
965.98	2081.35
966.14	1876.96
966.31	1773.75
966.48	1777.84
966.65	2033.84
966.81	1937.38
966.98	1773.95
967.15	1809.79
967.32	1873.48
967.49	1759.61
967.65	1606.02
967.82	1662.13
967.99	1842.35
968.16	1679.33
968.32	1948.03
968.49	1763.71
968.66	1843.99
968.83	2075.21
968.99	1821.05
969.16	1674.83
969.33	2029.95
969.50	1942.91
969.66	1867.75
969.83	1971.37
970.00	1954.58
970.17	1936.76
970.33	1753.47
970.50	1694.49
970.67	2074.80
970.84	2045.51
971.00	1706.78
971.17	1705.75
971.34	1965.64
971.50	1893.55
971.67	1895.19
971.84	1830.68
972.01	1730.12
972.17	1607.25
972.34	1730.53
972.51	1860.58
972.67	2002.30
972.84	1910.96
973.01	1735.04
973.18	1762.28
973.34	1966.46
973.51	1765.35
973.68	1783.78
973.84	1829.04
974.01	1840.30
974.18	2078.89
974.34	1831.09
974.51	1839.69
974.68	1770.67
974.85	2105.72
975.01	1902.15
975.18	1810.20
975.35	1882.08
975.51	1798.73
975.68	1669.91
975.85	1922.43
976.01	1795.86
976.18	2064.15
976.35	1785.62
976.51	1749.99
976.68	2056.57
976.85	1995.54
977.01	1800.37
977.18	1871.02
977.35	1938.40
977.51	1746.30
977.68	1627.52
977.85	1687.32
978.01	1984.89
978.18	1947.00
978.35	1814.50
978.51	1798.94
978.68	1990.42
978.85	2055.34
979.01	1786.03
979.18	1818.39
979.34	1852.80
979.51	1893.14
979.68	1729.92
979.84	1826.99
980.01	2220.82
980.18	1881.88
980.34	1746.10
980.51	1857.92
980.67	1955.40
980.84	1982.84
981.01	1829.25
981.17	1850.13
981.34	1672.99
981.51	1960.11
981.67	1731.56
981.84	1897.65
982.00	1931.85
982.17	1869.39
982.34	1650.66
982.50	1597.01
982.67	2080.94
982.83	1793.20
983.00	1689.37
983.17	1606.22
983.33	1999.84
983.50	1680.77
983.66	1693.06
983.83	1610.32
984.00	1805.49
984.16	1880.65
984.33	1623.22
984.49	1598.85
984.66	1767.19
984.83	1950.49
984.99	1642.06
985.16	1603.35
985.32	1952.53
985.49	1996.36
985.65	1743.23
985.82	1596.39
985.99	2035.27
986.15	1877.17
986.32	1684.86
986.48	1656.19
986.65	1821.67
986.81	1979.36
986.98	1615.64
987.14	1710.05
987.31	1868.98
987.48	1691.01
987.64	1544.58
987.81	1590.25
987.97	2142.38
988.14	1769.04
988.30	1624.65
988.47	1500.34
988.63	1918.13
988.80	1730.74
988.96	1680.77
989.13	1719.06
989.30	1831.50
989.46	1966.25
989.63	1574.68
989.79	1563.21
989.96	1862.22
990.12	2022.57
990.29	1668.68
990.45	1688.35
990.62	1882.70
990.78	2025.24
990.95	1761.66
991.11	1634.28
991.28	1800.37
991.44	1945.78
991.61	1550.93
991.77	1715.17
991.94	1872.46
992.10	2034.45
992.27	1705.75
992.43	1684.45
992.60	1930.82
992.76	1818.39
992.93	1777.43
993.09	1612.78
993.26	2025.44
993.42	2089.13
993.59	1626.91
993.75	1559.32
993.92	1774.97
994.08	1758.39
994.25	1706.78
994.41	1607.04
994.58	1972.81
994.74	2053.91
994.91	1621.58
995.07	1706.98
995.24	1857.51
995.40	1859.97
995.56	1780.50
995.73	1722.96
995.89	2063.12
996.06	1851.98
996.22	1627.93
996.39	1576.12
996.55	1846.65
996.72	1907.68
996.88	1581.24
997.05	1610.11
997.21	2096.92
997.37	1937.58
997.54	1717.43
997.70	1656.60
997.87	1889.87
998.03	1876.14
998.20	1543.96
998.36	1572.02
998.52	1952.94
998.69	1966.87
998.85	1562.40
999.02	1668.89
999.18	1980.80
999.35	1968.92
999.51	1679.33
999.67	1681.18
999.84	1757.77
1000.00	1954.79
1000.17	1708.83
1000.33	1597.01
1000.49	1830.27
1000.66	1845.42
1000.82	1616.05
1000.99	1704.73
1001.15	2052.06
1001.31	1816.96
1001.48	1650.46
1001.64	1733.40
1001.81	1855.46
1001.97	2147.30
1002.13	1647.18
1002.30	1662.34
1002.46	2044.49
1002.63	1843.79
1002.79	1727.87
1002.95	1649.84
1003.12	2011.31
1003.28	1907.89
1003.45	1639.81
1003.61	1614.82
1003.77	1885.36
1003.94	1714.56
1004.10	1671.96
1004.26	1716.20
1004.43	1920.59
1004.59	2095.48
1004.75	1648.82
1004.92	1606.84
1005.08	1787.47
1005.25	1907.68
1005.41	1622.40
1005.57	1714.97
1005.74	2017.86
1005.90	1810.81
1006.06	1721.93
1006.23	1637.15
1006.39	1959.09
1006.55	2215.29
1006.72	1809.59
1006.88	1595.37
1007.04	1757.16
1007.21	1828.84
1007.37	1661.93
1007.53	1665.61
1007.70	2045.92
1007.86	1976.70
1008.02	1712.51
1008.19	1617.69
1008.35	1912.80
1008.51	1763.92
1008.68	1650.25
1008.84	1566.29
1009.00	1761.66
1009.17	1977.72
1009.33	1747.12
1009.49	1735.65
1009.65	1792.38
1009.82	1896.62
1009.98	1684.45
1010.14	1545.19
1010.31	1959.50
1010.47	1919.97
1010.63	1693.87
1010.80	1678.52
1010.96	1928.37
1011.12	1844.81
1011.28	1665.00
1011.45	1665.41
1011.61	2181.70
1011.77	1774.16
1011.94	1623.42
1012.10	1594.55
1012.26	1756.54
1012.42	1798.12
1012.59	1700.63
1012.75	1689.57
1012.91	1824.54
1013.07	1973.83
1013.24	1597.83
1013.40	1637.15
1013.56	1895.80
1013.72	1824.33
1013.89	1736.68
1014.05	1734.63
1014.21	2130.30
1014.37	2165.11
1014.54	1687.53
1014.70	1614.00
1014.86	1841.94
1015.02	1734.83
1015.19	1655.99
1015.35	1590.86
1015.51	1828.84
1015.67	1811.22
1015.84	1631.41
1016.00	1629.16
1016.16	1998.41
1016.32	1976.29
1016.49	1608.47
1016.65	1629.57
1016.81	1876.96
1016.97	1909.73
1017.14	1741.39
1017.30	1648.41
1017.46	1820.44
1017.62	1916.90
1017.78	1718.86
1017.95	1613.18
1018.11	1968.51
1018.27	2162.04
1018.43	1751.01
1018.59	1713.74
1018.76	1953.56
1018.92	2191.12
1019.08	1618.92
1019.24	1650.66
1019.40	2032.81
1019.57	1905.63
1019.73	1738.11
1019.89	1643.70
1020.05	1894.99
1020.21	2106.75
1020.38	1637.35
1020.54	1790.95
1020.70	1950.08
1020.86	1964.00
1021.02	1657.63
1021.18	1634.89
1021.35	1813.48
1021.51	1965.85
1021.67	1798.12
1021.83	1666.64
1021.99	1840.51
1022.15	1943.32
1022.32	1750.19
1022.48	1685.27
1022.64	2053.70
1022.80	2060.05
1022.96	1704.52
1023.12	1592.30
1023.29	1961.13
1023.45	1919.36
1023.61	1636.53
1023.77	1795.66
1023.93	1890.68
1024.09	1772.52
1024.25	1622.20
1024.42	1608.27
1024.58	1808.15
1024.74	1897.44
1024.90	1669.09
1025.06	1725.21
1025.22	1801.39
1025.38	2082.99
1025.54	1606.22
1025.71	1748.15
1025.87	1939.22
1026.03	1945.37
1026.19	1618.10
1026.35	1757.98
1026.51	1951.30
1026.67	1868.57
1026.83	1683.02
1026.99	1759.00
1027.16	1931.85
1027.32	1864.27
1027.48	1695.51
1027.64	1626.29
1027.80	1943.93
1027.96	1880.24
1028.12	1675.65
1028.28	1625.68
1028.44	1915.47
1028.60	2044.08
1028.77	1780.71
1028.93	1704.93
1029.09	1827.81
1029.25	1736.47
1029.41	1689.37
1029.57	1741.80
1029.73	1909.12
1029.89	2054.52
1030.05	1770.26
1030.21	1738.11
1030.37	2185.18
1030.53	1972.60
1030.69	1687.12
1030.85	1573.45
1031.02	1788.08
1031.18	1862.63
1031.34	1683.23
1031.50	1717.84
1031.66	1755.11
1031.82	2045.51
1031.98	1689.57
1032.14	1607.25
1032.30	1762.07
1032.46	1982.43
1032.62	1748.56
1032.78	1603.76
1032.94	1795.66
1033.10	1821.05
1033.26	1723.57
1033.42	1755.11
1033.58	2143.20
1033.74	1803.03
1033.90	1659.06
1034.06	1814.50
1034.22	2176.99
1034.38	1994.31
1034.54	1686.71
1034.70	1692.24
1034.86	2092.00
>>>>>End Processed Spectral Data<<<<<
