SpectraSuite Data File
++++++++++++++++++++++++++++++++++++
Date: Thu Mar 30 14:36:10 PDT 2017
User: UCSD _CER
Dark Spectrum Present: No
Reference Spectrum Present: No
Number of Sampled Component Spectra: 1
Spectrometers: USB4C00073
Integration Time (usec): 380000 (USB4C00073)
Spectra Averaged: 10 (USB4C00073)
Boxcar Smoothing: 0 (USB4C00073)
Correct for Electrical Dark: No (USB4C00073)
Strobe/Lamp Enabled: No (USB4C00073)
Correct for Detector Non-linearity: No (USB4C00073)
Correct for Stray Light: No (USB4C00073)
Number of Pixels in Processed Spectrum: 3648
>>>>>Begin Processed Spectral Data<<<<<
345.37	1276.50
345.58	1276.50
345.80	1276.50
346.01	1273.02
346.22	1236.36
346.43	2075.82
346.65	1927.34
346.86	2479.07
347.07	2410.46
347.28	1882.90
347.50	1847.68
347.71	2188.25
347.92	1904.61
348.13	1817.37
348.35	1822.49
348.56	2160.61
348.77	1973.22
348.98	1859.56
349.20	1690.39
349.41	2188.87
349.62	2351.68
349.83	1956.01
350.05	1830.47
350.26	2238.23
350.47	2431.96
350.68	1866.52
350.90	1773.75
351.11	2436.26
351.32	2409.44
351.53	1870.82
351.75	1812.25
351.96	2212.42
352.17	2178.63
352.38	1955.40
352.60	1945.57
352.81	2221.43
353.02	2514.50
353.23	1836.41
353.44	1884.34
353.66	2121.90
353.87	2142.38
354.08	1939.22
354.29	1853.00
354.51	2053.91
354.72	2141.15
354.93	1824.74
355.14	1856.89
355.35	1935.13
355.57	2361.51
355.78	1885.77
355.99	1980.59
356.20	2206.89
356.42	2158.35
356.63	1978.95
356.84	1875.73
357.05	2375.03
357.26	2609.52
357.48	2007.83
357.69	1929.39
357.90	2256.25
358.11	2104.49
358.32	1894.37
358.54	1903.18
358.75	2134.80
358.96	2327.93
359.17	1871.23
359.38	1891.50
359.60	2281.64
359.81	2153.44
360.02	1878.81
360.23	1814.71
360.44	2046.54
360.66	2320.14
360.87	1826.58
361.08	1817.78
361.29	2221.23
361.50	2176.99
361.72	1866.31
361.93	1965.85
362.14	2207.51
362.35	1888.02
362.56	2023.39
362.77	1732.17
362.99	2248.06
363.20	2164.70
363.41	1934.92
363.62	1722.55
363.83	2253.58
364.05	2329.97
364.26	1781.53
364.47	1835.80
364.68	2374.41
364.89	2060.46
365.10	1789.92
365.32	1892.12
365.53	2015.61
365.74	2070.29
365.95	1845.02
366.16	1723.37
366.37	2130.30
366.59	2114.32
366.80	1869.80
367.01	1761.05
367.22	2522.07
367.43	2704.96
367.64	1918.74
367.86	1860.37
368.07	2253.58
368.28	2370.32
368.49	1784.19
368.70	1920.79
368.91	2104.08
369.12	2141.15
369.34	1798.12
369.55	1771.49
369.76	2180.06
369.97	2080.12
370.18	1765.14
370.39	1823.92
370.60	1930.62
370.82	1982.84
371.03	1889.25
371.24	1829.66
371.45	2285.12
371.66	2299.46
371.87	1880.44
372.08	1892.12
372.30	2013.77
372.51	2345.13
372.72	2021.96
372.93	1881.67
373.14	2455.72
373.35	2065.17
373.56	1824.33
373.78	1879.01
373.99	2321.37
374.20	2687.55
374.41	1851.77
374.62	1863.86
374.83	2464.32
375.04	2116.99
375.25	1898.88
375.47	1903.59
375.68	2141.36
375.89	2299.87
376.10	1904.82
376.31	1942.70
376.52	2284.71
376.73	2242.73
376.94	1930.62
377.15	1832.32
377.37	2188.87
377.58	2140.95
377.79	1772.52
378.00	1805.28
378.21	2225.53
378.42	2295.16
378.63	1915.47
378.84	1940.45
379.05	2368.07
379.27	2178.63
379.48	1983.66
379.69	1842.76
379.90	2384.65
380.11	1867.54
380.32	1902.97
380.53	2029.33
380.74	2448.76
380.95	2192.96
381.16	1950.08
381.37	1916.08
381.59	2439.95
381.80	2313.80
382.01	1844.20
382.22	1769.04
382.43	2258.09
382.64	2188.25
382.85	1818.39
383.06	1948.44
383.27	2274.06
383.48	2108.79
383.69	1930.21
383.91	1823.10
384.12	2325.88
384.33	2313.39
384.54	1938.81
384.75	1841.33
384.96	2760.66
385.17	2392.03
385.38	1940.04
385.59	1911.78
385.80	2342.06
386.01	2493.61
386.22	1999.84
386.43	1910.14
386.64	2617.10
386.86	2171.67
387.07	2016.43
387.28	1825.76
387.49	2136.65
387.70	2452.85
387.91	2029.54
388.12	1915.87
388.33	2278.77
388.54	2108.38
388.75	1841.74
388.96	1963.18
389.17	2096.71
389.38	2144.63
389.59	1957.45
389.80	1994.72
390.01	2155.49
390.22	2124.15
390.43	2003.94
390.64	1781.94
390.86	2287.17
391.07	2362.95
391.28	1872.66
391.49	1939.22
391.70	1975.88
391.91	2032.20
392.12	1865.49
392.33	1982.64
392.54	2215.49
392.75	2176.38
392.96	1950.69
393.17	1866.31
393.38	2596.21
393.59	2412.71
393.80	1829.45
394.01	1932.26
394.22	2218.56
394.43	2517.98
394.64	1862.83
394.85	1994.11
395.06	2205.05
395.27	2232.70
395.48	1907.27
395.69	1790.54
395.90	2120.06
396.11	2202.59
396.32	1880.85
396.53	1993.90
396.74	2135.01
396.95	2363.77
397.16	1833.34
397.37	1751.63
397.58	2308.27
397.79	2202.80
398.00	1925.71
398.21	1899.08
398.42	2226.35
398.63	2570.00
398.84	1871.23
399.05	1860.58
399.26	2420.29
399.47	2232.08
399.68	1712.10
399.89	1803.65
400.10	1974.24
400.31	2110.84
400.52	1932.26
400.73	1900.31
400.94	1956.22
401.15	2270.38
401.36	1936.76
401.57	1954.17
401.78	2427.46
401.99	2357.01
402.20	1822.28
402.41	2034.25
402.62	2462.07
402.83	2136.65
403.04	1851.36
403.25	2093.02
403.46	2257.89
403.67	2468.21
403.88	1946.59
404.09	1929.80
404.30	2163.68
404.51	2114.32
404.72	1837.23
404.93	2071.11
405.14	2072.75
405.35	2149.75
405.56	1923.04
405.77	1841.53
405.98	2258.30
406.19	2181.09
406.40	1881.67
406.61	1901.95
406.82	2111.46
407.03	2655.19
407.24	1871.43
407.45	1974.24
407.66	2291.27
407.87	2381.79
408.08	1957.86
408.29	1964.00
408.49	2299.87
408.70	2154.87
408.91	1876.76
409.12	2015.61
409.33	2017.45
409.54	2432.78
409.75	1856.07
409.96	1902.36
410.17	2383.02
410.38	2178.22
410.59	1865.09
410.80	1995.75
411.01	2155.08
411.22	2145.25
411.43	1953.35
411.64	1853.82
411.85	2030.97
412.06	2050.84
412.27	1677.70
412.47	1867.75
412.68	2165.73
412.89	2272.63
413.10	1883.52
413.31	1777.23
413.52	2494.43
413.73	2527.60
413.94	1875.73
414.15	2026.67
414.36	2097.32
414.57	2042.64
414.78	1863.86
414.99	2004.55
415.19	2557.71
415.40	2592.52
415.61	2452.85
415.82	2370.52
416.03	2608.70
416.24	2465.75
416.45	2089.75
416.66	1891.30
416.87	1947.41
417.08	2301.30
417.29	1850.75
417.50	1997.59
417.70	2359.26
417.91	2306.83
418.12	2072.75
418.33	2064.15
418.54	2421.93
418.75	2606.65
418.96	2375.44
419.17	2515.93
419.38	3152.23
419.59	3048.81
419.79	2808.38
420.00	2589.66
420.21	3152.23
420.42	2526.37
420.63	2056.57
420.84	2015.61
421.05	2211.60
421.26	2187.23
421.47	1802.21
421.67	2278.16
421.88	2077.25
422.09	2037.32
422.30	2148.73
422.51	1931.23
422.72	2542.96
422.93	2363.15
423.14	1969.33
423.35	1811.02
423.55	1967.69
423.76	2037.32
423.97	1901.54
424.18	1774.56
424.39	2163.88
424.60	2351.48
424.81	1966.25
425.02	2130.50
425.22	2401.86
425.43	2411.89
425.64	2474.36
425.85	2330.79
426.06	2924.70
426.27	2719.29
426.48	2410.05
426.68	2372.78
426.89	2656.22
427.10	2787.49
427.31	2167.98
427.52	1986.73
427.73	2441.18
427.94	2354.75
428.14	2096.51
428.35	1977.31
428.56	2443.43
428.77	2354.75
428.98	1941.47
429.19	2043.67
429.40	2236.38
429.60	2267.72
429.81	2193.17
430.02	2109.20
430.23	2255.84
430.44	2382.20
430.65	1884.75
430.85	1929.60
431.06	2274.88
431.27	1902.15
431.48	1908.91
431.69	1973.01
431.90	2175.97
432.10	2220.82
432.31	2026.87
432.52	2077.05
432.73	2897.47
432.94	2766.40
433.15	2371.96
433.35	2149.14
433.56	2606.86
433.77	2438.93
433.98	2665.02
434.19	2744.69
434.40	3171.28
434.60	3131.75
434.81	2916.92
435.02	2548.70
435.23	2561.60
435.44	2384.86
435.64	2003.94
435.85	1941.47
436.06	2183.13
436.27	2147.70
436.48	1894.37
436.68	1984.07
436.89	2651.91
437.10	2524.33
437.31	2105.72
437.52	2210.17
437.73	2379.94
437.93	2338.78
438.14	2005.99
438.35	1839.28
438.56	2150.57
438.77	2159.79
438.97	2123.13
439.18	1987.14
439.39	2583.10
439.60	2202.39
439.80	2115.55
440.01	2149.34
440.22	2284.92
440.43	2411.28
440.64	1931.03
440.84	2018.07
441.05	2016.63
441.26	2715.20
441.47	2020.73
441.68	2023.39
441.88	2437.49
442.09	2546.44
442.30	2580.24
442.51	2629.39
442.71	2643.93
442.92	2603.79
443.13	2225.12
443.34	2082.58
443.55	2141.77
443.75	2325.06
443.96	1910.96
444.17	1833.14
444.38	2398.99
444.58	2051.45
444.79	2003.53
445.00	1970.35
445.21	2131.73
445.41	2126.20
445.62	1765.35
445.83	2025.03
446.04	2178.01
446.24	1939.43
446.45	1765.14
446.66	1926.73
446.87	2236.18
447.07	2109.20
447.28	2175.15
447.49	1958.88
447.70	2370.52
447.90	2395.30
448.11	2014.59
448.32	2070.50
448.53	2451.62
448.73	2445.07
448.94	1913.83
449.15	2076.85
449.36	2198.49
449.56	2245.80
449.77	1902.97
449.98	1814.30
450.19	2178.01
450.39	2222.66
450.60	2127.63
450.81	2129.68
451.02	2289.63
451.22	2549.93
451.43	1949.67
451.64	1981.20
451.84	2176.38
452.05	2483.57
452.26	1995.75
452.47	1990.63
452.67	2099.99
452.88	2403.70
453.09	1842.15
453.30	1864.06
453.50	2333.05
453.71	2535.79
453.92	2051.04
454.12	2206.69
454.33	2214.06
454.54	2292.09
454.75	1957.65
454.95	1932.46
455.16	2246.01
455.37	2337.14
455.57	2042.64
455.78	1950.69
455.99	2196.04
456.19	2216.72
456.40	1880.24
456.61	1932.67
456.82	2184.77
457.02	2342.47
457.23	2111.46
457.44	2252.97
457.64	2243.14
457.85	2409.84
458.06	2103.88
458.26	2219.59
458.47	2303.96
458.68	2458.79
458.89	2023.80
459.09	2179.45
459.30	2628.77
459.51	2266.08
459.71	1869.18
459.92	1932.05
460.13	2444.87
460.33	2746.53
460.54	2186.62
460.75	2194.60
460.95	2225.32
461.16	2369.70
461.37	2019.09
461.57	2006.80
461.78	2242.73
461.99	2009.06
462.19	2242.94
462.40	1894.78
462.61	2599.90
462.81	2413.12
463.02	1900.31
463.23	1936.56
463.43	2334.07
463.64	2102.44
463.85	3247.26
464.05	1905.63
464.26	2741.62
464.47	2426.23
464.67	2115.76
464.88	2091.80
465.09	2192.15
465.29	2366.84
465.50	2202.80
465.71	2140.13
465.91	2198.70
466.12	2214.47
466.33	2046.13
466.53	1920.18
466.74	2443.64
466.94	2174.33
467.15	2018.48
467.36	2133.16
467.56	2016.84
467.77	2235.97
467.98	2006.39
468.18	1949.26
468.39	2112.27
468.60	2522.89
468.80	1954.38
469.01	1877.37
469.21	2279.59
469.42	2443.84
469.63	2025.65
469.83	1917.92
470.04	2341.65
470.25	2475.18
470.45	2106.13
470.66	1973.63
470.86	2245.80
471.07	2139.92
471.28	2056.16
471.48	2039.78
471.69	2152.62
471.90	2976.11
472.10	2149.75
472.31	2110.02
472.51	2321.17
472.72	2342.88
472.93	2213.44
473.13	2361.51
473.34	2576.55
473.54	2496.88
473.75	2206.48
473.96	2277.96
474.16	2246.21
474.37	2338.78
474.57	2118.83
474.78	1934.72
474.99	2290.24
475.19	2257.48
475.40	1974.86
475.60	1954.38
475.81	2595.60
476.02	2358.03
476.22	2258.70
476.43	2313.59
476.63	2277.75
476.84	2479.68
477.05	1873.28
477.25	1927.14
477.46	2747.15
477.66	2227.58
477.87	1898.26
478.08	1943.52
478.28	2354.14
478.49	2154.46
478.69	1941.06
478.90	1951.51
479.10	2277.55
479.31	2470.06
479.52	2039.37
479.72	2335.50
479.93	2819.85
480.13	2764.55
480.34	2685.09
480.54	2740.80
480.75	2508.97
480.96	2624.68
481.16	2087.49
481.37	2171.87
481.57	2456.54
481.78	2419.47
481.98	2280.21
482.19	2153.44
482.40	2573.27
482.60	2325.47
482.81	2101.01
483.01	1860.78
483.22	2380.15
483.42	2333.25
483.63	2053.29
483.83	2008.03
484.04	2246.62
484.24	2498.11
484.45	2289.63
484.66	2080.33
484.86	2416.81
485.07	2139.31
485.27	2050.22
485.48	1964.41
485.68	2433.60
485.89	2073.16
486.09	2114.73
486.30	1972.40
486.50	2260.75
486.71	2191.53
486.91	2072.54
487.12	2442.20
487.33	3179.27
487.53	3308.08
487.74	2963.82
487.94	2864.49
488.15	2733.22
488.35	2586.58
488.56	2235.15
488.76	2069.88
488.97	2320.14
489.17	2417.63
489.38	2150.37
489.58	2091.18
489.79	2390.39
489.99	2308.27
490.20	2022.98
490.40	2140.95
490.61	2289.01
490.81	2120.06
491.02	2049.40
491.22	2035.07
491.43	2335.71
491.63	2172.89
491.84	2095.89
492.04	1891.30
492.25	2291.27
492.45	2177.40
492.66	2023.80
492.86	1950.90
493.07	2213.44
493.27	2659.08
493.48	1900.92
493.68	1966.46
493.89	2172.08
494.09	2312.57
494.30	1991.85
494.50	2218.15
494.71	2272.22
494.91	1950.69
495.12	1981.20
495.32	2037.93
495.53	2211.81
495.73	2016.23
495.94	2165.52
496.14	1999.02
496.35	2719.09
496.55	2302.33
496.76	2026.87
496.96	2096.92
497.17	2193.99
497.37	2323.42
497.58	1977.93
497.78	1906.04
497.98	2129.68
498.19	2165.73
498.39	1979.16
498.60	2026.47
498.80	1903.79
499.01	2305.40
499.21	1891.91
499.42	2038.55
499.62	2131.32
499.83	2584.74
500.03	1953.97
500.24	2215.29
500.44	2582.49
500.64	2558.12
500.85	2157.74
501.05	2232.08
501.26	2009.88
501.46	2499.34
501.67	2018.68
501.87	1928.78
502.08	2094.87
502.28	2155.08
502.48	2104.29
502.69	2096.51
502.89	1946.80
503.10	2073.57
503.30	2064.76
503.51	2026.47
503.71	1933.28
503.92	2269.35
504.12	2054.73
504.32	1933.08
504.53	2325.67
504.73	2296.18
504.94	2143.61
505.14	2271.40
505.35	2375.64
505.55	2369.70
505.75	2146.68
505.96	2323.83
506.16	2708.23
506.37	2216.72
506.57	1998.20
506.78	2129.48
506.98	2412.51
507.18	1968.71
507.39	1924.68
507.59	2013.77
507.80	2080.33
508.00	2216.52
508.20	2189.69
508.41	1981.61
508.61	2427.25
508.82	2352.71
509.02	2133.16
509.22	1934.10
509.43	2012.74
509.63	2062.10
509.84	2015.20
510.04	1843.79
510.24	2413.74
510.45	2287.58
510.65	1860.99
510.86	2033.02
511.06	1966.05
511.26	2323.83
511.47	2132.14
511.67	1942.29
511.88	2252.77
512.08	2362.74
512.28	1906.45
512.49	2053.50
512.69	2214.88
512.90	2223.48
513.10	1992.88
513.30	2048.99
513.51	2319.94
513.71	2556.89
513.91	2152.82
514.12	2152.21
514.32	2411.48
514.53	2122.31
514.73	2118.01
514.93	2040.39
515.14	2192.76
515.34	2429.30
515.54	2011.11
515.75	2126.20
515.95	2327.72
516.15	2499.55
516.36	2047.35
516.56	2054.11
516.77	1845.83
516.97	2261.37
517.17	2017.66
517.38	2102.44
517.58	2475.38
517.78	2103.26
517.99	2150.16
518.19	2031.38
518.39	2429.91
518.60	2141.36
518.80	1939.63
519.00	2091.39
519.21	2169.41
519.41	2533.34
519.61	1935.94
519.82	2094.05
520.02	2216.31
520.22	2149.55
520.43	1970.76
520.63	2079.71
520.83	2046.54
521.04	1922.43
521.24	2089.54
521.44	2030.15
521.65	2032.81
521.85	2297.82
522.05	1957.04
522.26	1947.41
522.46	2521.25
522.66	2331.61
522.87	1983.05
523.07	2177.61
523.27	2105.11
523.48	2435.85
523.68	2007.83
523.88	2067.42
524.09	2393.67
524.29	2210.17
524.49	1856.07
524.70	2088.11
524.90	2433.60
525.10	2269.76
525.31	1880.04
525.51	1874.71
525.71	2313.39
525.91	2265.26
526.12	1984.07
526.32	1917.31
526.52	2087.90
526.73	2070.50
526.93	2066.20
527.13	1883.72
527.34	2165.32
527.54	2188.25
527.74	2048.79
527.94	1910.55
528.15	2024.62
528.35	2174.74
528.55	2126.00
528.76	2054.11
528.96	1902.77
529.16	2345.74
529.36	2117.80
529.57	1905.23
529.77	2411.69
529.97	2032.20
530.18	2084.42
530.38	1994.31
530.58	2246.01
530.78	2236.38
530.99	1946.39
531.19	2062.92
531.39	2033.43
531.60	2163.47
531.80	2042.85
532.00	2144.02
532.20	2256.45
532.41	2078.48
532.61	1984.69
532.81	1941.88
533.01	2122.31
533.22	2216.31
533.42	2135.62
533.62	1883.93
533.82	2442.20
534.03	2171.67
534.23	2119.24
534.43	1972.60
534.63	2111.66
534.84	2237.82
535.04	2122.72
535.24	2049.81
535.44	2682.84
535.65	2143.20
535.85	1996.77
536.05	1968.51
536.25	2202.18
536.46	2042.85
536.66	2173.30
536.86	2064.35
537.06	2320.35
537.27	2434.01
537.47	2059.03
537.67	2004.55
537.87	2468.01
538.08	2177.20
538.28	1906.04
538.48	1910.14
538.68	2144.43
538.88	2279.80
539.09	1866.31
539.29	2005.37
539.49	2327.11
539.69	2238.84
539.90	2109.61
540.10	1949.46
540.30	2420.49
540.50	2097.12
540.70	1856.48
540.91	1952.74
541.11	2322.60
541.31	2505.08
541.51	2097.32
541.72	2105.31
541.92	2250.51
542.12	2084.83
542.32	2066.20
542.52	2022.98
542.73	2073.36
542.93	2283.28
543.13	1997.79
543.33	2130.09
543.53	2325.06
543.74	2282.26
543.94	2017.86
544.14	2127.02
544.34	2437.08
544.54	2223.48
544.75	2134.39
544.95	2252.77
545.15	2366.22
545.35	2506.30
545.55	2183.54
545.75	2054.11
545.96	2604.61
546.16	2012.33
546.36	2025.24
546.56	2065.99
546.76	2409.64
546.97	2493.61
547.17	2043.26
547.37	2109.20
547.57	2110.84
547.77	2324.65
547.97	2102.65
548.18	2090.16
548.38	2182.52
548.58	2446.71
548.78	2017.86
548.98	2104.08
549.18	2380.15
549.39	2526.17
549.59	2150.57
549.79	2102.04
549.99	2474.97
550.19	2366.84
550.39	2233.92
550.60	2072.75
550.80	2233.72
551.00	2303.76
551.20	2015.41
551.40	2027.08
551.60	2281.44
551.80	2230.44
552.01	2092.00
552.21	2034.86
552.41	2254.81
552.61	2519.00
552.81	2115.96
553.01	1964.82
553.21	2252.77
553.42	2021.35
553.62	1992.06
553.82	1937.17
554.02	2478.25
554.22	2330.38
554.42	1920.79
554.62	2168.80
554.83	2511.63
555.03	2490.74
555.23	2141.36
555.43	2389.77
555.63	2353.12
555.83	2342.67
556.03	2182.52
556.23	1975.06
556.44	2258.30
556.64	2450.60
556.84	1834.37
557.04	2095.07
557.24	2243.75
557.44	2231.88
557.64	2101.42
557.84	1961.95
558.04	2137.87
558.25	2319.32
558.45	1931.23
558.65	2047.76
558.85	2218.56
559.05	1887.20
559.25	2047.56
559.45	2104.49
559.65	2615.46
559.85	3094.28
560.05	2155.69
560.26	2206.28
560.46	2299.66
560.66	2189.89
560.86	2099.78
561.06	2005.17
561.26	2501.80
561.46	2320.55
561.66	2025.24
561.86	2148.93
562.06	2076.44
562.26	2167.57
562.47	2082.99
562.67	1924.27
562.87	2286.97
563.07	1939.22
563.27	2045.72
563.47	2054.73
563.67	2099.99
563.87	2274.06
564.07	1990.01
564.27	2061.49
564.47	2223.89
564.67	2293.32
564.87	2054.11
565.08	2105.11
565.28	2133.16
565.48	2310.11
565.68	2114.32
565.88	2209.96
566.08	2560.37
566.28	2233.31
566.48	1915.26
566.68	2045.92
566.88	2204.64
567.08	2352.09
567.28	2075.00
567.48	2061.69
567.68	2272.43
567.88	1953.35
568.08	2064.35
568.28	2163.06
568.48	2166.96
568.68	2384.86
568.89	2080.53
569.09	1926.11
569.29	2335.91
569.49	2361.72
569.69	1955.61
569.89	1958.06
570.09	1904.82
570.29	2066.40
570.49	1927.55
570.69	1997.38
570.89	2315.43
571.09	2528.83
571.29	1919.56
571.49	2192.15
571.69	2267.72
571.89	2280.21
572.09	2030.77
572.29	2115.76
572.49	2327.72
572.69	2281.64
572.89	2093.64
573.09	1794.64
573.29	2195.22
573.49	2239.86
573.69	2041.21
573.89	2098.76
574.09	2112.89
574.29	2417.22
574.49	2060.26
574.69	1930.82
574.89	1985.71
575.09	2032.40
575.29	1940.86
575.49	2050.63
575.69	2251.74
575.89	2000.05
576.09	2059.85
576.29	2083.81
576.49	2011.92
576.69	2150.37
576.89	1999.84
577.09	2086.47
577.29	1938.20
577.49	2523.51
577.69	2005.17
577.89	2170.64
578.09	2222.05
578.29	1917.72
578.49	2052.47
578.69	1939.84
578.89	2359.26
579.09	2216.31
579.29	1982.23
579.49	2166.96
579.69	2141.97
579.89	2495.65
580.09	1825.15
580.29	1880.85
580.49	2092.61
580.69	2000.25
580.89	1998.20
581.09	1992.06
581.29	2139.51
581.49	2149.14
581.69	1939.84
581.89	1957.04
582.09	2033.43
582.28	2037.32
582.48	2117.80
582.68	2195.22
582.88	2460.02
583.08	2162.45
583.28	2086.68
583.48	2060.87
583.68	2071.52
583.88	2211.81
584.08	2046.33
584.28	2109.61
584.48	2552.59
584.68	2294.75
584.88	2028.92
585.08	2248.67
585.28	2380.76
585.48	2407.59
585.68	2144.63
585.87	2172.89
586.07	2298.44
586.27	2218.15
586.47	2104.08
586.67	2024.21
586.87	2165.73
587.07	2124.77
587.27	1966.05
587.47	2130.71
587.67	2537.23
587.87	2711.10
588.07	2182.32
588.27	2136.85
588.46	2469.03
588.66	2454.70
588.86	2129.68
589.06	2155.49
589.26	2427.46
589.46	2366.43
589.66	2003.53
589.86	1940.25
590.06	2152.82
590.26	2323.22
590.46	2071.73
590.66	2214.26
590.85	2206.07
591.05	2362.13
591.25	2060.67
591.45	2094.05
591.65	2349.63
591.85	2259.73
592.05	2043.46
592.25	2154.67
592.45	2408.00
592.64	2175.56
592.84	2114.94
593.04	1982.84
593.24	2661.34
593.44	2147.50
593.64	2091.80
593.84	2134.39
594.04	2140.13
594.24	2479.27
594.43	2034.86
594.63	2047.97
594.83	2394.08
595.03	2348.61
595.23	1983.25
595.43	1937.38
595.63	2075.41
595.83	2354.55
596.02	1829.66
596.22	2050.02
596.42	2241.50
596.62	2195.22
596.82	2010.29
597.02	2068.65
597.22	2449.37
597.41	2210.58
597.61	2022.57
597.81	2164.70
598.01	2323.22
598.21	2123.54
598.41	1930.82
598.61	1976.29
598.80	2231.67
599.00	2258.09
599.20	2219.18
599.40	2078.89
599.60	2147.50
599.80	2355.98
599.99	2170.23
600.19	2029.33
600.39	2238.63
600.59	2329.56
600.79	2168.39
600.99	2058.41
601.19	2503.85
601.38	2568.77
601.58	2152.42
601.78	1841.74
601.98	2321.99
602.18	2409.23
602.37	2514.09
602.57	2358.24
602.77	2668.91
602.97	2619.15
603.17	2553.41
603.37	2420.29
603.56	2648.02
603.76	2597.64
603.96	2343.70
604.16	2317.07
604.36	2608.29
604.56	2490.53
604.75	2123.74
604.95	2223.68
605.15	2549.11
605.35	2490.13
605.55	2146.89
605.74	2075.00
605.94	2481.32
606.14	2250.92
606.34	2081.97
606.54	2184.36
606.73	2135.83
606.93	2335.71
607.13	2007.42
607.33	2126.41
607.53	2485.62
607.72	2376.46
607.92	2148.52
608.12	2183.34
608.32	2157.94
608.51	2296.59
608.71	1919.15
608.91	2133.57
609.11	2322.60
609.31	2172.08
609.50	2051.66
609.70	2288.81
609.90	2380.76
610.10	2383.84
610.29	2044.69
610.49	1969.74
610.69	2358.65
610.89	2242.12
611.09	2095.28
611.28	2245.19
611.48	2414.96
611.68	2184.36
611.88	2037.52
612.07	1996.56
612.27	2337.76
612.47	2067.42
612.67	2055.55
612.86	2178.83
613.06	2173.71
613.26	1917.10
613.46	1985.51
613.65	2114.12
613.85	2689.19
614.05	2317.07
614.25	2164.50
614.44	2042.03
614.64	2234.95
614.84	2112.27
615.04	1996.56
615.23	2034.66
615.43	2295.57
615.63	2324.44
615.83	1986.73
616.02	1901.13
616.22	2327.52
616.42	2016.23
616.62	1989.40
616.81	2112.48
617.01	2290.24
617.21	2194.19
617.41	1950.08
617.60	2095.28
617.80	2303.15
618.00	2314.00
618.19	2174.53
618.39	2042.03
618.59	2278.37
618.79	2158.35
618.98	1897.85
619.18	2041.62
619.38	2574.09
619.57	2147.70
619.77	2013.77
619.97	1978.13
620.17	2059.03
620.36	1986.73
620.56	2212.01
620.76	1971.99
620.95	2006.80
621.15	2114.94
621.35	1969.74
621.54	2045.31
621.74	2190.10
621.94	2077.05
622.14	1919.56
622.33	1904.20
622.53	2149.75
622.73	2120.06
622.92	1900.52
623.12	2023.19
623.32	2543.37
623.51	2324.44
623.71	1900.72
623.91	2176.17
624.10	2041.62
624.30	2179.24
624.50	1883.93
624.69	1886.38
624.89	2874.73
625.09	2119.24
625.29	1830.68
625.48	1889.66
625.68	2219.59
625.88	2371.96
626.07	2073.36
626.27	1944.34
626.47	2081.76
626.66	1911.37
626.86	2053.09
627.06	1999.02
627.25	2184.36
627.45	2465.55
627.64	2010.70
627.84	2191.74
628.04	2061.28
628.23	2532.31
628.43	1895.60
628.63	1952.74
628.82	2112.89
629.02	2540.30
629.22	2091.80
629.41	2221.43
629.61	2209.35
629.81	2562.01
630.00	2017.04
630.20	1947.00
630.40	2229.83
630.59	2277.75
630.79	2071.52
630.98	2012.74
631.18	2170.64
631.38	2178.83
631.57	2164.29
631.77	1872.05
631.97	2214.88
632.16	2275.09
632.36	2046.54
632.56	2069.06
632.75	2244.98
632.95	2352.30
633.14	1900.31
633.34	2181.29
633.54	1889.66
633.73	2100.81
633.93	1991.65
634.12	1864.88
634.32	2649.05
634.52	2192.15
634.71	1851.16
634.91	2037.32
635.11	1985.10
635.30	2058.62
635.50	2041.21
635.69	1927.96
635.89	2520.64
636.09	2349.43
636.28	1953.56
636.48	1975.68
636.67	2324.65
636.87	2295.77
637.07	2095.48
637.26	2035.07
637.46	2263.42
637.65	2418.04
637.85	2144.63
638.04	2023.80
638.24	2147.91
638.44	2295.36
638.63	2102.44
638.83	2009.06
639.02	2289.42
639.22	2317.28
639.42	2019.71
639.61	1994.11
639.81	2238.23
640.00	2169.62
640.20	2145.86
640.39	2111.05
640.59	2628.16
640.79	2460.22
640.98	2314.41
641.18	2197.47
641.37	2380.97
641.57	2265.87
641.76	2222.46
641.96	1937.99
642.15	2285.94
642.35	2205.25
642.55	2167.16
642.74	1946.39
642.94	2350.66
643.13	2451.42
643.33	2012.33
643.52	1990.83
643.72	2121.08
643.91	2208.73
644.11	1943.32
644.31	1984.48
644.50	2097.12
644.70	2381.99
644.89	2062.10
645.09	2153.23
645.28	2237.82
645.48	2279.18
645.67	1958.68
645.87	1893.96
646.06	2147.30
646.26	2253.58
646.45	1864.27
646.65	1820.85
646.84	2554.43
647.04	2140.54
647.24	1913.01
647.43	2000.87
647.63	2241.71
647.82	2476.61
648.02	1930.42
648.21	2018.89
648.41	2447.94
648.60	2148.93
648.80	2139.10
648.99	2041.82
649.19	2081.97
649.38	1910.14
649.58	2052.88
649.77	2098.76
649.97	2403.91
650.16	2282.87
650.36	1819.83
650.55	2172.08
650.75	2252.15
650.94	2495.45
651.14	2056.98
651.33	2102.44
651.53	2493.20
651.72	2104.70
651.92	2019.30
652.11	1884.54
652.31	2288.81
652.50	2270.99
652.70	2048.17
652.89	1913.01
653.09	2501.39
653.28	2161.02
653.48	1844.61
653.67	1887.61
653.87	2735.47
654.06	2199.31
654.25	2280.21
654.45	1991.44
654.64	2115.35
654.84	2165.93
655.03	1832.11
655.23	2150.78
655.42	2311.34
655.62	2510.20
655.81	2147.70
656.01	1977.93
656.20	2360.90
656.40	2425.00
656.59	2083.60
656.79	2144.43
656.98	2236.79
657.17	2369.09
657.37	2033.22
657.56	2016.02
657.76	2265.46
657.95	2378.31
658.15	1713.13
658.34	2072.13
658.54	2200.75
658.73	1999.64
658.92	2039.98
659.12	2059.85
659.31	2300.07
659.51	2033.02
659.70	2157.33
659.90	1995.54
660.09	2390.80
660.29	2176.17
660.48	1985.92
660.67	2210.37
660.87	2129.07
661.06	2277.14
661.26	2135.83
661.45	2154.87
661.65	2243.75
661.84	2118.42
662.03	1966.46
662.23	2007.83
662.42	2538.66
662.62	1982.84
662.81	1915.87
663.00	1993.08
663.20	2251.33
663.39	2342.06
663.59	2206.89
663.78	2106.75
663.97	2266.08
664.17	2494.02
664.36	1986.94
664.56	2040.39
664.75	2390.59
664.94	2327.11
665.14	2138.90
665.33	2075.41
665.53	2224.71
665.72	2247.24
665.91	2204.84
666.11	2088.31
666.30	2258.30
666.50	2181.50
666.69	2155.28
666.88	2099.58
667.08	2368.07
667.27	2301.30
667.47	2172.28
667.66	2141.36
667.85	2447.73
668.05	2321.58
668.24	2056.57
668.43	2295.57
668.63	2197.06
668.82	2441.79
669.02	2161.22
669.21	2044.08
669.40	2004.35
669.60	2528.42
669.79	1913.21
669.98	2662.15
670.18	2069.68
670.37	1967.28
670.56	2017.45
670.76	2116.17
670.95	2165.52
671.15	2347.18
671.34	2028.92
671.53	2052.27
671.73	2101.83
671.92	2058.82
672.11	1941.27
672.31	1981.82
672.50	2238.63
672.69	1965.85
672.89	1798.53
673.08	2008.85
673.27	2299.05
673.47	2222.66
673.66	2059.23
673.85	1917.72
674.05	2235.36
674.24	2405.54
674.43	2197.06
674.63	2455.10
674.82	3038.98
675.01	2264.64
675.21	2459.61
675.40	2299.87
675.59	2359.26
675.79	2710.28
675.98	2235.77
676.17	2366.02
676.37	2398.79
676.56	2220.61
676.75	2103.88
676.95	2112.68
677.14	2170.23
677.33	2384.86
677.52	1907.68
677.72	1984.89
677.91	2229.01
678.10	1923.04
678.30	1942.91
678.49	1932.67
678.68	2573.07
678.88	1882.49
679.07	2168.18
679.26	1988.78
679.45	2513.68
679.65	2377.28
679.84	1830.47
680.03	1864.88
680.23	2102.85
680.42	2609.93
680.61	1906.25
680.81	1932.05
681.00	2150.16
681.19	2231.06
681.38	2108.18
681.58	2084.63
681.77	2108.59
681.96	2304.58
682.15	1924.27
682.35	2096.92
682.54	2260.34
682.73	1978.75
682.93	1919.36
683.12	1911.57
683.31	2311.54
683.50	2634.10
683.70	1905.63
683.89	2059.03
684.08	1993.08
684.27	2343.90
684.47	1896.42
684.66	1984.48
684.85	2549.11
685.04	2401.04
685.24	1919.77
685.43	1982.43
685.62	1906.25
685.81	2232.70
686.01	2233.92
686.20	2158.97
686.39	2224.30
686.58	2889.89
686.78	2434.63
686.97	2353.94
687.16	2572.86
687.35	2440.77
687.55	2200.13
687.74	2237.20
687.93	2169.21
688.12	2305.40
688.32	2167.77
688.51	1968.71
688.70	2309.08
688.89	2039.16
689.08	1891.50
689.28	2007.62
689.47	2189.48
689.66	2196.86
689.85	2114.73
690.05	1940.45
690.24	2039.98
690.43	2221.02
690.62	2049.81
690.81	1953.97
691.01	2208.73
691.20	2099.37
691.39	1871.43
691.58	2034.45
691.77	2495.25
691.97	2183.13
692.16	2065.58
692.35	1988.58
692.54	2081.56
692.73	2304.17
692.93	2136.03
693.12	2187.85
693.31	2367.45
693.50	2335.91
693.69	2201.36
693.89	2061.69
694.08	2484.80
694.27	2511.01
694.46	2074.18
694.65	2084.63
694.85	2359.67
695.04	2349.22
695.23	2335.09
695.42	3633.71
695.61	4776.48
695.80	5528.70
696.00	6104.79
696.19	6408.30
696.38	5724.48
696.57	4891.37
696.76	4588.06
696.95	4207.35
697.15	4344.36
697.34	4079.35
697.53	3457.38
697.72	3327.33
697.91	3106.97
698.10	3160.83
698.30	2485.41
698.49	2287.99
698.68	2408.82
698.87	2217.75
699.06	2008.24
699.25	2064.35
699.45	2371.55
699.64	2236.38
699.83	2180.47
700.02	1980.39
700.21	2257.48
700.40	2075.62
700.59	1961.95
700.79	2048.58
700.98	2254.40
701.17	2068.65
701.36	1973.83
701.55	1963.59
701.74	2415.99
701.93	2089.75
702.12	2165.73
702.32	2194.60
702.51	2650.89
702.70	2597.85
702.89	2296.80
703.08	2198.29
703.27	2557.50
703.46	2409.44
703.65	2040.19
703.85	2035.48
704.04	2141.77
704.23	2424.59
704.42	2008.85
704.61	2015.61
704.80	2475.58
704.99	2057.18
705.18	2092.41
705.37	2192.96
705.57	3137.49
705.76	4354.60
705.95	4563.69
706.14	5455.79
706.33	6018.37
706.52	5982.53
706.71	4557.75
706.90	4172.12
707.09	4201.82
707.28	3930.46
707.47	3420.93
707.67	3384.27
707.86	3141.38
708.05	3325.29
708.24	2708.03
708.43	2554.84
708.62	2422.34
708.81	2239.86
709.00	2019.71
709.19	2001.48
709.38	2378.51
709.57	2014.59
709.76	2030.15
709.96	1969.53
710.15	2451.83
710.34	2214.47
710.53	2184.16
710.72	2005.58
710.91	2400.83
711.10	2295.36
711.29	2093.23
711.48	1994.93
711.67	2002.50
711.86	2267.72
712.05	1877.78
712.24	1905.63
712.43	2301.30
712.62	2432.99
712.81	2019.09
713.00	2188.87
713.19	1996.36
713.39	2290.65
713.58	2023.19
713.77	2264.03
713.96	2546.65
714.15	2476.40
714.34	2392.03
714.53	2170.64
714.72	2753.70
714.91	2244.16
715.10	2278.37
715.29	2100.19
715.48	2861.42
715.67	2414.96
715.86	2162.66
716.05	2062.71
716.24	2171.05
716.43	2114.32
716.62	1942.50
716.81	1890.48
717.00	2108.59
717.19	2470.06
717.38	1975.47
717.57	1957.24
717.76	1914.44
717.95	2326.90
718.14	1998.20
718.33	2018.48
718.52	1880.24
718.71	1918.33
718.90	1897.24
719.09	1898.47
719.28	2153.64
719.47	2303.15
719.66	2101.01
719.85	2150.57
720.04	2157.74
720.23	2235.15
720.42	2016.43
720.61	2145.45
720.80	1960.73
720.99	2247.85
721.18	2013.77
721.37	1924.07
721.56	2101.42
721.75	2339.60
721.94	1917.10
722.13	1998.00
722.32	2127.43
722.51	2333.66
722.70	2056.57
722.89	2090.77
723.08	2166.14
723.27	2345.33
723.46	2052.06
723.65	2047.97
723.84	2091.59
724.03	2409.64
724.22	1911.98
724.41	1988.17
724.60	2110.64
724.79	2323.01
724.98	2063.74
725.16	1977.31
725.35	2278.37
725.54	2002.30
725.73	2020.94
725.92	2100.19
726.11	2356.60
726.30	2824.56
726.49	2634.51
726.68	2841.35
726.87	3175.99
727.06	3294.36
727.25	2634.30
727.44	2646.59
727.63	2689.60
727.82	2570.61
728.01	2476.81
728.20	2455.10
728.38	2718.68
728.57	2401.24
728.76	2202.59
728.95	2318.92
729.14	2064.15
729.33	2081.97
729.52	1813.68
729.71	1959.29
729.90	2044.69
730.09	2112.27
730.28	2012.33
730.47	2025.24
730.66	2455.10
730.84	2303.76
731.03	2134.60
731.22	2170.85
731.41	2275.09
731.60	2347.38
731.79	1892.32
731.98	1967.07
732.17	2325.67
732.36	2290.65
732.55	2004.96
732.73	1892.94
732.92	2427.05
733.11	2307.24
733.30	1959.29
733.49	1922.63
733.68	2315.02
733.87	2211.60
734.06	1935.54
734.25	1991.44
734.43	2175.35
734.62	2393.67
734.81	2166.96
735.00	2107.77
735.19	2258.30
735.38	2380.35
735.57	1994.31
735.76	2202.18
735.94	2395.71
736.13	2846.27
736.32	2414.56
736.51	2428.69
736.70	3006.83
736.89	3026.90
737.08	3024.65
737.27	4537.27
737.45	6588.32
737.64	7312.89
737.83	8336.67
738.02	8922.80
738.21	8396.47
738.40	6863.36
738.59	6048.68
738.77	5665.09
738.96	5326.15
739.15	5147.77
739.34	4651.35
739.53	4293.16
739.72	4261.82
739.90	3909.16
740.09	3125.81
740.28	2906.07
740.47	2867.98
740.66	2645.16
740.85	2173.10
741.03	2183.34
741.22	2132.96
741.41	2230.85
741.60	1950.28
741.79	2136.44
741.98	2480.09
742.16	2580.24
742.35	2105.31
742.54	2165.32
742.73	2671.58
742.92	2240.27
743.10	2043.67
743.29	2142.18
743.48	2766.60
743.67	2234.95
743.86	1973.22
744.05	2054.52
744.23	2110.64
744.42	2121.29
744.61	2146.07
744.80	1933.08
744.99	2157.54
745.17	1972.81
745.36	1917.31
745.55	2173.30
745.74	2274.88
745.93	2165.93
746.11	2027.90
746.30	2002.71
746.49	2448.96
746.68	2104.49
746.86	2110.23
747.05	2069.27
747.24	2380.56
747.43	2380.56
747.62	1995.75
747.80	2065.58
747.99	2521.46
748.18	2439.95
748.37	2161.84
748.56	2222.46
748.74	2503.23
748.93	2565.70
749.12	3808.81
749.31	7848.43
749.49	11340.22
749.68	13667.32
749.87	15682.73
750.06	16460.55
750.24	15610.03
750.43	14811.32
750.62	15916.61
750.81	16313.71
750.99	17061.42
751.18	16553.32
751.37	13745.76
751.56	11698.00
751.74	11525.97
751.93	10313.78
752.12	8293.25
752.31	7208.03
752.49	6328.63
752.68	5881.77
752.87	4738.18
753.06	4170.07
753.24	3781.16
753.43	3505.71
753.62	2691.44
753.81	2451.21
753.99	2792.41
754.18	2524.12
754.37	2109.41
754.55	2140.54
754.74	2596.41
754.93	2009.88
755.12	2038.96
755.30	1967.89
755.49	2425.61
755.68	2264.85
755.86	2165.11
756.05	1934.72
756.24	2500.77
756.43	2025.44
756.61	1984.07
756.80	2120.47
756.99	2429.30
757.17	2211.81
757.36	1995.75
757.55	2028.51
757.74	2322.81
757.92	2232.29
758.11	1975.68
758.30	1879.22
758.48	2201.77
758.67	2065.79
758.86	2131.12
759.04	2044.49
759.23	2207.10
759.42	2294.75
759.60	2062.92
759.79	2072.54
759.98	2187.03
760.16	2106.13
760.35	2006.60
760.54	1999.02
760.73	2253.58
760.91	2004.55
761.10	2038.55
761.29	2132.75
761.47	2231.06
761.66	2657.44
761.85	2157.94
762.03	2594.16
762.22	4780.98
762.41	11482.76
762.59	18894.76
762.78	22789.59
762.97	27567.91
763.15	29251.96
763.34	26403.44
763.52	19301.29
763.71	18053.46
763.90	16471.61
764.08	15296.48
764.27	13950.15
764.46	13020.37
764.64	11293.11
764.83	10004.74
765.02	8757.52
765.20	7593.05
765.39	6300.17
765.58	4601.99
765.76	3763.35
765.95	3339.21
766.13	2861.42
766.32	2429.71
766.51	2312.57
766.69	3189.10
766.88	2410.66
767.07	2019.91
767.25	1878.60
767.44	2443.02
767.62	2457.56
767.81	1954.17
768.00	2060.26
768.18	2248.26
768.37	2087.49
768.56	1853.21
768.74	1977.11
768.93	1967.89
769.11	2273.86
769.30	2066.40
769.49	1996.97
769.67	2179.86
769.86	2099.78
770.04	1979.36
770.23	1957.04
770.42	2403.29
770.60	2202.18
770.79	1929.39
770.97	2121.29
771.16	3180.50
771.35	4756.20
771.53	6090.04
771.72	7044.40
771.90	8310.66
772.09	8924.64
772.27	7725.76
772.46	5960.61
772.65	6094.14
772.83	5652.80
773.02	5273.93
773.20	4735.52
773.39	4775.45
773.58	4392.69
773.76	3751.67
773.95	3521.69
774.13	3471.72
774.32	3047.17
774.50	2572.04
774.69	2457.56
774.87	2366.43
775.06	2725.03
775.25	2039.98
775.43	2072.34
775.62	2280.41
775.80	2317.48
775.99	2084.63
776.17	1969.12
776.36	2213.65
776.54	2406.36
776.73	1997.18
776.92	2070.70
777.10	2379.33
777.29	2246.62
777.47	1956.42
777.66	1979.36
777.84	2213.85
778.03	2157.13
778.21	1927.75
778.40	2068.65
778.58	2267.72
778.77	2384.45
778.95	1908.50
779.14	1950.69
779.32	2497.50
779.51	2327.31
779.70	1934.72
779.88	1859.15
780.07	2101.22
780.25	2611.98
780.44	1990.83
780.62	2104.49
780.81	2300.89
780.99	2215.90
781.18	1955.20
781.36	1917.92
781.55	2134.39
781.73	2471.08
781.92	1884.34
782.10	1919.15
782.29	2258.70
782.47	2473.13
782.66	1966.25
782.84	1866.52
783.03	2058.41
783.21	2383.02
783.40	1948.85
783.58	1947.21
783.77	2070.50
783.95	2147.09
784.14	1948.85
784.32	2012.95
784.51	2383.84
784.69	2035.07
784.88	1889.05
785.06	1978.34
785.24	1933.90
785.43	2341.65
785.61	2051.25
785.80	1925.09
785.98	2279.18
786.17	2199.11
786.35	1858.53
786.54	2106.34
786.72	2359.87
786.91	2367.45
787.09	2013.77
787.28	1898.47
787.46	2205.87
787.65	2334.68
787.83	1880.85
788.01	2024.21
788.20	1986.73
788.38	2213.85
788.57	2029.74
788.75	1986.32
788.94	2562.21
789.12	2312.16
789.31	2092.00
789.49	2135.21
789.67	2110.02
789.86	2279.80
790.04	1965.64
790.23	1878.19
790.41	2603.79
790.60	2179.45
790.78	1996.77
790.96	2045.31
791.15	2336.94
791.33	2162.04
791.52	2032.40
791.70	1901.33
791.89	2188.05
792.07	2368.27
792.25	2044.28
792.44	1904.61
792.62	2378.31
792.81	2129.89
792.99	2059.44
793.17	2040.80
793.36	2163.27
793.54	3031.81
793.73	3971.63
793.91	5504.94
794.10	6664.09
794.28	7703.02
794.46	7803.38
794.65	7516.66
794.83	6039.05
795.01	5611.64
795.20	5367.32
795.38	5008.72
795.57	4884.41
795.75	4741.05
795.93	4172.33
796.12	3856.73
796.30	3888.07
796.49	3613.03
796.67	3009.69
796.85	2954.81
797.04	2840.33
797.22	2776.02
797.40	2257.48
797.59	2307.86
797.77	2414.76
797.96	2232.08
798.14	2087.29
798.32	2098.55
798.51	2462.07
798.69	2631.23
798.87	2108.79
799.06	2104.90
799.24	2182.73
799.42	2899.10
799.61	3585.79
799.79	4313.02
799.98	5306.29
800.16	5724.28
800.34	7017.77
800.53	8743.80
800.71	9370.07
800.89	10824.95
801.08	10866.73
801.26	10759.62
801.44	9130.46
801.63	7626.64
801.81	7313.09
801.99	6619.44
802.18	6257.98
802.36	6017.75
802.54	5405.61
802.73	4692.92
802.91	4493.04
803.09	4103.31
803.28	3687.98
803.46	3314.43
803.64	3430.14
803.83	2661.54
804.01	2405.13
804.19	2237.61
804.38	2550.75
804.56	2449.17
804.74	2207.10
804.92	2186.41
805.11	2118.83
805.29	2492.99
805.47	2081.76
805.66	2003.94
805.84	2073.16
806.02	2435.65
806.21	2055.96
806.39	2285.12
806.57	2411.89
806.76	2418.04
806.94	2137.46
807.12	2102.44
807.30	2205.46
807.49	2396.53
807.67	2223.07
807.85	2321.99
808.04	2465.96
808.22	2710.49
808.40	2019.71
808.58	1940.66
808.77	2397.15
808.95	2690.01
809.13	2944.16
809.31	5375.92
809.50	8007.76
809.68	9404.89
809.86	10534.75
810.05	11536.82
810.23	13524.17
810.41	20472.11
810.59	35351.22
810.78	44215.65
810.96	51753.40
811.14	56281.05
811.32	55328.54
811.51	44030.51
811.69	34970.91
811.87	34534.69
812.05	30108.42
812.24	28173.09
812.42	26007.56
812.60	23107.85
812.78	19529.63
812.97	16535.50
813.15	14797.39
813.33	12506.13
813.51	10568.75
813.70	8226.90
813.88	6631.94
814.06	5242.39
814.24	4021.80
814.42	3126.63
814.61	3053.11
814.79	3098.37
814.97	2261.78
815.15	2291.88
815.34	2477.02
815.52	2546.44
815.70	2087.70
815.88	2124.15
816.06	2104.70
816.25	2192.96
816.43	2046.74
816.61	2169.00
816.79	2481.32
816.98	1957.24
817.16	1923.86
817.34	1950.08
817.52	2208.32
817.70	2477.84
817.89	2015.00
818.07	1922.43
818.25	2137.26
818.43	2190.92
818.61	1975.06
818.80	1931.85
818.98	2481.11
819.16	2186.62
819.34	1887.41
819.52	2212.42
819.70	2015.82
819.89	2142.79
820.07	1852.18
820.25	1816.14
820.43	2188.05
820.61	2325.26
820.80	1983.66
820.98	1873.07
821.16	1872.05
821.34	1955.20
821.52	1940.04
821.70	2073.16
821.89	2176.17
822.07	2090.57
822.25	2007.62
822.43	1932.67
822.61	2432.99
822.79	2179.45
822.98	1991.85
823.16	1816.55
823.34	2189.69
823.52	2378.72
823.70	2019.71
823.88	1829.25
824.06	2252.77
824.25	2153.23
824.43	2082.78
824.61	1861.40
824.79	2158.56
824.97	2220.82
825.15	2234.74
825.33	2935.76
825.52	4086.52
825.70	4608.34
825.88	4900.38
826.06	5362.40
826.24	5591.98
826.42	5050.29
826.60	4093.68
826.78	4109.86
826.97	3853.46
827.15	3991.49
827.33	3429.94
827.51	3370.14
827.69	3179.68
827.87	3134.21
828.05	2872.28
828.23	2593.14
828.41	2877.19
828.60	2748.99
828.78	2193.78
828.96	2339.80
829.14	2204.43
829.32	2204.02
829.50	2041.21
829.68	1999.64
829.86	2117.19
830.04	2302.33
830.22	2081.56
830.41	1905.63
830.59	2139.51
830.77	2284.10
830.95	1932.46
831.13	1935.13
831.31	2032.40
831.49	2302.33
831.67	2140.95
831.85	2121.90
832.03	2092.82
832.21	2284.92
832.39	1826.58
832.57	1871.43
832.76	2277.34
832.94	2110.43
833.12	1794.02
833.30	1942.91
833.48	2353.12
833.66	2179.86
833.84	1925.50
834.02	1943.11
834.20	2312.57
834.38	2260.14
834.56	1825.97
834.74	1883.93
834.92	1924.48
835.10	2449.78
835.28	1976.09
835.46	2008.24
835.64	2121.49
835.82	2025.03
836.01	2272.63
836.19	2202.59
836.37	2067.83
836.55	2002.71
836.73	1928.37
836.91	1883.31
837.09	2287.99
837.27	2433.19
837.45	1846.86
837.63	1841.94
837.81	1961.13
837.99	2170.85
838.17	2020.94
838.35	1947.41
838.53	2571.02
838.71	2276.32
838.89	1938.20
839.07	1966.25
839.25	2206.28
839.43	2416.60
839.61	2568.97
839.79	4175.40
839.97	6161.31
840.15	7193.90
840.33	7966.39
840.51	8473.68
840.69	8266.22
840.87	6803.15
841.05	6014.07
841.23	6546.54
841.41	8558.87
841.59	12136.67
841.77	13692.92
841.95	14924.37
842.13	16028.02
842.31	15384.96
842.49	12289.04
842.67	10198.27
842.85	10218.95
843.03	8807.90
843.21	8179.38
843.39	7615.99
843.57	6968.62
843.75	6315.32
843.93	5234.20
844.11	4665.07
844.29	4484.44
844.47	4059.69
844.65	3786.90
844.83	3348.02
845.01	3089.77
845.19	3009.69
845.36	2447.73
845.54	2345.74
845.72	2358.03
845.90	2364.99
846.08	2034.86
846.26	2109.61
846.44	2259.11
846.62	2260.34
846.80	2073.77
846.98	1942.91
847.16	2131.94
847.34	2224.09
847.52	1937.99
847.70	1846.45
847.88	2125.79
848.06	2406.36
848.24	2080.53
848.41	1863.86
848.59	2332.02
848.77	2193.78
848.95	1943.93
849.13	1920.79
849.31	2261.16
849.49	2192.15
849.67	1890.48
849.85	1882.70
850.03	2207.51
850.21	2172.49
850.39	1884.13
850.57	2077.66
850.74	2426.02
850.92	2551.15
851.10	2784.83
851.28	3434.44
851.46	4262.64
851.64	4944.21
851.82	4606.50
852.00	4638.24
852.18	4515.16
852.36	3964.25
852.53	3563.67
852.71	3404.54
852.89	3504.28
853.07	3389.18
853.25	2921.84
853.43	2762.51
853.61	2907.50
853.79	2780.94
853.97	2381.17
854.14	2361.92
854.32	2742.84
854.50	2552.18
854.68	2170.23
854.86	2087.08
855.04	2093.84
855.22	2332.64
855.40	1842.97
855.57	1942.09
855.75	2281.03
855.93	2196.24
856.11	1816.55
856.29	1941.47
856.47	2042.44
856.65	2180.06
856.82	1858.94
857.00	1829.04
857.18	2106.34
857.36	2021.55
857.54	2038.96
857.72	2083.81
857.89	2263.82
858.07	2171.26
858.25	2145.45
858.43	1846.24
858.61	2102.85
858.79	2087.90
858.97	1880.85
859.14	2028.10
859.32	2096.30
859.50	2055.14
859.68	2026.67
859.86	1891.30
860.03	2156.51
860.21	2237.41
860.39	1923.25
860.57	2078.69
860.75	2199.31
860.93	2462.27
861.10	2137.87
861.28	1883.11
861.46	2208.32
861.64	2232.49
861.82	1933.49
861.99	2064.35
862.17	2318.30
862.35	2325.67
862.53	1948.44
862.71	1943.11
862.88	2179.04
863.06	2281.44
863.24	1946.59
863.42	1881.67
863.60	2112.27
863.77	2220.00
863.95	1799.55
864.13	1924.27
864.31	2075.00
864.49	2282.05
864.66	1862.83
864.84	1867.54
865.02	2191.94
865.20	2630.21
865.37	2037.93
865.55	1895.80
865.73	2027.90
865.91	2457.56
866.09	2368.07
866.26	2327.52
866.44	2667.07
866.62	2521.46
866.80	2217.95
866.97	2224.71
867.15	2362.33
867.33	2410.87
867.51	2218.36
867.68	2153.64
867.86	2248.46
868.04	2159.38
868.22	1862.42
868.39	2005.99
868.57	2304.58
868.75	2471.90
868.93	1886.59
869.10	1927.96
869.28	2514.09
869.46	2392.03
869.64	1973.63
869.81	1934.10
869.99	2155.69
870.17	2188.05
870.35	1841.74
870.52	1923.25
870.70	2325.88
870.88	2044.49
871.05	1851.77
871.23	1757.16
871.41	2135.83
871.59	2106.75
871.76	1913.21
871.94	1867.75
872.12	2147.30
872.29	1878.19
872.47	1911.98
872.65	1853.82
872.83	2184.16
873.00	2389.37
873.18	1921.61
873.36	1887.00
873.53	2273.65
873.71	1898.26
873.89	1814.71
874.06	1910.75
874.24	2168.18
874.42	2355.16
874.60	2057.59
874.77	2007.01
874.95	2001.28
875.13	2297.00
875.30	1943.52
875.48	1842.76
875.66	2426.84
875.83	2029.74
876.01	1880.24
876.19	2029.74
876.36	1948.03
876.54	2176.58
876.72	1868.16
876.89	1999.43
877.07	2266.08
877.25	1848.29
877.42	1953.56
877.60	1921.81
877.78	2437.90
877.95	2060.46
878.13	1844.61
878.31	2055.14
878.48	2259.73
878.66	2233.92
878.84	1880.24
879.01	1936.35
879.19	2196.45
879.37	2270.17
879.54	1932.26
879.72	1813.07
879.90	1793.82
880.07	2269.56
880.25	1695.31
880.42	2063.12
880.60	2161.63
880.78	2269.56
880.95	1883.72
881.13	1982.02
881.31	2119.85
881.48	2020.32
881.66	1882.08
881.83	2029.95
882.01	1993.70
882.19	1889.05
882.36	1956.22
882.54	1886.38
882.72	2252.15
882.89	2166.14
883.07	1858.74
883.24	1907.07
883.42	2248.87
883.60	2126.61
883.77	1818.80
883.95	1931.85
884.12	2276.73
884.30	2164.29
884.48	2063.33
884.65	1942.29
884.83	2192.76
885.00	2152.42
885.18	1826.38
885.36	1905.84
885.53	2202.39
885.71	2357.21
885.88	1809.79
886.06	1880.04
886.23	2259.93
886.41	2060.46
886.59	1878.60
886.76	1839.28
886.94	2245.19
887.11	2624.88
887.29	1920.79
887.47	1822.49
887.64	2330.59
887.82	2377.28
887.99	1765.96
888.17	1916.90
888.34	2051.86
888.52	1974.24
888.69	1882.08
888.87	1830.06
889.05	2025.03
889.22	2073.98
889.40	1903.59
889.57	2128.66
889.75	2345.74
889.92	2073.98
890.10	1837.23
890.27	1953.56
890.45	2011.11
890.62	1842.35
890.80	1835.59
890.98	1734.42
891.15	2369.70
891.33	2297.21
891.50	1877.78
891.68	1777.43
891.85	2261.78
892.03	2238.43
892.20	1846.65
892.38	1818.80
892.55	2245.19
892.73	2260.55
892.90	1757.57
893.08	1850.95
893.25	1988.17
893.43	2021.75
893.60	1979.98
893.78	1725.21
893.95	2204.43
894.13	2113.30
894.30	1849.73
894.48	1911.98
894.65	2260.34
894.83	2151.39
895.00	1746.92
895.18	1738.73
895.35	2293.11
895.53	2227.58
895.70	1779.28
895.88	2008.03
896.05	2193.58
896.23	1863.86
896.40	1871.02
896.58	1909.94
896.75	2220.82
896.93	2358.44
897.10	1913.62
897.28	1786.65
897.45	2128.45
897.63	2232.29
897.80	1987.76
897.98	1855.87
898.15	2183.95
898.33	2031.18
898.50	1913.83
898.67	1905.02
898.85	2062.92
899.02	2225.73
899.20	2105.31
899.37	1905.84
899.55	2122.11
899.72	2360.08
899.90	1870.00
900.07	1860.99
900.25	2197.88
900.42	2327.31
900.59	1878.81
900.77	1997.18
900.94	2218.15
901.12	2179.45
901.29	1879.01
901.47	2039.57
901.64	2246.01
901.82	2113.09
901.99	1698.38
902.16	1863.86
902.34	2331.20
902.51	2201.57
902.69	1876.96
902.86	1929.39
903.03	2775.41
903.21	2122.31
903.38	1867.13
903.56	1839.49
903.73	2305.81
903.91	2063.33
904.08	1860.99
904.25	1707.19
904.43	2006.19
904.60	2266.08
904.78	1886.79
904.95	1806.92
905.12	2081.97
905.30	2426.43
905.47	1971.58
905.65	2056.98
905.82	2115.35
905.99	2218.15
906.17	1885.36
906.34	1853.82
906.52	1957.04
906.69	2232.08
906.86	1987.14
907.04	1981.20
907.21	2296.80
907.38	2283.69
907.56	1849.93
907.73	1829.04
907.91	2363.56
908.08	2350.25
908.25	1925.30
908.43	1782.14
908.60	2203.00
908.77	2180.68
908.95	1954.58
909.12	1814.30
909.30	2260.75
909.47	1883.11
909.64	1960.93
909.82	2094.05
909.99	2082.37
910.16	2152.21
910.34	1869.80
910.51	1880.04
910.68	2201.36
910.86	2172.49
911.03	1963.18
911.20	2615.67
911.38	4717.29
911.55	7377.40
911.72	8524.06
911.90	9475.13
912.07	10472.08
912.24	10119.42
912.42	7694.83
912.59	5588.50
912.76	5433.47
912.94	4568.20
913.11	3941.93
913.28	3539.71
913.46	3481.75
913.63	3461.89
913.80	3405.36
913.98	2963.21
914.15	3279.21
914.32	3222.89
914.49	2835.21
914.67	2615.46
914.84	2902.59
915.01	3012.15
915.19	2659.29
915.36	2449.37
915.53	2717.04
915.71	2512.65
915.88	2179.65
916.05	2052.88
916.22	2401.86
916.40	2248.87
916.57	1836.00
916.74	2063.33
916.92	2442.41
917.09	1977.31
917.26	1842.76
917.43	1794.64
917.61	2046.13
917.78	1848.70
917.95	1799.96
918.13	1800.78
918.30	2511.83
918.47	2148.52
918.64	1833.14
918.82	1865.29
918.99	2116.17
919.16	2441.18
919.33	1961.75
919.51	1930.62
919.68	2113.50
919.85	2344.31
920.02	1795.25
920.20	1933.28
920.37	2420.90
920.54	2287.99
920.71	1842.97
920.89	1904.82
921.06	2457.97
921.23	2002.91
921.40	1987.35
921.58	2519.41
921.75	3599.92
921.92	3138.72
922.09	3221.25
922.27	3198.93
922.44	3248.69
922.61	2957.06
922.78	2360.90
922.96	2299.66
923.13	2393.05
923.30	2615.46
923.47	2042.44
923.64	2069.27
923.82	2404.11
923.99	2357.62
924.16	2151.39
924.33	1990.22
924.50	2262.39
924.68	2543.78
924.85	1978.54
925.02	2008.85
925.19	2388.34
925.36	2261.98
925.54	2004.14
925.71	2043.46
925.88	2731.79
926.05	2115.76
926.22	1852.18
926.40	1993.08
926.57	2174.74
926.74	2235.36
926.91	1862.63
927.08	2051.45
927.26	2339.80
927.43	2130.50
927.60	1869.59
927.77	1931.85
927.94	2413.12
928.11	2341.65
928.29	1768.63
928.46	1951.30
928.63	2015.20
928.80	2060.87
928.97	1947.41
929.14	1853.62
929.32	2509.38
929.49	2162.86
929.66	1838.26
929.83	1767.19
930.00	2055.96
930.17	2197.88
930.35	1815.52
930.52	1840.10
930.69	2394.69
930.86	1926.52
931.03	1922.43
931.20	1706.37
931.37	2327.93
931.55	2098.96
931.72	1934.92
931.89	1776.20
932.06	1942.29
932.23	2429.10
932.40	1979.57
932.57	1991.24
932.74	2340.62
932.92	2324.44
933.09	2021.96
933.26	1608.88
933.43	2048.79
933.60	2159.99
933.77	1930.82
933.94	1947.82
934.11	2072.13
934.29	2153.44
934.46	1852.59
934.63	1992.06
934.80	1927.34
934.97	2143.61
935.14	1941.88
935.31	1798.32
935.48	2012.74
935.65	2210.17
935.82	1944.55
936.00	1817.57
936.17	2387.52
936.34	2098.96
936.51	1957.45
936.68	1801.19
936.85	2165.52
937.02	2154.26
937.19	1999.23
937.36	1896.01
937.53	2184.98
937.70	2261.16
937.87	1861.40
938.05	1992.06
938.22	2122.51
938.39	1941.88
938.56	1894.17
938.73	1794.84
938.90	2074.18
939.07	1996.56
939.24	1985.92
939.41	1743.64
939.58	2195.63
939.75	2174.33
939.92	1824.54
940.09	2150.78
940.26	2069.88
940.43	2281.64
940.60	1898.47
940.77	1871.84
940.95	2146.27
941.12	2234.74
941.29	1877.37
941.46	1881.26
941.63	2328.75
941.80	2364.38
941.97	1752.86
942.14	1728.69
942.31	2230.44
942.48	2086.06
942.65	1974.04
942.82	1902.56
942.99	2192.15
943.16	2148.11
943.33	1796.48
943.50	1828.43
943.67	2256.66
943.84	2307.86
944.01	1848.70
944.18	1811.43
944.35	2372.37
944.52	1986.73
944.69	1956.01
944.86	1766.99
945.03	2237.82
945.20	2567.95
945.37	1708.62
945.54	1929.80
945.71	2346.77
945.88	2412.71
946.05	1822.28
946.22	1794.84
946.39	2360.28
946.56	2094.66
946.73	1709.23
946.90	1814.71
947.07	2018.68
947.24	2072.95
947.41	1692.03
947.58	1972.19
947.75	2238.43
947.92	2185.18
948.09	1679.95
948.26	1751.83
948.43	2141.36
948.60	2441.18
948.77	1822.69
948.94	1885.36
949.11	2237.20
949.27	2192.76
949.44	1832.52
949.61	1751.42
949.78	2198.90
949.95	2305.81
950.12	1768.22
950.29	1743.23
950.46	2006.60
950.63	2300.89
950.80	1807.13
950.97	1856.89
951.14	2278.77
951.31	2062.71
951.48	1810.20
951.65	1757.98
951.82	2453.26
951.99	2147.70
952.15	1762.89
952.32	1850.75
952.49	2018.89
952.66	2015.41
952.83	1834.16
953.00	1804.06
953.17	2080.12
953.34	2270.79
953.51	1906.86
953.68	1909.73
953.85	2308.88
954.02	2332.43
954.18	1887.82
954.35	1833.55
954.52	1965.85
954.69	2166.34
954.86	1716.81
955.03	1924.89
955.20	2230.03
955.37	2102.44
955.54	1841.33
955.71	1810.40
955.87	2207.71
956.04	2438.11
956.21	1839.28
956.38	1796.89
956.55	2115.96
956.72	2551.56
956.89	1935.74
957.06	1794.23
957.23	2009.47
957.39	2361.51
957.56	1856.07
957.73	1769.65
957.90	1763.30
958.07	2442.41
958.24	1917.92
958.41	1851.77
958.57	2249.08
958.74	2130.50
958.91	1785.83
959.08	1789.72
959.25	2197.47
959.42	2095.07
959.59	1883.11
959.75	1866.31
959.92	2331.82
960.09	2300.69
960.26	1799.96
960.43	1905.84
960.60	2173.92
960.76	2070.29
960.93	1746.30
961.10	1917.92
961.27	2281.03
961.44	2073.36
961.61	1780.71
961.77	1741.39
961.94	2157.54
962.11	2260.34
962.28	1871.23
962.45	1786.03
962.62	2075.82
962.78	2269.15
962.95	1719.47
963.12	1820.03
963.29	2229.83
963.46	2665.02
963.62	1902.15
963.79	1836.82
963.96	2585.56
964.13	2063.53
964.30	1963.18
964.46	1875.12
964.63	2031.38
964.80	2688.98
964.97	1932.87
965.14	2330.79
965.30	2641.27
965.47	2738.54
965.64	2491.56
965.81	2435.85
965.98	2735.47
966.14	2412.10
966.31	2053.70
966.48	2047.56
966.65	2534.57
966.81	2350.04
966.98	2007.21
967.15	2000.25
967.32	2228.19
967.49	2109.20
967.65	1819.21
967.82	1804.06
967.99	2197.27
968.16	1949.26
968.32	2094.05
968.49	1899.29
968.66	2151.60
968.83	2491.56
968.99	2019.09
969.16	1877.37
969.33	2414.35
969.50	2274.88
969.66	2009.26
969.83	2135.83
970.00	2266.90
970.17	2237.00
970.33	1864.68
970.50	1784.19
970.67	2383.02
970.84	2368.48
971.00	1787.47
971.17	1753.88
971.34	2213.24
971.50	2127.43
971.67	1954.58
971.84	1865.70
972.01	1939.02
972.17	1771.08
972.34	1747.53
972.51	2012.33
972.67	2359.87
972.84	2158.76
973.01	1798.32
973.18	1819.62
973.34	2282.46
973.51	1972.60
973.68	1869.80
973.84	1891.71
974.01	2053.50
974.18	2411.28
974.34	1932.67
974.51	1964.82
974.68	1979.36
974.85	2467.39
975.01	1950.08
975.18	1840.30
975.35	2131.73
975.51	2008.85
975.68	1742.62
975.85	2014.38
976.01	2017.04
976.18	2364.79
976.35	1864.68
976.51	1896.83
976.68	2412.92
976.85	2351.68
977.01	1870.21
977.18	1938.81
977.35	2230.65
977.51	1927.34
977.68	1687.12
977.85	1789.72
978.01	2324.03
978.18	2266.49
978.35	1938.61
978.51	1960.93
978.68	2334.68
978.85	2463.50
979.01	1909.73
979.18	1923.66
979.34	2109.20
979.51	2179.65
979.68	1842.56
979.84	1926.73
980.01	2598.67
980.18	2159.99
980.34	1822.08
980.51	1935.94
980.67	2273.25
980.84	2277.34
981.01	1855.46
981.17	1927.14
981.34	1847.06
981.51	2266.90
981.67	1798.12
981.84	1924.27
982.00	2251.95
982.17	2105.93
982.34	1694.69
982.50	1610.93
982.67	2414.96
982.83	2023.80
983.00	1741.39
983.17	1650.25
983.33	2299.25
983.50	1868.36
983.66	1727.26
983.83	1645.34
984.00	2041.62
984.16	2103.26
984.33	1652.10
984.49	1645.34
984.66	1961.13
984.83	2269.35
984.99	1665.00
985.16	1628.54
985.32	2214.06
985.49	2265.46
985.65	1785.01
985.82	1641.04
985.99	2401.45
986.15	2167.98
986.32	1780.91
986.48	1713.33
986.65	2034.45
986.81	2222.66
986.98	1633.87
987.14	1750.19
987.31	2138.28
987.48	1862.42
987.64	1584.10
987.81	1602.33
987.97	2494.43
988.14	1957.04
988.30	1673.40
988.47	1513.04
988.63	2167.77
988.80	1953.76
988.96	1745.07
989.13	1754.90
989.30	2054.11
989.46	2276.52
989.63	1575.50
989.79	1618.30
989.96	2083.81
990.12	2367.86
990.29	1658.65
990.45	1708.62
990.62	2102.85
990.78	2327.31
990.95	1771.49
991.11	1664.38
991.28	2022.98
991.44	2167.37
991.61	1563.42
991.77	1767.81
991.94	2131.94
992.10	2328.75
992.27	1727.05
992.43	1700.84
992.60	2192.56
992.76	2033.22
992.93	1860.58
993.09	1620.35
993.26	2289.42
993.42	2426.23
993.59	1669.09
993.75	1560.76
993.92	1972.81
994.08	1981.00
994.25	1732.99
994.41	1625.68
994.58	2224.71
994.74	2345.95
994.91	1617.69
995.07	1740.16
995.24	2082.99
995.40	2082.99
995.56	1817.78
995.73	1773.54
995.89	2402.06
996.06	2090.36
996.22	1655.17
996.39	1581.65
996.55	2088.93
996.72	2174.74
996.88	1595.78
997.05	1640.22
997.21	2464.94
997.37	2219.79
997.54	1780.91
997.70	1689.78
997.87	2146.68
998.03	2098.55
998.20	1540.48
998.36	1580.01
998.52	2242.53
998.69	2274.06
998.85	1597.83
999.02	1700.43
999.18	2244.37
999.35	2268.94
999.51	1728.28
999.67	1709.44
999.84	1939.22
1000.00	2230.24
1000.17	1754.90
1000.33	1634.48
1000.49	1997.18
1000.66	2066.61
1000.82	1667.46
1000.99	1741.80
1001.15	2318.71
1001.31	2064.97
1001.48	1686.71
1001.64	1766.99
1001.81	2069.06
1001.97	2482.14
1002.13	1706.16
1002.30	1747.53
1002.46	2349.02
1002.63	2051.86
1002.79	1808.56
1002.95	1644.31
1003.12	2309.08
1003.28	2179.24
1003.45	1628.95
1003.61	1617.28
1003.77	2130.71
1003.94	1895.19
1004.10	1671.55
1004.26	1793.61
1004.43	2219.59
1004.59	2411.28
1004.75	1656.19
1004.92	1642.68
1005.08	2031.99
1005.25	2189.89
1005.41	1652.92
1005.57	1758.80
1005.74	2318.71
1005.90	2025.24
1006.06	1817.78
1006.23	1678.11
1006.39	2239.04
1006.55	2625.91
1006.72	1813.27
1006.88	1617.90
1007.04	1958.68
1007.21	2065.38
1007.37	1723.37
1007.53	1662.13
1007.70	2396.74
1007.86	2258.70
1008.02	1760.23
1008.19	1630.18
1008.35	2147.50
1008.51	1954.79
1008.68	1676.67
1008.84	1629.77
1009.00	1952.12
1009.17	2287.38
1009.33	1862.42
1009.49	1763.30
1009.65	1973.22
1009.82	2201.57
1009.98	1754.90
1010.14	1590.86
1010.31	2234.33
1010.47	2167.77
1010.63	1763.92
1010.80	1747.53
1010.96	2198.08
1011.12	2097.32
1011.28	1704.52
1011.45	1619.12
1011.61	2585.56
1011.77	1952.94
1011.94	1616.46
1012.10	1630.80
1012.26	1911.37
1012.42	2037.11
1012.59	1735.24
1012.75	1712.72
1012.91	2066.61
1013.07	2264.85
1013.24	1612.37
1013.40	1674.21
1013.56	2139.51
1013.72	2070.29
1013.89	1734.42
1014.05	1770.67
1014.21	2424.80
1014.37	2608.50
1014.54	1737.70
1014.70	1624.04
1014.86	2054.93
1015.02	1939.63
1015.19	1696.95
1015.35	1637.97
1015.51	2084.42
1015.67	2018.27
1015.84	1677.70
1016.00	1714.15
1016.16	2292.70
1016.32	2251.54
1016.49	1695.31
1016.65	1619.94
1016.81	2087.29
1016.97	2184.77
1017.14	1803.65
1017.30	1662.54
1017.46	2027.08
1017.62	2136.44
1017.78	1757.98
1017.95	1645.13
1018.11	2268.53
1018.27	2557.30
1018.43	1848.70
1018.59	1742.41
1018.76	2246.62
1018.92	2588.02
1019.08	1643.09
1019.24	1705.55
1019.40	2379.33
1019.57	2162.65
1019.73	1775.18
1019.89	1685.27
1020.05	2156.31
1020.21	2475.58
1020.38	1642.47
1020.54	1846.45
1020.70	2221.84
1020.86	2237.61
1021.02	1677.08
1021.18	1670.73
1021.35	2029.13
1021.51	2184.77
1021.67	1846.65
1021.83	1731.35
1021.99	2123.13
1022.15	2183.13
1022.32	1757.77
1022.48	1732.17
1022.64	2385.27
1022.80	2399.60
1022.96	1745.69
1023.12	1615.85
1023.29	2309.90
1023.45	2190.92
1023.61	1690.39
1023.77	1906.66
1023.93	2157.33
1024.09	1993.70
1024.25	1643.49
1024.42	1598.23
1024.58	2050.43
1024.74	2180.88
1024.90	1703.09
1025.06	1758.39
1025.22	2022.57
1025.38	2380.76
1025.54	1632.44
1025.71	1802.01
1025.87	2215.08
1026.03	2185.80
1026.19	1610.93
1026.35	1883.72
1026.51	2203.20
1026.67	2106.13
1026.83	1742.00
1026.99	1830.27
1027.16	2188.46
1027.32	2341.85
1027.48	1683.43
1027.64	1654.96
1027.80	2221.64
1027.96	2149.55
1028.12	1674.83
1028.28	1682.41
1028.44	2173.10
1028.60	2400.22
1028.77	1820.44
1028.93	1742.00
1029.09	2027.69
1029.25	1928.37
1029.41	1741.39
1029.57	1789.11
1029.73	2158.97
1029.89	2388.14
1030.05	1789.11
1030.21	1777.84
1030.37	2519.00
1030.53	2239.25
1030.69	1727.05
1030.85	1618.51
1031.02	1927.96
1031.18	2109.00
1031.34	1686.30
1031.50	1805.49
1031.66	1994.11
1031.82	2368.27
1031.98	1732.58
1032.14	1644.11
1032.30	1944.14
1032.46	2260.14
1032.62	1809.59
1032.78	1601.10
1032.94	1999.23
1033.10	2067.42
1033.26	1761.25
1033.42	1846.04
1033.58	2522.48
1033.74	2049.61
1033.90	1666.23
1034.06	1858.74
1034.22	2526.58
1034.38	2278.16
1034.54	1712.51
1034.70	1769.45
1034.86	2460.84
>>>>>End Processed Spectral Data<<<<<
