SpectraSuite Data File
++++++++++++++++++++++++++++++++++++
Date: Thu Mar 30 14:32:45 PDT 2017
User: UCSD _CER
Dark Spectrum Present: No
Reference Spectrum Present: No
Number of Sampled Component Spectra: 1
Spectrometers: USB4C00073
Integration Time (usec): 380000 (USB4C00073)
Spectra Averaged: 10 (USB4C00073)
Boxcar Smoothing: 0 (USB4C00073)
Correct for Electrical Dark: No (USB4C00073)
Strobe/Lamp Enabled: No (USB4C00073)
Correct for Detector Non-linearity: No (USB4C00073)
Correct for Stray Light: No (USB4C00073)
Number of Pixels in Processed Spectrum: 3648
>>>>>Begin Processed Spectral Data<<<<<
345.37	1232.06
345.58	1232.06
345.80	1232.06
346.01	1247.42
346.22	1255.40
346.43	2052.47
346.65	1940.45
346.86	2479.68
347.07	2394.69
347.28	1855.05
347.50	1833.34
347.71	2153.64
347.92	1893.35
348.13	1823.72
348.35	1840.10
348.56	2164.29
348.77	1953.15
348.98	1837.85
349.20	1689.16
349.41	2170.85
349.62	2297.41
349.83	1924.27
350.05	1837.23
350.26	2218.56
350.47	2366.84
350.68	1849.11
350.90	1752.86
351.11	2420.08
351.32	2370.73
351.53	1896.21
351.75	1785.42
351.96	2224.71
352.17	2155.08
352.38	1914.24
352.60	1927.75
352.81	2160.61
353.02	2458.79
353.23	1813.07
353.44	1853.21
353.66	2081.15
353.87	2078.48
354.08	1929.80
354.29	1830.06
354.51	2036.30
354.72	2090.98
354.93	1805.90
355.14	1813.89
355.35	1869.18
355.57	2295.77
355.78	1850.95
355.99	1902.97
356.20	2118.83
356.42	2077.46
356.63	1916.28
356.84	1820.03
357.05	2293.32
357.26	2532.72
357.48	1967.28
357.69	1890.07
357.90	2242.73
358.11	2099.78
358.32	1852.59
358.54	1894.58
358.75	2099.99
358.96	2273.25
359.17	1845.42
359.38	1878.40
359.60	2285.33
359.81	2145.25
360.02	1878.60
360.23	1786.24
360.44	2034.45
360.66	2305.60
360.87	1824.74
361.08	1789.31
361.29	2219.79
361.50	2158.76
361.72	1829.25
361.93	1904.00
362.14	2179.04
362.35	1911.37
362.56	2003.32
362.77	1710.87
362.99	2262.60
363.20	2139.51
363.41	1920.38
363.62	1703.91
363.83	2255.02
364.05	2303.96
364.26	1775.38
364.47	1820.85
364.68	2352.91
364.89	1998.82
365.10	1774.36
365.32	1877.37
365.53	1990.63
365.74	2065.58
365.95	1839.49
366.16	1702.68
366.37	2133.78
366.59	2092.41
366.80	1854.44
367.01	1732.79
367.22	2502.82
367.43	2632.66
367.64	1940.86
367.86	1853.62
368.07	2226.35
368.28	2372.16
368.49	1761.46
368.70	1876.14
368.91	2104.29
369.12	2131.94
369.34	1763.71
369.55	1745.48
369.76	2176.79
369.97	2072.13
370.18	1733.40
370.39	1825.76
370.60	1909.32
370.82	1984.07
371.03	1875.94
371.24	1793.61
371.45	2302.94
371.66	2260.96
371.87	1819.62
372.08	1866.11
372.30	1996.16
372.51	2307.86
372.72	1990.83
372.93	1844.61
373.14	2447.53
373.35	2027.28
373.56	1797.30
373.78	1863.04
373.99	2303.76
374.20	2686.32
374.41	1818.80
374.62	1818.60
374.83	2395.92
375.04	2111.05
375.25	1853.62
375.47	1890.68
375.68	2062.51
375.89	2298.03
376.10	1873.69
376.31	1937.17
376.52	2244.37
376.73	2160.61
376.94	1909.53
377.15	1784.80
377.37	2153.85
377.58	2118.62
377.79	1750.40
378.00	1781.32
378.21	2195.01
378.42	2251.95
378.63	1889.46
378.84	1947.21
379.05	2339.80
379.27	2177.81
379.48	1945.57
379.69	1795.25
379.90	2374.41
380.11	1831.29
380.32	1859.15
380.53	1965.03
380.74	2386.09
380.95	2182.32
381.16	1901.13
381.37	1896.01
381.59	2412.10
381.80	2295.77
382.01	1815.52
382.22	1761.87
382.43	2221.23
382.64	2132.96
382.85	1784.80
383.06	1926.11
383.27	2243.75
383.48	2116.99
383.69	1861.60
383.91	1781.53
384.12	2260.96
384.33	2271.61
384.54	1892.53
384.75	1799.35
384.96	2716.43
385.17	2350.04
385.38	1878.40
385.59	1837.44
385.80	2297.82
386.01	2430.94
386.22	1952.12
386.43	1880.44
386.64	2530.88
386.86	2151.60
387.07	1978.13
387.28	1790.33
387.49	2058.00
387.70	2408.82
387.91	1991.65
388.12	1855.05
388.33	2253.38
388.54	2052.88
388.75	1804.06
388.96	1943.93
389.17	2044.08
389.38	2086.27
389.59	1918.95
389.80	1926.52
390.01	2131.73
390.22	2071.52
390.43	1962.36
390.64	1760.43
390.86	2219.59
391.07	2350.25
391.28	1835.18
391.49	1894.17
391.70	1930.01
391.91	2040.19
392.12	1846.45
392.33	1921.81
392.54	2170.44
392.75	2096.51
392.96	1943.73
393.17	1823.51
393.38	2565.29
393.59	2358.44
393.80	1744.25
394.01	1868.77
394.22	2108.59
394.43	2445.07
394.64	1753.27
394.85	1955.20
395.06	2131.94
395.27	2172.69
395.48	1849.11
395.69	1753.47
395.90	2092.61
396.11	2147.09
396.32	1849.93
396.53	1945.37
396.74	2111.87
396.95	2340.62
397.16	1811.22
397.37	1728.08
397.58	2305.60
397.79	2156.31
398.00	1898.67
398.21	1870.00
398.42	2182.52
398.63	2521.87
398.84	1857.51
399.05	1804.26
399.26	2407.59
399.47	2226.76
399.68	1718.25
399.89	1782.55
400.10	1957.65
400.31	2071.73
400.52	1925.50
400.73	1820.85
400.94	1894.99
401.15	2221.23
401.36	1887.82
401.57	1889.66
401.78	2349.43
401.99	2326.49
402.20	1782.35
402.41	2014.59
402.62	2412.71
402.83	2085.24
403.04	1804.87
403.25	2045.31
403.46	2192.56
403.67	2356.80
403.88	1849.32
404.09	1812.25
404.30	2008.44
404.51	2005.17
404.72	1796.68
404.93	1973.22
405.14	1998.82
405.35	2131.12
405.56	1878.81
405.77	1811.63
405.98	2176.58
406.19	2159.38
406.40	1798.53
406.61	1827.40
406.82	2036.91
407.03	2604.61
407.24	1788.90
407.45	1881.06
407.66	2217.54
407.87	2302.94
408.08	1927.34
408.29	1949.67
408.49	2259.93
408.70	2117.80
408.91	1824.94
409.12	1963.59
409.33	1976.90
409.54	2357.21
409.75	1806.72
409.96	1878.81
410.17	2305.60
410.38	2146.48
410.59	1815.11
410.80	1948.44
411.01	2112.48
411.22	2113.30
411.43	1940.04
411.64	1833.55
411.85	1979.57
412.06	1996.16
412.27	1675.03
412.47	1800.37
412.68	2139.51
412.89	2263.82
413.10	1845.02
413.31	1759.21
413.52	2464.73
413.73	2470.06
413.94	1823.92
414.15	2001.48
414.36	2052.27
414.57	1994.52
414.78	1785.62
414.99	1777.84
415.19	2216.93
415.40	2153.23
415.61	1945.78
415.82	1925.30
416.03	2248.67
416.24	2201.98
416.45	1884.34
416.66	1743.64
416.87	1913.42
417.08	2244.57
417.29	1791.36
417.50	1887.20
417.70	2249.69
417.91	2190.30
418.12	1912.39
418.33	1830.68
418.54	2214.67
418.75	2316.25
418.96	1970.76
419.17	1895.80
419.38	2353.12
419.59	2175.35
419.79	1944.96
420.00	1838.26
420.21	2609.93
420.42	2150.57
420.63	1831.50
420.84	1873.28
421.05	2125.79
421.26	2146.68
421.47	1787.88
421.67	2243.75
421.88	2002.09
422.09	1973.22
422.30	2107.97
422.51	1871.43
422.72	2470.26
422.93	2296.80
423.14	1921.61
423.35	1779.07
423.55	1873.69
423.76	1993.70
423.97	1879.83
424.18	1723.37
424.39	2075.21
424.60	2283.08
424.81	1863.24
425.02	1940.04
425.22	2060.46
425.43	2057.80
425.64	2042.64
425.85	1881.26
426.06	2508.56
426.27	2311.13
426.48	1962.98
426.68	1933.69
426.89	2263.42
427.10	2471.69
427.31	1891.71
427.52	1806.92
427.73	2256.45
427.94	2229.01
428.14	2038.34
428.35	1940.04
428.56	2417.22
428.77	2327.72
428.98	1896.62
429.19	1885.77
429.40	2045.92
429.60	2107.56
429.81	1988.37
430.02	1896.21
430.23	2115.76
430.44	2252.97
430.65	1820.03
430.85	1868.57
431.06	2243.55
431.27	1900.52
431.48	1870.41
431.69	1903.79
431.90	2148.93
432.10	2137.87
432.31	1951.51
432.52	1843.99
432.73	2582.28
432.94	2392.23
433.15	2037.32
433.35	1826.58
433.56	2325.26
433.77	2151.19
433.98	2090.98
434.19	1982.84
434.40	2301.30
434.60	2297.00
434.81	2125.79
435.02	2009.88
435.23	2201.57
435.44	2112.68
435.64	1814.91
435.85	1807.13
436.06	2108.38
436.27	2063.74
436.48	1788.08
436.68	1840.71
436.89	2490.33
437.10	2299.25
437.31	1987.76
437.52	2061.08
437.73	2259.11
437.93	2242.53
438.14	1975.27
438.35	1788.08
438.56	2063.53
438.77	2110.43
438.97	2070.09
439.18	1873.69
439.39	2367.86
439.60	1946.18
439.80	1824.54
440.01	1894.37
440.22	2069.27
440.43	2263.82
440.64	1839.69
440.84	1918.95
441.05	1987.35
441.26	2637.17
441.47	1973.63
441.68	1920.99
441.88	2208.73
442.09	2237.82
442.30	2206.89
442.51	2231.88
442.71	2250.10
442.92	2323.83
443.13	1985.10
443.34	1934.72
443.55	1999.23
443.75	2272.02
443.96	1885.97
444.17	1792.18
444.38	2318.51
444.58	2000.25
444.79	1979.36
445.00	1937.79
445.21	2104.49
445.41	2084.22
445.62	1705.34
445.83	1998.82
446.04	2159.38
446.24	1918.13
446.45	1705.96
446.66	1898.06
446.87	2215.29
447.07	2054.93
447.28	2096.30
447.49	1879.63
447.70	2292.91
447.90	2316.05
448.11	1940.45
448.32	2014.38
448.53	2394.08
448.73	2404.93
448.94	1881.06
449.15	2046.74
449.36	2162.45
449.56	2209.96
449.77	1887.82
449.98	1813.68
450.19	2056.78
450.39	2064.76
450.60	1955.81
450.81	1940.04
451.02	2102.65
451.22	2422.54
451.43	1842.15
451.64	1851.98
451.84	2067.42
452.05	2338.58
452.26	1897.24
452.47	1915.26
452.67	2069.27
452.88	2404.32
453.09	1800.16
453.30	1811.02
453.50	2264.85
453.71	2493.40
453.92	1979.98
454.12	2144.84
454.33	2194.60
454.54	2222.25
454.75	1931.64
454.95	1893.55
455.16	2186.00
455.37	2224.71
455.57	2009.26
455.78	1906.86
455.99	2151.60
456.19	2161.02
456.40	1853.41
456.61	1915.06
456.82	2159.58
457.02	2317.69
457.23	2057.59
457.44	2175.56
457.64	2184.77
457.85	2354.34
458.06	2007.62
458.26	1995.54
458.47	2143.81
458.68	2318.30
458.89	1906.86
459.09	2045.72
459.30	2488.69
459.51	2176.17
459.71	1776.41
459.92	1858.33
460.13	2289.63
460.33	2546.44
460.54	1970.97
460.75	1973.63
460.95	1973.83
461.16	2229.21
461.37	1919.97
461.57	1886.18
461.78	2163.06
461.99	1950.69
462.19	2161.84
462.40	1836.62
462.61	2527.40
462.81	2331.20
463.02	1866.31
463.23	1888.64
463.43	2266.90
463.64	2068.24
463.85	3175.58
464.05	1880.04
464.26	2657.85
464.47	2393.05
464.67	2067.42
464.88	2023.19
465.09	2126.82
465.29	2250.92
465.50	2149.34
465.71	2072.54
465.91	2136.85
466.12	2184.36
466.33	2000.66
466.53	1895.19
466.74	2392.85
466.94	2129.68
467.15	1957.24
467.36	2096.10
467.56	2031.59
467.77	2209.96
467.98	1951.10
468.18	1907.27
468.39	2034.86
468.60	2490.94
468.80	1922.63
469.01	1839.90
469.21	2209.76
469.42	2358.85
469.63	1895.19
469.83	1855.05
470.04	2227.58
470.25	2400.42
470.45	2034.04
470.66	1897.44
470.86	2204.84
471.07	2074.59
471.28	2017.04
471.48	2008.65
471.69	2189.07
471.90	2905.04
472.10	2072.54
472.31	2079.10
472.51	2251.13
472.72	2195.01
472.93	1977.93
473.13	2106.13
473.34	2267.10
473.54	2199.11
473.75	2005.99
473.96	2117.19
474.16	2142.18
474.37	2234.13
474.57	2028.92
474.78	1858.53
474.99	2189.48
475.19	2187.23
475.40	1929.19
475.60	1913.21
475.81	2580.85
476.02	2250.10
476.22	2176.17
476.43	2217.54
476.63	2227.78
476.84	2450.60
477.05	1845.42
477.25	1923.86
477.46	2705.37
477.66	2188.66
477.87	1889.87
478.08	1930.42
478.28	2335.91
478.49	2096.10
478.69	1888.43
478.90	1889.05
479.10	2234.33
479.31	2437.70
479.52	1998.00
479.72	2041.82
479.93	2266.08
480.13	2082.58
480.34	1937.79
480.54	2005.78
480.75	2064.56
480.96	2359.26
481.16	1879.63
481.37	2003.32
481.57	2282.87
481.78	2275.09
481.98	2141.77
482.19	2058.82
482.40	2499.34
482.60	2245.39
482.81	2077.46
483.01	1825.97
483.22	2323.83
483.42	2298.44
483.63	1995.75
483.83	1969.53
484.04	2055.96
484.24	2313.18
484.45	2074.80
484.66	1876.55
484.86	2244.37
485.07	2023.19
485.27	1974.04
485.48	1884.54
485.68	2390.80
485.89	2011.92
486.09	2056.78
486.30	1899.49
486.50	2184.57
486.71	2112.07
486.91	2003.12
487.12	2195.42
487.33	2772.95
487.53	2850.16
487.74	2422.34
487.94	2398.79
488.15	2435.85
488.35	2394.49
488.56	2073.98
488.76	1952.33
488.97	2206.48
489.17	2295.36
489.38	2054.73
489.58	1955.81
489.79	2259.32
489.99	2245.19
490.20	1946.39
490.40	2065.79
490.61	2252.77
490.81	2095.48
491.02	2000.25
491.22	1985.51
491.43	2280.00
491.63	2158.15
491.84	2082.78
492.04	1866.11
492.25	2244.16
492.45	2092.61
492.66	1891.71
492.86	1851.98
493.07	2092.61
493.27	2530.06
493.48	1801.39
493.68	1894.99
493.89	2110.64
494.09	2283.89
494.30	1957.86
494.50	2166.75
494.71	2251.54
494.91	1895.80
495.12	1955.40
495.32	1996.16
495.53	2186.00
495.73	1942.09
495.94	2137.46
496.14	1949.05
496.35	2642.49
496.55	2239.45
496.76	1976.70
496.96	2010.29
497.17	2147.30
497.37	2266.69
497.58	1965.03
497.78	1877.78
497.98	2095.48
498.19	2092.00
498.39	1918.33
498.60	1972.40
498.80	1831.70
499.01	2266.49
499.21	1838.67
499.42	2002.71
499.62	2106.34
499.83	2523.71
500.03	1836.00
500.24	2045.10
500.44	2368.07
500.64	2366.63
500.85	1938.40
501.05	2042.23
501.26	1881.06
501.46	2362.33
501.67	1892.32
501.87	1849.52
502.08	2028.92
502.28	2099.17
502.48	2022.78
502.69	2061.08
502.89	1876.14
503.10	2016.63
503.30	1998.00
503.51	1971.17
503.71	1914.85
503.92	2219.59
504.12	1989.19
504.32	1873.69
504.53	2243.34
504.73	2234.33
504.94	2062.71
505.14	2189.69
505.35	2253.99
505.55	2204.84
505.75	1951.92
505.96	2117.19
506.16	2496.68
506.37	2048.99
506.57	1893.14
506.78	2027.28
506.98	2307.24
507.18	1887.82
507.39	1849.32
507.59	1938.61
507.80	2013.15
508.00	2145.66
508.20	2160.20
508.41	1940.66
508.61	2383.63
508.82	2294.34
509.02	2081.35
509.22	1898.26
509.43	1996.56
509.63	2026.06
509.84	1981.00
510.04	1814.91
510.24	2403.70
510.45	2265.26
510.65	1855.87
510.86	1986.32
511.06	1927.14
511.26	2264.44
511.47	2103.47
511.67	1891.71
511.88	2190.51
512.08	2287.58
512.28	1846.04
512.49	2033.02
512.69	2182.73
512.90	2153.64
513.10	1933.90
513.30	2016.63
513.51	2219.59
513.71	2409.03
513.91	2014.79
514.12	1986.32
514.32	2293.72
514.53	2031.38
514.73	2029.33
514.93	1947.62
515.14	2131.32
515.34	2340.01
515.54	1908.71
515.75	1986.32
515.95	2199.31
516.15	2365.61
516.36	1963.39
516.56	1989.40
516.77	1772.31
516.97	2228.39
517.17	1952.74
517.38	2029.33
517.58	2389.37
517.78	2055.55
517.99	2026.26
518.19	1947.41
518.39	2324.65
518.60	2007.01
518.80	1838.46
519.00	1991.44
519.21	2092.20
519.41	2487.05
519.61	1889.66
519.82	2050.63
520.02	2141.97
520.22	2125.38
520.43	1932.26
520.63	1985.51
520.83	2047.76
521.04	1878.81
521.24	2055.75
521.44	1960.52
521.65	1983.66
521.85	2222.05
522.05	1908.91
522.26	1886.79
522.46	2466.98
522.66	2284.30
522.87	1987.76
523.07	2136.24
523.27	2051.25
523.48	2356.19
523.68	1983.05
523.88	2039.78
524.09	2338.99
524.29	2181.29
524.49	1831.70
524.70	2023.19
524.90	2373.19
525.10	2239.66
525.31	1859.35
525.51	1834.37
525.71	2255.63
525.91	2235.77
526.12	1964.21
526.32	1859.35
526.52	2067.83
526.73	2004.96
526.93	2038.96
527.13	1863.24
527.34	2117.60
527.54	2144.43
527.74	1971.99
527.94	1857.51
528.15	1944.75
528.35	2146.48
528.55	2055.55
528.76	1988.99
528.96	1859.35
529.16	2319.73
529.36	2058.00
529.57	1870.61
529.77	2344.92
529.97	1969.33
530.18	2049.20
530.38	1918.33
530.58	2222.87
530.78	2154.05
530.99	1953.15
531.19	2020.94
531.39	2013.36
531.60	2130.91
531.80	2022.78
532.00	2120.06
532.20	2179.24
532.41	2038.34
532.61	1913.42
532.81	1867.75
533.01	2060.05
533.22	2199.11
533.42	2085.04
533.62	1835.18
533.82	2358.85
534.03	2075.21
534.23	2069.27
534.43	1902.56
534.63	2035.68
534.84	2152.82
535.04	2048.38
535.24	1993.08
535.44	2623.24
535.65	2079.10
535.85	1928.57
536.05	1882.70
536.25	2139.51
536.46	1959.91
536.66	2112.27
536.86	2006.80
537.06	2240.89
537.27	2389.57
537.47	2002.09
537.67	1947.82
537.87	2388.55
538.08	2147.91
538.28	1864.27
538.48	1847.47
538.68	2112.48
538.88	2246.62
539.09	1814.91
539.29	1962.16
539.49	2298.03
539.69	2184.16
539.90	2050.63
540.10	1862.42
540.30	2359.67
540.50	2035.27
540.70	1805.28
540.91	1900.92
541.11	2270.38
541.31	2376.46
541.51	2009.06
541.72	2059.64
541.92	2174.94
542.12	1982.02
542.32	1995.95
542.52	1952.53
542.73	2022.16
542.93	2235.97
543.13	1943.11
543.33	2040.39
543.53	2260.75
543.74	2231.47
543.94	1910.14
544.14	2045.10
544.34	2324.44
544.54	2105.52
544.75	2027.69
544.95	2120.67
545.15	2229.21
545.35	2420.29
545.55	2091.59
545.75	1977.11
545.96	2519.21
546.16	2004.14
546.36	1988.58
546.56	1987.76
546.76	2322.81
546.97	2418.45
547.17	1984.07
547.37	2089.75
547.57	2037.73
547.77	2272.22
547.97	2058.00
548.18	2057.18
548.38	2124.15
548.58	2329.97
548.78	1899.49
548.98	1959.91
549.18	2240.27
549.39	2361.51
549.59	2028.31
549.79	1998.61
549.99	2389.57
550.19	2281.64
550.39	2117.19
550.60	1972.60
550.80	2170.23
551.00	2245.60
551.20	1954.79
551.40	1951.71
551.60	2220.82
551.80	2153.64
552.01	2067.83
552.21	1985.10
552.41	2159.58
552.61	2448.35
552.81	2051.25
553.01	1893.14
553.21	2220.41
553.42	2001.28
553.62	1967.07
553.82	1878.81
554.02	2421.11
554.22	2272.22
554.42	1881.88
554.62	2102.85
554.83	2411.89
555.03	2354.96
555.23	1977.72
555.43	2234.33
555.63	2143.40
555.83	2130.09
556.03	2048.79
556.23	1854.44
556.44	2137.87
556.64	2330.18
556.84	1713.54
557.04	1960.11
557.24	2185.39
557.44	2152.82
557.64	2042.85
557.84	1902.15
558.04	2073.57
558.25	2274.68
558.45	1872.25
558.65	2002.91
558.85	2142.38
559.05	1850.13
559.25	2016.43
559.45	2037.93
559.65	2489.31
559.85	2947.03
560.05	2001.68
560.26	2044.90
560.46	2075.21
560.66	2012.74
560.86	1915.67
561.06	1884.34
561.26	2369.70
561.46	2232.70
561.66	1979.98
561.86	2087.90
562.06	1984.48
562.26	2095.48
562.47	1994.11
562.67	1873.28
562.87	2257.68
563.07	1894.17
563.27	2021.96
563.47	2011.51
563.67	2089.95
563.87	2242.53
564.07	1898.26
564.27	1952.53
564.47	2142.38
564.67	2173.51
564.87	1916.69
565.08	2030.36
565.28	2013.15
565.48	2221.64
565.68	2053.70
565.88	2119.03
566.08	2480.09
566.28	2144.63
566.48	1860.17
566.68	2016.43
566.88	2098.96
567.08	2289.01
567.28	2025.85
567.48	2003.12
567.68	2196.45
567.88	1905.23
568.08	1978.34
568.28	2121.49
568.48	2109.61
568.68	2329.15
568.89	2025.03
569.09	1850.54
569.29	2263.01
569.49	2275.91
569.69	1906.25
569.89	1932.87
570.09	1817.37
570.29	2015.41
570.49	1878.60
570.69	1956.01
570.89	2301.92
571.09	2495.86
571.29	1872.46
571.49	2135.42
571.69	2205.05
571.89	2247.65
572.09	1961.95
572.29	2072.75
572.49	2295.16
572.69	2259.32
572.89	2008.03
573.09	1727.26
573.29	2090.77
573.49	2134.60
573.69	1967.89
573.89	2034.66
574.09	2054.93
574.29	2312.16
574.49	2022.37
574.69	1881.47
574.89	1968.51
575.09	1970.56
575.29	1888.43
575.49	1982.84
575.69	2190.30
575.89	1934.51
576.09	1988.58
576.29	1996.97
576.49	1959.09
576.69	2087.49
576.89	1927.96
577.09	1987.35
577.29	1867.13
577.49	2463.71
577.69	1924.07
577.89	2096.10
578.09	2130.71
578.29	1883.11
578.49	2002.30
578.69	1904.20
578.89	2311.95
579.09	2157.13
579.29	1903.79
579.49	2074.39
579.69	2052.06
579.89	2462.89
580.09	1784.40
580.29	1834.98
580.49	2045.10
580.69	1976.90
580.89	1922.43
581.09	1968.30
581.29	2052.27
581.49	2112.48
581.69	1914.24
581.89	1890.07
582.09	1986.53
582.28	1959.50
582.48	2097.12
582.68	2133.57
582.88	2371.55
583.08	2048.79
583.28	1990.42
583.48	1993.70
583.68	2038.96
583.88	2136.24
584.08	2012.95
584.28	2024.21
584.48	2480.29
584.68	2243.96
584.88	1958.68
585.08	2178.01
585.28	2317.48
585.48	2350.86
585.68	2052.27
585.87	2130.91
586.07	2206.48
586.27	2146.27
586.47	2062.71
586.67	1963.39
586.87	2138.49
587.07	2064.97
587.27	1886.38
587.47	2067.63
587.67	2381.99
587.87	2591.91
588.07	2021.35
588.27	1911.16
588.46	2246.21
588.66	2253.99
588.86	1946.59
589.06	2021.35
589.26	2280.21
589.46	2256.86
589.66	1890.89
589.86	1859.76
590.06	2096.71
590.26	2182.93
590.46	1924.27
590.66	2036.91
590.85	1995.13
591.05	2146.89
591.25	1875.12
591.45	1976.70
591.65	2184.98
591.85	2120.47
592.05	1906.25
592.25	2015.82
592.45	2281.44
592.64	2054.32
592.84	1991.24
593.04	1925.09
593.24	2572.66
593.44	2039.37
593.64	1980.80
593.84	2072.54
594.04	2054.52
594.24	2400.01
594.43	1966.66
594.63	1976.49
594.83	2305.60
595.03	2294.54
595.23	1891.71
595.43	1889.46
595.63	1998.82
595.83	2280.62
596.02	1788.29
596.22	1980.80
596.42	2199.31
596.62	2121.08
596.82	1980.59
597.02	2024.01
597.22	2361.92
597.41	2150.37
597.61	1947.62
597.81	2084.22
598.01	2264.44
598.21	2054.32
598.41	1868.77
598.61	1901.13
598.80	2133.57
599.00	2196.04
599.20	2119.85
599.40	1979.98
599.60	2061.89
599.80	2243.34
599.99	2106.54
600.19	1933.90
600.39	2151.19
600.59	2249.69
600.79	2062.10
600.99	1984.89
601.19	2441.38
601.38	2469.24
601.58	2067.01
601.78	1743.64
601.98	2162.04
602.18	2145.86
602.37	2191.74
602.57	1965.85
602.77	2218.36
602.97	2106.75
603.17	2112.07
603.37	2070.70
603.56	2266.28
603.76	2216.72
603.96	1980.59
604.16	2012.33
604.36	2370.52
604.56	2284.10
604.75	1903.79
604.95	2006.60
605.15	2333.05
605.35	2259.93
605.55	1955.61
605.74	1904.00
605.94	2326.90
606.14	2141.15
606.34	2002.71
606.54	2042.44
606.73	2051.45
606.93	2250.10
607.13	1926.93
607.33	2045.72
607.53	2411.69
607.72	2314.00
607.92	2079.51
608.12	2132.96
608.32	2093.23
608.51	2240.48
608.71	1886.18
608.91	2041.01
609.11	2233.51
609.31	2073.16
609.50	1969.33
609.70	2213.44
609.90	2278.57
610.10	2288.20
610.29	1944.75
610.49	1853.41
610.69	2234.74
610.89	2133.16
611.09	1975.88
611.28	2179.65
611.48	2316.66
611.68	2088.72
611.88	1950.49
612.07	1907.48
612.27	2272.43
612.47	1978.34
612.67	2011.72
612.86	2125.59
613.06	2159.17
613.26	1879.63
613.46	1913.42
613.65	2040.80
613.85	2650.28
614.05	2238.23
614.25	2063.94
614.44	1999.43
614.64	2112.89
614.84	2018.48
615.04	1916.49
615.23	1951.92
615.43	2223.07
615.63	2223.48
615.83	1904.41
616.02	1834.16
616.22	2242.73
616.42	1910.96
616.62	1891.09
616.81	1975.88
617.01	2162.45
617.21	2122.31
617.41	1855.25
617.60	2001.68
617.80	2222.25
618.00	2237.20
618.19	2092.20
618.39	1972.19
618.59	2216.11
618.79	2132.35
618.98	1848.50
619.18	1984.07
619.38	2551.77
619.57	2124.36
619.77	1985.71
619.97	1988.99
620.17	2015.82
620.36	1924.68
620.56	2136.44
620.76	1859.15
620.95	1916.90
621.15	2031.18
621.35	1884.75
621.54	1983.25
621.74	2152.42
621.94	2023.39
622.14	1855.25
622.33	1838.05
622.53	2121.29
622.73	2071.32
622.92	1833.55
623.12	1952.12
623.32	2472.10
623.51	2273.65
623.71	1885.56
623.91	2171.46
624.10	1941.68
624.30	2165.32
624.50	1806.92
624.69	1837.85
624.89	2838.69
625.09	2059.23
625.29	1773.34
625.48	1854.85
625.68	2159.17
625.88	2310.52
626.07	2042.44
626.27	1918.95
626.47	2050.22
626.66	1875.94
626.86	2006.80
627.06	1963.80
627.25	2159.58
627.45	2418.65
627.64	1962.77
627.84	2154.67
628.04	2012.13
628.23	2490.53
628.43	1855.87
628.63	1902.77
628.82	2026.26
629.02	2421.52
629.22	2017.66
629.41	2126.61
629.61	2103.47
629.81	2471.49
630.00	1928.78
630.20	1868.36
630.40	2133.98
630.59	2191.33
630.79	1965.64
630.98	1956.63
631.18	2079.10
631.38	2095.07
631.57	2090.57
631.77	1840.10
631.97	2175.97
632.16	2196.86
632.36	1995.95
632.56	2028.92
632.75	2167.98
632.95	2321.58
633.14	1876.76
633.34	2160.61
633.54	1850.13
633.73	2076.23
633.93	1952.12
634.12	1818.80
634.32	2613.00
634.52	2131.53
634.71	1829.86
634.91	2021.35
635.11	1911.78
635.30	2024.42
635.50	2011.11
635.69	1903.79
635.89	2453.67
636.09	2263.01
636.28	1897.24
636.48	1889.87
636.67	2203.00
636.87	2211.40
637.07	2030.15
637.26	1915.26
637.46	2163.68
637.65	2300.69
637.85	2033.84
638.04	1896.21
638.24	2049.20
638.44	2179.65
638.63	2005.58
638.83	1968.51
639.02	2192.56
639.22	2211.40
639.42	1928.98
639.61	1958.06
639.81	2138.08
640.00	2099.37
640.20	2086.47
640.39	2000.66
640.59	2440.36
640.79	2255.63
640.98	1995.34
641.18	1904.41
641.37	2051.25
641.57	1968.30
641.76	1998.61
641.96	1755.11
642.15	2160.81
642.35	2012.95
642.55	2000.25
642.74	1840.71
642.94	2239.66
643.13	2363.36
643.33	1950.69
643.52	1899.29
643.72	2058.82
643.91	2149.55
644.11	1850.34
644.31	1907.27
644.50	2026.47
644.70	2341.44
644.89	1984.07
645.09	2049.61
645.28	2140.54
645.48	2224.71
645.67	1899.29
645.87	1827.40
646.06	2072.54
646.26	2210.78
646.45	1774.97
646.65	1763.71
646.84	2454.49
647.04	2062.51
647.24	1847.47
647.43	1952.12
647.63	2156.31
647.82	2388.34
648.02	1888.43
648.21	1970.15
648.41	2364.18
648.60	2064.97
648.80	2103.06
648.99	1962.36
649.19	2041.82
649.38	1850.34
649.58	1984.89
649.77	2051.86
649.97	2318.71
650.16	2209.96
650.36	1727.05
650.55	2119.44
650.75	2167.98
650.94	2420.49
651.14	2016.43
651.33	2048.99
651.53	2417.63
651.72	2008.44
651.92	1964.00
652.11	1806.51
652.31	2242.32
652.50	2202.39
652.70	2012.95
652.89	1866.31
653.09	2387.93
653.28	2052.88
653.48	1772.52
653.67	1827.40
653.87	2648.64
654.06	2138.69
654.25	2210.17
654.45	1913.42
654.64	2044.08
654.84	2065.79
655.03	1780.09
655.23	2116.58
655.42	2267.31
655.62	2444.46
655.81	2097.32
656.01	1923.86
656.20	2310.11
656.40	2441.38
656.59	2037.52
656.79	2105.93
656.98	2197.47
657.17	2303.96
657.37	1980.39
657.56	1958.27
657.76	2222.05
657.95	2304.99
658.15	1639.81
658.34	2015.41
658.54	2141.15
658.73	1927.55
658.92	1957.24
659.12	1979.98
659.31	2212.83
659.51	1937.79
659.70	2002.71
659.90	1909.73
660.09	2268.74
660.29	2084.42
660.48	1877.99
660.67	2119.44
660.87	2036.50
661.06	2153.03
661.26	2035.68
661.45	2066.20
661.65	2190.71
661.84	2021.75
662.03	1890.48
662.23	1920.18
662.42	2500.77
662.62	1973.42
662.81	1854.85
663.00	1919.36
663.20	2155.49
663.39	2239.25
663.59	2074.80
663.78	1938.81
663.97	2094.25
664.17	2282.67
664.36	1868.16
664.56	1915.26
664.75	2272.02
664.94	2219.59
665.14	2032.40
665.33	1970.56
665.53	2110.02
665.72	2075.00
665.91	2064.76
666.11	2001.28
666.30	2132.55
666.50	2067.01
666.69	2031.18
666.88	1915.67
667.08	2132.55
667.27	2050.02
667.47	1944.75
667.66	1935.74
667.85	2261.37
668.05	2130.71
668.24	1874.10
668.43	2164.70
668.63	2052.47
668.82	2310.11
669.02	2045.92
669.21	1930.01
669.40	1905.02
669.60	2450.19
669.79	1810.81
669.98	2608.09
670.18	1961.95
670.37	1927.34
670.56	1959.09
670.76	2016.23
670.95	2077.46
671.15	2258.91
671.34	1966.46
671.53	1974.45
671.73	2009.88
671.92	1988.78
672.11	1880.85
672.31	1906.04
672.50	2182.73
672.69	1918.74
672.89	1718.04
673.08	1951.30
673.27	2230.44
673.47	2136.24
673.66	1999.64
673.85	1840.71
674.05	2102.85
674.24	2089.13
674.43	1825.35
674.63	1963.18
674.82	2520.64
675.01	1720.50
675.21	2035.27
675.40	1940.25
675.59	1987.55
675.79	2339.39
675.98	1934.31
676.17	2094.66
676.37	2158.56
676.56	2048.58
676.75	1941.27
676.95	1990.83
677.14	2059.64
677.33	2293.32
677.52	1803.65
677.72	1934.51
677.91	2183.54
678.10	1873.89
678.30	1874.10
678.49	1882.90
678.68	2494.22
678.88	1813.89
679.07	2117.60
679.26	1935.54
679.45	2442.61
679.65	2333.46
679.84	1780.71
680.03	1808.15
680.23	2029.95
680.42	2562.83
680.61	1864.27
680.81	1925.50
681.00	2113.50
681.19	2202.18
681.38	2076.64
681.58	2008.24
681.77	2056.78
681.96	2208.53
682.15	1867.34
682.35	2024.01
682.54	2186.21
682.73	1933.28
682.93	1872.66
683.12	1839.90
683.31	2240.07
683.50	2606.45
683.70	1888.84
683.89	2022.57
684.08	1954.99
684.27	2293.11
684.47	1832.52
684.66	1933.08
684.85	2492.17
685.04	2317.28
685.24	1879.01
685.43	1927.55
685.62	1825.56
685.81	2159.58
686.01	2051.25
686.20	1829.66
686.39	1862.22
686.58	2447.32
686.78	2010.29
686.97	1938.81
687.16	2254.40
687.35	2153.23
687.55	1919.36
687.74	1961.54
687.93	1904.82
688.12	2062.30
688.32	1949.26
688.51	1785.83
688.70	2174.33
688.89	1897.24
689.08	1818.39
689.28	1879.83
689.47	2136.65
689.66	2131.53
689.85	2044.49
690.05	1865.29
690.24	1998.20
690.43	2163.68
690.62	1981.41
690.81	1920.18
691.01	2121.90
691.20	2052.68
691.39	1815.93
691.58	1992.26
691.77	2423.77
691.97	2132.96
692.16	2021.14
692.35	1947.21
692.54	1997.18
692.73	2165.93
692.93	1965.64
693.12	1987.35
693.31	2136.85
693.50	2118.62
693.69	2039.57
693.89	1942.91
694.08	2326.08
694.27	2327.52
694.46	1915.87
694.65	1936.76
694.85	2190.30
695.04	2190.71
695.23	1876.96
695.42	2117.60
695.61	2213.44
695.80	2328.34
696.00	2271.40
696.19	2306.63
696.38	2103.88
696.57	2282.26
696.76	2134.19
696.95	1996.36
697.15	2423.57
697.34	2378.72
697.53	1974.65
697.72	2062.30
697.91	2051.25
698.10	2354.55
698.30	1978.13
698.49	1942.29
698.68	2164.29
698.87	2047.56
699.06	1888.43
699.25	1968.51
699.45	2266.90
699.64	2109.41
699.83	2138.08
700.02	1926.11
700.21	2182.52
700.40	2037.93
700.59	1899.49
700.79	1993.49
700.98	2223.68
701.17	1991.44
701.36	1872.25
701.55	1903.59
701.74	2289.42
701.93	1874.71
702.12	1907.48
702.32	1821.67
702.51	2256.45
702.70	2188.87
702.89	1970.97
703.08	1923.66
703.27	2299.25
703.46	2154.26
703.65	1858.12
703.85	1813.89
704.04	1978.75
704.23	2270.38
704.42	1854.64
704.61	1864.27
704.80	2383.43
704.99	1979.98
705.18	2017.45
705.37	1928.37
705.57	2160.61
705.76	2348.00
705.95	1966.05
706.14	2309.08
706.33	2496.88
706.52	2730.56
706.71	2157.94
706.90	2029.54
707.09	2246.21
707.28	2189.89
707.47	1914.24
707.67	2071.32
707.86	2005.58
708.05	2321.37
708.24	1930.42
708.43	2007.42
708.62	2060.46
708.81	1971.99
709.00	1888.02
709.19	1898.26
709.38	2298.44
709.57	1923.86
709.76	1969.74
709.96	1878.40
710.15	2346.56
710.34	2075.41
710.53	2045.10
710.72	1937.99
710.91	2293.72
711.10	2209.76
711.29	2015.82
711.48	1909.12
711.67	1913.42
711.86	2183.13
712.05	1798.53
712.24	1837.44
712.43	2227.17
712.62	2339.19
712.81	1949.46
713.00	2146.89
713.19	1913.62
713.39	2167.57
713.58	1838.05
713.77	1982.43
713.96	2157.74
714.15	2056.57
714.34	1909.94
714.53	1757.77
714.72	2447.53
714.91	1927.55
715.10	1982.23
715.29	1838.87
715.48	2592.32
715.67	2196.24
715.86	1965.23
716.05	1923.66
716.24	2054.93
716.43	2003.32
716.62	1809.18
716.81	1834.98
717.00	2037.93
717.19	2401.24
717.38	1931.03
717.57	1907.07
717.76	1862.01
717.95	2284.10
718.14	1968.71
718.33	1986.94
718.52	1848.70
718.71	1863.65
718.90	1859.56
719.09	1868.36
719.28	2093.84
719.47	2246.83
719.66	2004.55
719.85	2017.04
720.04	2042.23
720.23	2086.47
720.42	1881.88
720.61	2019.50
720.80	1866.72
720.99	2135.42
721.18	1930.01
721.37	1847.47
721.56	2009.88
721.75	2220.61
721.94	1846.04
722.13	1915.26
722.32	2011.31
722.51	2236.18
722.70	1988.78
722.89	2038.55
723.08	2088.11
723.27	2235.77
723.46	2023.39
723.65	1991.24
723.84	2021.96
724.03	2326.29
724.22	1798.12
724.41	1952.94
724.60	2069.68
724.79	2253.18
724.98	1999.64
725.16	1915.87
725.35	2214.47
725.54	1961.13
725.73	1947.82
725.92	1968.10
726.11	2063.53
726.30	2218.36
726.49	1879.01
726.68	1913.01
726.87	2156.31
727.06	2309.70
727.25	1900.72
727.44	1988.78
727.63	2099.58
727.82	2047.76
728.01	1963.59
728.20	1995.75
728.38	2319.12
728.57	2028.10
728.76	1886.18
728.95	2050.84
729.14	1880.04
729.33	1937.99
729.52	1691.62
729.71	1870.00
729.90	1969.53
730.09	2001.28
730.28	1863.65
730.47	1876.14
730.66	2279.18
730.84	2090.16
731.03	1944.55
731.22	1985.10
731.41	2115.14
731.60	2167.16
731.79	1753.06
731.98	1844.40
732.17	2182.73
732.36	2129.68
732.55	1883.93
732.73	1783.78
732.92	2341.85
733.11	2172.28
733.30	1855.05
733.49	1797.91
733.68	2194.40
733.87	2139.10
734.06	1787.26
734.25	1813.07
734.43	1966.05
734.62	2120.67
734.81	1889.87
735.00	1847.68
735.19	2000.87
735.38	2144.84
735.57	1798.53
735.76	1990.42
735.94	2151.80
736.13	2452.24
736.32	1966.46
736.51	1893.96
736.70	2384.86
736.89	2393.05
737.08	2073.36
737.27	2219.18
737.45	2563.65
737.64	2368.89
737.83	2401.45
738.02	2345.13
738.21	2557.91
738.40	2586.58
738.59	2106.13
738.77	2163.06
738.96	2083.81
739.15	2215.49
739.34	2113.71
739.53	2074.18
739.72	2368.27
739.90	2326.08
740.09	1886.38
740.28	1990.63
740.47	2243.34
740.66	2201.36
740.85	1841.33
741.03	1930.21
741.22	1947.21
741.41	2031.18
741.60	1765.55
741.79	1975.06
741.98	2299.87
742.16	2412.10
742.35	1933.28
742.54	1935.33
742.73	2422.75
742.92	2001.07
743.10	1761.46
743.29	1866.11
743.48	2505.48
743.67	1983.25
743.86	1739.34
744.05	1834.57
744.23	1915.47
744.42	1924.07
744.61	1967.69
744.80	1787.47
744.99	1993.90
745.17	1799.14
745.36	1756.13
745.55	1995.34
745.74	2078.89
745.93	1978.75
746.11	1822.28
746.30	1824.13
746.49	2259.73
746.68	1935.33
746.86	1913.01
747.05	1902.97
747.24	2198.08
747.43	2190.71
747.62	1823.31
747.80	1836.82
747.99	2279.80
748.18	2196.65
748.37	1930.62
748.56	1966.87
748.74	2255.63
748.93	2141.15
749.12	2122.92
749.31	2452.44
749.49	2771.11
749.68	2973.45
749.87	3118.65
750.06	2906.27
750.24	3065.19
750.43	2986.14
750.62	2806.95
750.81	2945.59
750.99	3157.35
751.18	3147.52
751.37	2700.45
751.56	2737.52
751.74	3152.85
751.93	3247.26
752.12	2284.92
752.31	2229.42
752.49	2307.65
752.68	2602.15
752.87	2139.92
753.06	2067.22
753.24	2147.09
753.43	2388.14
753.62	1926.11
753.81	1919.97
753.99	2412.51
754.18	2180.06
754.37	1894.99
754.55	1918.95
754.74	2381.99
754.93	1821.05
755.12	1880.85
755.30	1821.87
755.49	2280.82
755.68	2126.82
755.86	2022.37
756.05	1799.35
756.24	2361.72
756.43	1892.32
756.61	1847.47
756.80	1965.44
756.99	2330.59
757.17	2091.80
757.36	1843.99
757.55	1916.90
757.74	2157.33
757.92	2097.73
758.11	1815.32
758.30	1758.59
758.48	2049.20
758.67	1879.01
758.86	1946.59
759.04	1840.10
759.23	2024.21
759.42	2071.11
759.60	1869.18
759.79	1955.61
759.98	2010.29
760.16	1949.05
760.35	1866.93
760.54	1826.79
760.73	2085.86
760.91	1842.15
761.10	1885.97
761.29	1993.49
761.47	2081.56
761.66	2467.80
761.85	1946.59
762.03	2098.35
762.22	2365.20
762.41	2711.10
762.59	2963.41
762.78	3195.65
762.97	3901.99
763.15	3821.30
763.34	3529.26
763.52	2960.34
763.71	3146.29
763.90	3175.58
764.08	2738.13
764.27	2672.19
764.46	2951.53
764.64	2575.32
764.83	2450.19
765.02	2344.92
765.20	2442.61
765.39	2455.51
765.58	2013.97
765.76	2044.08
765.95	2221.43
766.13	2130.91
766.32	1934.10
766.51	1901.74
766.69	2880.88
766.88	2176.58
767.07	1807.13
767.25	1717.02
767.44	2278.16
767.62	2314.00
767.81	1858.53
768.00	1911.98
768.18	2084.83
768.37	1989.19
768.56	1723.98
768.74	1862.01
768.93	1866.93
769.11	2162.45
769.30	1974.24
769.49	1875.94
769.67	2036.91
769.86	2011.72
770.04	1912.60
770.23	1866.72
770.42	2309.70
770.60	2096.10
770.79	1830.06
770.97	1885.36
771.16	2266.90
771.35	2180.27
771.53	2106.54
771.72	2159.58
771.90	2452.03
772.09	2707.82
772.27	2432.58
772.46	2168.80
772.65	2553.00
772.83	2402.88
773.02	2274.88
773.20	2025.44
773.39	2358.24
773.58	2350.04
773.76	1955.40
773.95	1917.51
774.13	2221.43
774.32	2112.07
774.50	1880.24
774.69	1993.08
774.87	2036.09
775.06	2505.69
775.25	1915.06
775.43	1924.27
775.62	2145.66
775.80	2214.88
775.99	1986.12
776.17	1908.50
776.36	2114.32
776.54	2284.10
776.73	1894.17
776.92	1996.16
777.10	2285.74
777.29	2182.73
777.47	1887.20
777.66	1916.28
777.84	2120.47
778.03	2084.01
778.21	1869.39
778.40	2000.66
778.58	2191.53
778.77	2289.22
778.95	1812.25
779.14	1883.31
779.32	2425.20
779.51	2269.76
779.70	1904.00
779.88	1798.53
780.07	2055.75
780.25	2554.84
780.44	1954.38
780.62	2037.32
780.81	2190.92
780.99	2140.33
781.18	1889.25
781.36	1855.05
781.55	2057.39
781.73	2400.63
781.92	1814.91
782.10	1798.12
782.29	2194.19
782.47	2395.10
782.66	1887.20
782.84	1798.53
783.03	1984.28
783.21	2312.98
783.40	1862.22
783.58	1866.72
783.77	2007.42
783.95	2063.12
784.14	1860.37
784.32	1947.00
784.51	2268.53
784.69	1976.49
784.88	1789.72
785.06	1915.47
785.24	1860.37
785.43	2239.86
785.61	1978.75
785.80	1817.78
785.98	2167.37
786.17	2090.98
786.35	1788.08
786.54	1982.84
786.72	2244.78
786.91	2272.22
787.09	1909.12
787.28	1786.24
787.46	2097.32
787.65	2218.15
787.83	1770.88
788.01	1885.36
788.20	1883.31
788.38	2059.23
788.57	1846.86
788.75	1819.01
788.94	2373.39
789.12	2290.86
789.31	1983.25
789.49	2028.51
789.67	1997.38
789.86	2135.21
790.04	1857.51
790.23	1759.41
790.41	2455.31
790.60	2024.42
790.78	1865.09
790.96	1892.94
791.15	2233.92
791.33	2059.03
791.52	1917.51
791.70	1834.16
791.89	2071.11
792.07	2250.92
792.25	1925.71
792.44	1786.24
792.62	2268.94
792.81	2011.72
792.99	1918.54
793.17	1860.58
793.36	1940.45
793.54	2384.45
793.73	2068.86
793.91	2032.81
794.10	2461.45
794.28	2589.66
794.46	2205.46
794.65	2274.06
794.83	2152.42
795.01	2291.06
795.20	2246.42
795.38	2147.91
795.57	2324.85
795.75	2287.79
795.93	2017.25
796.12	2032.61
796.30	2239.25
796.49	2242.53
796.67	1863.24
796.85	2036.70
797.04	2122.31
797.22	2203.41
797.40	1836.82
797.59	1976.49
797.77	2104.29
797.96	1949.05
798.14	1822.90
798.32	1891.50
798.51	2207.51
798.69	2420.70
798.87	1921.20
799.06	1902.36
799.24	1831.50
799.42	2216.52
799.61	2014.59
799.79	1987.14
799.98	2520.44
800.16	2185.59
800.34	2221.64
800.53	2384.65
800.71	2456.33
800.89	2979.38
801.08	2613.41
801.26	2646.18
801.44	2514.09
801.63	2358.03
801.81	2289.01
801.99	2201.57
802.18	2301.10
802.36	2324.03
802.54	2203.61
802.73	1990.63
802.91	2239.25
803.09	2239.25
803.28	2118.42
803.46	2094.87
803.64	2426.23
803.83	1963.80
804.01	1875.73
804.19	1828.22
804.38	2234.95
804.56	2161.84
804.74	1927.14
804.92	1923.04
805.11	1899.08
805.29	2256.45
805.47	1848.91
805.66	1787.06
805.84	1873.07
806.02	2214.47
806.21	1847.68
806.39	2094.25
806.57	2246.01
806.76	2204.23
806.94	1934.51
807.12	1851.16
807.30	1959.70
807.49	2071.93
807.67	1958.68
807.85	2009.06
808.04	2209.35
808.22	2502.62
808.40	1856.07
808.58	1783.99
808.77	2179.86
808.95	2339.80
809.13	1905.84
809.31	2287.38
809.50	2533.13
809.68	2663.59
809.86	2336.53
810.05	2483.57
810.23	3043.28
810.41	3182.34
810.59	4313.02
810.78	5057.46
810.96	5773.22
811.14	6155.17
811.32	5593.41
811.51	4825.83
811.69	4446.55
811.87	4549.36
812.05	3948.89
812.24	3786.08
812.42	3926.78
812.60	3788.13
812.78	3119.67
812.97	2904.02
813.15	3261.39
813.33	2905.66
813.51	2702.29
813.70	2289.63
813.88	2285.12
814.06	2367.04
814.24	2129.68
814.42	1907.07
814.61	2212.63
814.79	2454.90
814.97	1794.23
815.15	1874.51
815.34	2128.25
815.52	2278.57
815.70	1844.81
815.88	1928.78
816.06	1957.65
816.25	2004.96
816.43	1883.31
816.61	1995.34
816.79	2369.91
816.98	1829.66
817.16	1803.65
817.34	1819.21
817.52	2138.69
817.70	2376.87
817.89	1910.96
818.07	1798.53
818.25	2056.37
818.43	2102.04
818.61	1905.02
818.80	1884.75
818.98	2411.69
819.16	2110.02
819.34	1811.63
819.52	2164.50
819.70	1949.87
819.89	2057.59
820.07	1782.14
820.25	1752.86
820.43	2114.32
820.61	2264.44
820.80	1911.16
820.98	1787.88
821.16	1813.48
821.34	1893.35
821.52	1877.17
821.70	2065.99
821.89	2134.80
822.07	2027.28
822.25	1962.77
822.43	1840.51
822.61	2363.36
822.79	2147.09
822.98	1941.47
823.16	1759.41
823.34	2129.07
823.52	2295.36
823.70	1994.52
823.88	1749.37
824.06	2188.46
824.25	2079.51
824.43	2020.12
824.61	1809.38
824.79	2074.39
824.97	2115.35
825.15	1987.55
825.33	2161.22
825.52	2357.21
825.70	2183.75
825.88	2050.22
826.06	2106.95
826.24	2279.39
826.42	2375.44
826.60	2068.86
826.78	2130.71
826.97	2162.45
827.15	2372.37
827.33	1930.62
827.51	1985.30
827.69	2010.29
827.87	2147.70
828.05	2016.02
828.23	1870.61
828.41	2278.57
828.60	2236.79
828.78	1809.59
828.96	2013.15
829.14	1968.92
829.32	2070.91
829.50	1905.43
829.68	1909.32
829.86	2010.70
830.04	2177.20
830.22	2015.00
830.41	1820.85
830.59	2092.20
830.77	2179.24
830.95	1882.08
831.13	1858.74
831.31	1940.66
831.49	2251.74
831.67	2050.63
831.85	2053.50
832.03	2050.84
832.21	2214.88
832.39	1803.03
832.57	1830.27
832.76	2240.68
832.94	2034.86
833.12	1741.80
833.30	1902.36
833.48	2289.63
833.66	2157.54
833.84	1884.54
834.02	1930.42
834.20	2243.34
834.38	2208.94
834.56	1760.43
834.74	1843.38
834.92	1876.14
835.10	2419.47
835.28	1912.60
835.46	1947.62
835.64	2052.88
835.82	1975.47
836.01	2173.30
836.19	2129.68
836.37	2004.14
836.55	1931.44
836.73	1877.99
836.91	1820.23
837.09	2204.84
837.27	2312.98
837.45	1765.76
837.63	1789.52
837.81	1907.07
837.99	2071.73
838.17	2003.53
838.35	1817.98
838.53	2481.32
838.71	2213.85
838.89	1861.19
839.07	1832.93
839.25	2106.75
839.43	2232.08
839.61	1894.37
839.79	2206.07
839.97	2443.23
840.15	2528.83
840.33	2284.30
840.51	2506.71
840.69	2457.15
840.87	2423.98
841.05	2283.49
841.23	2229.01
841.41	2460.22
841.59	2884.97
841.77	2756.77
841.95	2830.70
842.13	3331.84
842.31	2978.36
842.49	2601.74
842.67	2614.03
842.85	2806.33
843.03	2445.27
843.21	2275.91
843.39	2478.25
843.57	2486.44
843.75	2474.77
843.93	2156.31
844.11	2190.10
844.29	2309.49
844.47	2210.58
844.65	2218.36
844.83	2040.80
845.01	2106.34
845.19	2324.44
845.36	1985.92
845.54	2054.11
845.72	2129.07
845.90	2216.11
846.08	1888.84
846.26	1996.36
846.44	2180.06
846.62	2199.52
846.80	2031.18
846.98	1879.42
847.16	2046.33
847.34	2145.66
847.52	1854.85
847.70	1807.13
847.88	2081.76
848.06	2357.21
848.24	2023.39
848.41	1812.45
848.59	2275.91
848.77	2162.25
848.95	1903.79
849.13	1870.82
849.31	2200.34
849.49	2121.08
849.67	1867.75
849.85	1834.16
850.03	2177.81
850.21	2130.71
850.39	1811.22
850.57	2006.60
850.74	2351.89
850.92	2334.48
851.10	2077.05
851.28	1945.57
851.46	2284.92
851.64	2657.44
851.82	2080.94
852.00	2167.57
852.18	2489.72
852.36	2404.93
852.53	2048.38
852.71	2108.18
852.89	2252.56
853.07	2249.28
853.25	1964.62
853.43	1838.26
853.61	2172.08
853.79	2210.58
853.97	1895.80
854.14	1924.89
854.32	2339.39
854.50	2239.45
854.68	1926.93
854.86	1908.91
855.04	1986.73
855.22	2229.01
855.40	1789.92
855.57	1867.95
855.75	2228.39
855.93	2177.20
856.11	1766.58
856.29	1870.82
856.47	1990.42
856.65	2149.55
856.82	1832.93
857.00	1791.97
857.18	2055.55
857.36	2003.12
857.54	1989.19
857.72	2092.82
857.89	2207.71
858.07	2126.20
858.25	2106.75
858.43	1806.72
858.61	2045.10
858.79	2097.53
858.97	1861.40
859.14	2008.65
859.32	2065.79
859.50	2018.48
859.68	1960.32
859.86	1845.02
860.03	2087.70
860.21	2166.96
860.39	1861.60
860.57	2043.26
860.75	2135.62
860.93	2400.01
861.10	2089.95
861.28	1828.22
861.46	2120.88
861.64	2159.99
861.82	1883.52
861.99	2010.08
862.17	2280.00
862.35	2285.33
862.53	1915.26
862.71	1917.10
862.88	2162.25
863.06	2204.43
863.24	1920.18
863.42	1859.76
863.60	2071.93
863.77	2174.74
863.95	1766.17
864.13	1901.95
864.31	2029.95
864.49	2215.90
864.66	1827.61
864.84	1855.87
865.02	2157.54
865.20	2592.32
865.37	1955.40
865.55	1861.40
865.73	1885.36
865.91	2183.54
866.09	2036.70
866.26	1932.05
866.44	2217.34
866.62	2050.43
866.80	1810.20
866.97	1883.31
867.15	2047.97
867.33	2117.60
867.51	1951.92
867.68	1915.26
867.86	2004.76
868.04	1987.96
868.22	1709.64
868.39	1853.41
868.57	2184.16
868.75	2350.25
868.93	1798.94
869.10	1850.34
869.28	2412.51
869.46	2302.53
869.64	1921.20
869.81	1886.18
869.99	2155.49
870.17	2116.17
870.35	1820.64
870.52	1908.71
870.70	2269.97
870.88	1980.59
871.05	1813.68
871.23	1706.98
871.41	2077.66
871.59	2089.95
871.76	1888.02
871.94	1829.45
872.12	2096.51
872.29	1878.40
872.47	1885.97
872.65	1804.87
872.83	2152.42
873.00	2362.95
873.18	1902.97
873.36	1857.10
873.53	2222.87
873.71	1864.06
873.89	1782.55
874.06	1881.67
874.24	2173.51
874.42	2320.55
874.60	2021.14
874.77	1982.43
874.95	1975.88
875.13	2273.25
875.30	1871.64
875.48	1826.38
875.66	2367.04
875.83	1938.81
876.01	1860.78
876.19	1976.70
876.36	1879.22
876.54	2095.07
876.72	1829.25
876.89	1963.18
877.07	2217.34
877.25	1801.80
877.42	1914.24
877.60	1887.00
877.78	2455.92
877.95	2048.58
878.13	1844.81
878.31	2012.74
878.48	2276.93
878.66	2207.30
878.84	1888.84
879.01	1897.03
879.19	2153.03
879.37	2187.23
879.54	1900.92
879.72	1765.55
879.90	1783.37
880.07	2231.26
880.25	1675.03
880.42	2052.68
880.60	2133.98
880.78	2221.84
880.95	1871.02
881.13	1961.75
881.31	2091.18
881.48	2029.95
881.66	1863.04
881.83	2004.96
882.01	1966.05
882.19	1892.73
882.36	1925.09
882.54	1885.16
882.72	2221.23
882.89	2118.42
883.07	1852.59
883.24	1855.66
883.42	2233.11
883.60	2107.56
883.77	1811.02
883.95	1908.30
884.12	2246.42
884.30	2113.71
884.48	2033.84
884.65	1906.04
884.83	2093.02
885.00	2145.86
885.18	1772.31
885.36	1882.08
885.53	2192.76
885.71	2318.30
885.88	1783.37
886.06	1868.77
886.23	2174.74
886.41	2030.77
886.59	1869.39
886.76	1816.96
886.94	2187.03
887.11	2593.75
887.29	1920.99
887.47	1800.98
887.64	2313.59
887.82	2312.98
887.99	1752.24
888.17	1911.57
888.34	2040.60
888.52	1911.98
888.69	1855.66
888.87	1790.74
889.05	2021.14
889.22	2055.55
889.40	1882.29
889.57	2095.69
889.75	2378.72
889.92	2063.33
890.10	1801.60
890.27	1949.67
890.45	1983.87
890.62	1835.80
890.80	1793.82
890.98	1725.62
891.15	2344.72
891.33	2267.10
891.50	1826.99
891.68	1752.86
891.85	2224.71
892.03	2232.08
892.20	1836.62
892.38	1808.56
892.55	2199.52
892.73	2241.50
892.90	1715.17
893.08	1860.99
893.25	1964.21
893.43	2015.20
893.60	1911.16
893.78	1706.16
893.95	2173.30
894.13	2070.70
894.30	1819.83
894.48	1885.36
894.65	2265.46
894.83	2150.16
895.00	1701.25
895.18	1729.30
895.35	2243.14
895.53	2234.74
895.70	1759.21
895.88	1982.02
896.05	2158.35
896.23	1867.34
896.40	1876.76
896.58	1909.94
896.75	2212.63
896.93	2333.46
897.10	1873.07
897.28	1758.80
897.45	2101.01
897.63	2189.69
897.80	1931.85
897.98	1863.65
898.15	2139.72
898.33	1999.64
898.50	1909.94
898.67	1901.95
898.85	2038.14
899.02	2161.02
899.20	2067.63
899.37	1852.80
899.55	2127.63
899.72	2305.60
899.90	1849.32
900.07	1823.72
900.25	2170.03
900.42	2303.56
900.59	1829.45
900.77	1964.00
900.94	2158.76
901.12	2145.86
901.29	1893.55
901.47	1997.38
901.64	2183.34
901.82	2043.46
901.99	1636.94
902.16	1816.96
902.34	2282.87
902.51	2135.83
902.69	1816.14
902.86	1900.11
903.03	2710.49
903.21	2079.71
903.38	1870.41
903.56	1799.55
903.73	2259.11
903.91	2042.44
904.08	1795.66
904.25	1709.03
904.43	1950.49
904.60	2237.41
904.78	1866.31
904.95	1779.07
905.12	2028.31
905.30	2394.69
905.47	1937.58
905.65	2036.09
905.82	2077.05
905.99	2176.79
906.17	1868.57
906.34	1838.67
906.52	1907.68
906.69	2153.85
906.86	1939.63
907.04	1936.56
907.21	2224.09
907.38	2235.15
907.56	1800.98
907.73	1799.14
907.91	2343.08
908.08	2265.46
908.25	1890.48
908.43	1777.43
908.60	2168.80
908.77	2121.49
908.95	1885.97
909.12	1763.51
909.30	2215.70
909.47	1858.33
909.64	1878.81
909.82	2035.48
909.99	2045.10
910.16	2105.11
910.34	1829.25
910.51	1847.68
910.68	2124.97
910.86	2092.82
911.03	1762.89
911.20	1838.26
911.38	2288.20
911.55	2591.70
911.72	2450.19
911.90	2340.42
912.07	2746.53
912.24	2908.53
912.42	2296.18
912.59	2155.69
912.76	2488.28
912.94	2291.06
913.11	2006.60
913.28	1897.24
913.46	1936.76
913.63	2212.63
913.80	2234.13
913.98	1855.25
914.15	2290.86
914.32	2307.65
914.49	1953.35
914.67	1779.89
914.84	2101.63
915.01	2203.41
915.19	1950.28
915.36	1836.00
915.53	2272.84
915.71	2203.61
915.88	1935.54
916.05	1855.66
916.22	2274.47
916.40	2129.68
916.57	1744.66
916.74	1994.31
916.92	2384.45
917.09	1915.47
917.26	1779.68
917.43	1773.54
917.61	2013.56
917.78	1838.67
917.95	1797.09
918.13	1785.42
918.30	2456.13
918.47	2098.55
918.64	1786.44
918.82	1774.36
918.99	2028.10
919.16	2341.24
919.33	1854.44
919.51	1879.63
919.68	2077.46
919.85	2270.17
920.02	1783.99
920.20	1882.90
920.37	2359.26
920.54	2260.34
920.71	1822.49
920.89	1866.72
921.06	2404.11
921.23	1928.37
921.40	1758.18
921.58	1914.65
921.75	2622.01
921.92	1992.67
922.09	1926.93
922.27	1893.55
922.44	2077.87
922.61	2180.68
922.78	1828.43
922.96	1855.46
923.13	2064.35
923.30	2233.51
923.47	1746.30
923.64	1824.94
923.82	2180.27
923.99	2126.61
924.16	1925.50
924.33	1789.52
924.50	2102.04
924.68	2377.28
924.85	1828.84
925.02	1848.29
925.19	2225.53
925.36	2098.14
925.54	1865.90
925.71	1921.61
925.88	2636.76
926.05	2045.72
926.22	1787.06
926.40	1965.23
926.57	2136.85
926.74	2195.22
926.91	1823.92
927.08	2015.20
927.26	2282.87
927.43	2116.58
927.60	1842.15
927.77	1885.16
927.94	2416.40
928.11	2295.16
928.29	1749.99
928.46	1930.42
928.63	1952.53
928.80	2018.07
928.97	1931.23
929.14	1804.26
929.32	2465.14
929.49	2125.79
929.66	1812.86
929.83	1785.21
930.00	2001.68
930.17	2141.15
930.35	1793.82
930.52	1850.13
930.69	2382.81
930.86	1926.73
931.03	1899.08
931.20	1696.95
931.37	2285.33
931.55	2069.47
931.72	1894.58
931.89	1780.50
932.06	1938.40
932.23	2375.64
932.40	1952.12
932.57	1977.11
932.74	2315.02
932.92	2316.87
933.09	1993.90
933.26	1601.51
933.43	2005.58
933.60	2130.30
933.77	1924.48
933.94	1960.32
934.11	2070.09
934.29	2141.56
934.46	1802.21
934.63	1921.20
934.80	1866.31
934.97	2056.16
935.14	1866.72
935.31	1685.48
935.48	1948.85
935.65	2132.55
935.82	1892.32
936.00	1749.37
936.17	2364.99
936.34	2065.38
936.51	1929.80
936.68	1777.23
936.85	2124.97
937.02	2137.46
937.19	1951.71
937.36	1885.36
937.53	2139.72
937.70	2223.07
937.87	1836.21
938.05	1974.24
938.22	2109.20
938.39	1931.44
938.56	1870.41
938.73	1767.81
938.90	2064.15
939.07	1977.11
939.24	1935.33
939.41	1713.13
939.58	2149.96
939.75	2195.83
939.92	1832.93
940.09	2123.95
940.26	2050.22
940.43	2224.91
940.60	1909.12
940.77	1868.36
940.95	2159.58
941.12	2242.94
941.29	1883.93
941.46	1879.63
941.63	2263.82
941.80	2329.97
941.97	1740.16
942.14	1732.99
942.31	2185.39
942.48	2067.22
942.65	1971.37
942.82	1885.97
942.99	2188.87
943.16	2126.61
943.33	1796.68
943.50	1836.21
943.67	2223.48
943.84	2290.86
944.01	1834.98
944.18	1823.31
944.35	2333.25
944.52	1942.70
944.69	1959.29
944.86	1779.07
945.03	2206.48
945.20	2491.97
945.37	1704.52
945.54	1896.42
945.71	2335.71
945.88	2386.09
946.05	1795.25
946.22	1765.35
946.39	2355.37
946.56	2062.10
946.73	1693.26
946.90	1804.26
947.07	1988.99
947.24	2086.06
947.41	1719.47
947.58	1960.32
947.75	2215.08
947.92	2129.89
948.09	1662.75
948.26	1717.63
948.43	2159.38
948.60	2442.41
948.77	1793.00
948.94	1860.17
949.11	2243.96
949.27	2155.90
949.44	1821.05
949.61	1758.18
949.78	2159.17
949.95	2308.88
950.12	1710.26
950.29	1722.34
950.46	2012.95
950.63	2239.45
950.80	1811.43
950.97	1861.81
951.14	2269.76
951.31	2046.33
951.48	1774.16
951.65	1761.25
951.82	2427.05
951.99	2128.66
952.15	1771.49
952.32	1837.64
952.49	2027.28
952.66	2003.12
952.83	1816.75
953.00	1770.06
953.17	2086.47
953.34	2273.04
953.51	1881.47
953.68	1889.66
953.85	2313.59
954.02	2271.61
954.18	1888.84
954.35	1842.15
954.52	1961.34
954.69	2153.85
954.86	1730.94
955.03	1905.02
955.20	2199.72
955.37	2072.95
955.54	1825.15
955.71	1785.21
955.87	2169.21
956.04	2455.10
956.21	1841.12
956.38	1771.70
956.55	2116.99
956.72	2564.26
956.89	1879.22
957.06	1804.87
957.23	1984.89
957.39	2312.98
957.56	1876.14
957.73	1743.03
957.90	1779.28
958.07	2435.24
958.24	1883.93
958.41	1858.74
958.57	2233.11
958.74	2103.88
958.91	1765.55
959.08	1803.85
959.25	2215.70
959.42	2071.11
959.59	1881.26
959.75	1880.04
959.92	2311.54
960.09	2284.30
960.26	1796.07
960.43	1911.57
960.60	2143.20
960.76	2052.06
960.93	1732.99
961.10	1915.26
961.27	2275.09
961.44	2050.02
961.61	1730.74
961.77	1754.09
961.94	2123.33
962.11	2254.40
962.28	1826.17
962.45	1745.69
962.62	2064.56
962.78	2253.18
962.95	1743.85
963.12	1821.46
963.29	2211.81
963.46	2621.60
963.62	1919.56
963.79	1826.58
963.96	2557.09
964.13	2049.81
964.30	1942.91
964.46	1843.58
964.63	1920.18
964.80	2562.62
964.97	1671.76
965.14	1943.52
965.30	2138.49
965.47	2221.84
965.64	2014.79
965.81	1911.16
965.98	2351.48
966.14	2104.08
966.31	1814.71
966.48	1809.79
966.65	2287.17
966.81	2136.03
966.98	1830.88
967.15	1824.94
967.32	2077.46
967.49	1930.62
967.65	1692.24
967.82	1670.73
967.99	2043.26
968.16	1819.21
968.32	1961.75
968.49	1794.02
968.66	2048.99
968.83	2376.46
968.99	1962.98
969.16	1748.35
969.33	2300.69
969.50	2175.35
969.66	1953.76
969.83	2101.22
970.00	2223.68
970.17	2195.01
970.33	1857.71
970.50	1741.80
970.67	2352.30
970.84	2345.54
971.00	1804.47
971.17	1737.09
971.34	2213.65
971.50	2085.45
971.67	1925.50
971.84	1852.59
972.01	1928.57
972.17	1766.58
972.34	1751.63
972.51	1969.74
972.67	2308.88
972.84	2175.97
973.01	1779.28
973.18	1818.39
973.34	2235.77
973.51	1954.38
973.68	1861.40
973.84	1881.47
974.01	2013.15
974.18	2420.70
974.34	1914.03
974.51	1909.94
974.68	1995.13
974.85	2462.68
975.01	1955.40
975.18	1836.82
975.35	2072.54
975.51	2003.53
975.68	1739.34
975.85	2005.58
976.01	2006.39
976.18	2325.26
976.35	1828.43
976.51	1857.51
976.68	2402.88
976.85	2301.71
977.01	1878.19
977.18	1939.63
977.35	2198.49
977.51	1923.25
977.68	1665.41
977.85	1756.95
978.01	2274.68
978.18	2183.75
978.35	1889.46
978.51	1859.76
978.68	2264.44
978.85	2371.14
979.01	1878.40
979.18	1887.20
979.34	2067.42
979.51	2138.28
979.68	1789.92
979.84	1885.77
980.01	2580.24
980.18	2104.29
980.34	1802.83
980.51	1916.90
980.67	2247.24
980.84	2264.85
981.01	1845.83
981.17	1911.98
981.34	1824.54
981.51	2222.46
981.67	1789.72
981.84	1938.61
982.00	2174.94
982.17	2059.85
982.34	1705.14
982.50	1584.10
982.67	2377.28
982.83	2003.73
983.00	1735.24
983.17	1645.75
983.33	2295.36
983.50	1828.02
983.66	1735.24
983.83	1630.39
984.00	2036.50
984.16	2095.28
984.33	1639.60
984.49	1612.57
984.66	1942.50
984.83	2252.77
984.99	1695.10
985.16	1595.37
985.32	2197.47
985.49	2245.19
985.65	1773.54
985.82	1632.03
985.99	2359.06
986.15	2145.25
986.32	1739.34
986.48	1707.60
986.65	2037.73
986.81	2240.07
986.98	1634.28
987.14	1721.11
987.31	2107.56
987.48	1851.36
987.64	1582.26
987.81	1573.45
987.97	2470.26
988.14	1956.01
988.30	1662.95
988.47	1510.58
988.63	2163.47
988.80	1912.19
988.96	1733.61
989.13	1748.56
989.30	2032.61
989.46	2248.06
989.63	1597.42
989.79	1609.50
989.96	2091.80
990.12	2348.41
990.29	1657.01
990.45	1741.59
990.62	2103.26
990.78	2309.08
990.95	1776.20
991.11	1663.57
991.28	2022.57
991.44	2139.51
991.61	1578.98
991.77	1730.53
991.94	2118.62
992.10	2291.47
992.27	1728.69
992.43	1710.87
992.60	2186.62
992.76	2016.63
992.93	1860.78
993.09	1605.20
993.26	2263.01
993.42	2425.61
993.59	1660.08
993.75	1553.38
993.92	1972.81
994.08	1971.58
994.25	1726.03
994.41	1604.58
994.58	2202.80
994.74	2328.95
994.91	1616.46
995.07	1745.69
995.24	2085.65
995.40	2062.51
995.56	1796.68
995.73	1763.30
995.89	2373.19
996.06	2094.25
996.22	1645.75
996.39	1614.21
996.55	2091.80
996.72	2152.01
996.88	1582.67
997.05	1615.85
997.21	2435.03
997.37	2214.67
997.54	1729.92
997.70	1698.18
997.87	2147.09
998.03	2089.13
998.20	1558.30
998.36	1580.42
998.52	2217.34
998.69	2273.04
998.85	1612.78
999.02	1677.90
999.18	2249.49
999.35	2249.90
999.51	1732.99
999.67	1695.51
999.84	1900.92
1000.00	2205.05
1000.17	1774.56
1000.33	1645.95
1000.49	1994.11
1000.66	2079.92
1000.82	1662.75
1000.99	1704.52
1001.15	2300.48
1001.31	2063.94
1001.48	1686.30
1001.64	1766.99
1001.81	2078.48
1001.97	2438.11
1002.13	1699.81
1002.30	1717.22
1002.46	2319.73
1002.63	2046.54
1002.79	1775.79
1002.95	1640.83
1003.12	2242.73
1003.28	2170.03
1003.45	1663.36
1003.61	1601.10
1003.77	2153.44
1003.94	1879.63
1004.10	1701.04
1004.26	1774.77
1004.43	2180.68
1004.59	2376.05
1004.75	1643.29
1004.92	1629.36
1005.08	2040.80
1005.25	2156.31
1005.41	1653.73
1005.57	1760.23
1005.74	2278.16
1005.90	2019.71
1006.06	1765.35
1006.23	1669.50
1006.39	2205.05
1006.55	2570.82
1006.72	1799.96
1006.88	1610.32
1007.04	1968.10
1007.21	2053.91
1007.37	1702.07
1007.53	1632.03
1007.70	2348.20
1007.86	2225.53
1008.02	1739.95
1008.19	1607.45
1008.35	2149.75
1008.51	1930.62
1008.68	1666.64
1008.84	1623.83
1009.00	1919.15
1009.17	2302.74
1009.33	1854.23
1009.49	1766.37
1009.65	1940.45
1009.82	2158.35
1009.98	1747.33
1010.14	1555.23
1010.31	2216.52
1010.47	2191.74
1010.63	1729.30
1010.80	1692.03
1010.96	2197.27
1011.12	2068.45
1011.28	1696.54
1011.45	1623.83
1011.61	2589.66
1011.77	1937.38
1011.94	1645.13
1012.10	1630.18
1012.26	1910.14
1012.42	1984.69
1012.59	1742.00
1012.75	1711.28
1012.91	2072.95
1013.07	2263.21
1013.24	1604.17
1013.40	1640.63
1013.56	2108.79
1013.72	2088.52
1013.89	1725.62
1014.05	1770.26
1014.21	2442.82
1014.37	2539.48
1014.54	1730.12
1014.70	1631.00
1014.86	2068.04
1015.02	1910.35
1015.19	1684.66
1015.35	1627.32
1015.51	2060.67
1015.67	2039.57
1015.84	1670.12
1016.00	1695.31
1016.16	2287.79
1016.32	2258.30
1016.49	1657.63
1016.65	1602.33
1016.81	2074.18
1016.97	2190.92
1017.14	1765.55
1017.30	1671.14
1017.46	1989.19
1017.62	2131.94
1017.78	1752.04
1017.95	1657.42
1018.11	2245.80
1018.27	2517.16
1018.43	1830.68
1018.59	1752.04
1018.76	2212.22
1018.92	2580.03
1019.08	1636.53
1019.24	1675.03
1019.40	2338.17
1019.57	2149.55
1019.73	1764.12
1019.89	1669.50
1020.05	2154.26
1020.21	2460.63
1020.38	1654.76
1020.54	1831.29
1020.70	2198.70
1020.86	2249.28
1021.02	1636.53
1021.18	1655.58
1021.35	2036.50
1021.51	2186.41
1021.67	1823.10
1021.83	1756.34
1021.99	2099.78
1022.15	2151.19
1022.32	1752.86
1022.48	1701.45
1022.64	2323.42
1022.80	2386.50
1022.96	1746.10
1023.12	1608.68
1023.29	2297.21
1023.45	2174.94
1023.61	1663.57
1023.77	1912.19
1023.93	2129.48
1024.09	1959.50
1024.25	1673.19
1024.42	1601.31
1024.58	2046.13
1024.74	2171.46
1024.90	1681.59
1025.06	1752.65
1025.22	1975.47
1025.38	2371.34
1025.54	1615.23
1025.71	1803.24
1025.87	2219.79
1026.03	2192.15
1026.19	1624.86
1026.35	1850.95
1026.51	2201.77
1026.67	2084.83
1026.83	1719.88
1026.99	1839.49
1027.16	2187.44
1027.32	2192.56
1027.48	1692.24
1027.64	1651.28
1027.80	2182.32
1027.96	2107.16
1028.12	1723.37
1028.28	1649.02
1028.44	2134.39
1028.60	2375.03
1028.77	1801.80
1028.93	1732.99
1029.09	2001.48
1029.25	1921.20
1029.41	1717.84
1029.57	1795.25
1029.73	2178.63
1029.89	2383.63
1030.05	1780.71
1030.21	1758.18
1030.37	2513.27
1030.53	2214.67
1030.69	1711.28
1030.85	1628.14
1031.02	1930.42
1031.18	2075.21
1031.34	1666.84
1031.50	1789.52
1031.66	1991.65
1031.82	2380.76
1031.98	1739.95
1032.14	1649.02
1032.30	1934.10
1032.46	2242.73
1032.62	1824.13
1032.78	1589.63
1032.94	1975.68
1033.10	2029.95
1033.26	1760.84
1033.42	1829.04
1033.58	2505.28
1033.74	2014.59
1033.90	1675.24
1034.06	1870.61
1034.22	2490.53
1034.38	2275.70
1034.54	1740.36
1034.70	1742.82
1034.86	2435.03
>>>>>End Processed Spectral Data<<<<<
