SpectraSuite Data File
++++++++++++++++++++++++++++++++++++
Date: Thu Mar 30 16:08:41 PDT 2017
User: UCSD _CER
Dark Spectrum Present: No
Reference Spectrum Present: No
Number of Sampled Component Spectra: 1
Spectrometers: USB4C00073
Integration Time (usec): 250000 (USB4C00073)
Spectra Averaged: 10 (USB4C00073)
Boxcar Smoothing: 0 (USB4C00073)
Correct for Electrical Dark: No (USB4C00073)
Strobe/Lamp Enabled: No (USB4C00073)
Correct for Detector Non-linearity: No (USB4C00073)
Correct for Stray Light: No (USB4C00073)
Number of Pixels in Processed Spectrum: 3648
>>>>>Begin Processed Spectral Data<<<<<
345.37	1268.10
345.58	1268.10
345.80	1268.10
346.01	1257.04
346.22	1291.04
346.43	1961.75
346.65	1800.98
346.86	2112.48
347.07	2069.47
347.28	1784.60
347.50	1786.24
347.71	1915.06
347.92	1701.86
348.13	1804.87
348.35	1732.79
348.56	1917.92
348.77	1780.50
348.98	1819.21
349.20	1657.42
349.41	1937.17
349.62	1973.63
349.83	1879.22
350.05	1722.96
350.26	1939.22
350.47	2059.44
350.68	1798.73
350.90	1742.00
351.11	2110.43
351.32	2083.19
351.53	1798.73
351.75	1713.54
351.96	1936.76
352.17	1888.64
352.38	1848.29
352.60	1857.92
352.81	1923.66
353.02	2131.32
353.23	1761.66
353.44	1799.35
353.66	1858.94
353.87	1880.65
354.08	1910.75
354.29	1795.45
354.51	1852.80
354.72	1894.17
354.93	1795.86
355.14	1745.07
355.35	1740.36
355.57	2038.96
355.78	1836.00
355.99	1900.52
356.20	1930.21
356.42	1898.26
356.63	1927.55
356.84	1822.49
357.05	2028.51
357.26	2190.92
357.48	1898.67
357.69	1832.32
357.90	1943.93
358.11	1854.85
358.32	1827.20
358.54	1837.64
358.75	1888.84
358.96	2004.76
359.17	1784.40
359.38	1784.80
359.60	1990.22
359.81	1892.73
360.02	1825.15
360.23	1752.45
360.44	1823.92
360.66	2046.74
360.87	1723.98
361.08	1748.97
361.29	1953.15
361.50	1910.35
361.72	1785.01
361.93	1853.21
362.14	1911.57
362.35	1735.65
362.56	1892.94
362.77	1732.17
362.99	1970.15
363.20	1919.56
363.41	1871.43
363.62	1696.54
363.83	1979.98
364.05	2001.68
364.26	1731.97
364.47	1778.05
364.68	2028.10
364.89	1821.67
365.10	1729.10
365.32	1816.14
365.53	1815.93
365.74	1834.78
365.95	1815.73
366.16	1677.08
366.37	1901.95
366.59	1856.48
366.80	1807.95
367.01	1685.68
367.22	2149.96
367.43	2259.93
367.64	1805.69
367.86	1790.54
368.07	1975.68
368.28	2065.38
368.49	1745.69
368.70	1843.79
368.91	1860.99
369.12	1894.78
369.34	1701.66
369.55	1734.63
369.76	1924.27
369.97	1849.73
370.18	1734.42
370.39	1759.61
370.60	1732.58
370.82	1794.64
371.03	1788.29
371.24	1742.21
371.45	1984.48
371.66	1943.52
371.87	1800.78
372.08	1781.32
372.30	1772.72
372.51	1999.02
372.72	1865.90
372.93	1760.84
373.14	2084.22
373.35	1822.69
373.56	1738.11
373.78	1797.09
373.99	2026.47
374.20	2270.99
374.41	1797.71
374.62	1820.44
374.83	2100.19
375.04	1878.40
375.25	1814.09
375.47	1778.66
375.68	1882.90
375.89	1996.56
376.10	1806.92
376.31	1893.55
376.52	1989.60
376.73	1941.68
376.94	1823.51
377.15	1790.95
377.37	1906.66
377.58	1871.02
377.79	1676.88
378.00	1743.85
378.21	1949.26
378.42	1992.47
378.63	1824.54
378.84	1871.84
379.05	2008.65
379.27	1902.15
379.48	1883.72
379.69	1716.20
379.90	2044.08
380.11	1663.57
380.32	1800.98
380.53	1905.02
380.74	2069.88
380.95	1900.11
381.16	1799.75
381.37	1781.12
381.59	2096.92
381.80	2030.97
382.01	1728.49
382.22	1701.86
382.43	1971.17
382.64	1907.68
382.85	1741.18
383.06	1844.81
383.27	2000.66
383.48	1893.55
383.69	1868.16
383.91	1727.46
384.12	1965.85
384.33	1975.27
384.54	1821.46
384.75	1698.38
384.96	2278.77
385.17	2019.50
385.38	1763.71
385.59	1761.05
385.80	2002.50
386.01	2077.25
386.22	1878.19
386.43	1796.48
386.64	2175.56
386.86	1883.72
387.07	1932.05
387.28	1712.51
387.49	1820.64
387.70	2060.87
387.91	1862.42
388.12	1752.24
388.33	1966.25
388.54	1845.63
388.75	1798.12
388.96	1851.16
389.17	1835.18
389.38	1881.06
389.59	1868.77
389.80	1817.37
390.01	1887.20
390.22	1829.45
390.43	1911.98
390.64	1684.86
390.86	1943.73
391.07	2058.21
391.28	1813.89
391.49	1842.76
391.70	1760.23
391.91	1811.02
392.12	1790.74
392.33	1810.61
392.54	1893.35
392.75	1867.54
392.96	1886.38
393.17	1776.20
393.38	2189.89
393.59	2034.66
393.80	1764.94
394.01	1886.79
394.22	1989.81
394.43	2280.21
394.64	1901.74
394.85	2051.04
395.06	1995.34
395.27	1958.68
395.48	1852.18
395.69	1758.59
395.90	1897.24
396.11	1888.43
396.32	1724.39
396.53	1889.46
396.74	1863.04
396.95	2038.34
397.16	1761.25
397.37	1695.31
397.58	2010.08
397.79	1914.24
398.00	1839.90
398.21	1799.35
398.42	1958.47
398.63	2172.08
398.84	1794.02
399.05	1750.19
399.26	2073.77
399.47	1957.86
399.68	1639.60
399.89	1777.23
400.10	1769.04
400.31	1832.32
400.52	1830.27
400.73	1764.53
400.94	1736.88
401.15	1952.74
401.36	1782.55
401.57	1836.41
401.78	2048.17
401.99	2002.09
402.20	1721.11
402.41	1935.74
402.62	2104.49
402.83	1896.83
403.04	1775.59
403.25	1926.11
403.46	1981.41
403.67	2201.98
403.88	1972.40
404.09	1982.84
404.30	2013.56
404.51	2003.32
404.72	1854.03
404.93	1981.00
405.14	1850.95
405.35	1907.27
405.56	1802.83
405.77	1783.78
405.98	1919.15
406.19	1877.37
406.40	1754.09
406.61	1788.70
406.82	1812.86
407.03	2166.55
407.24	1691.01
407.45	1828.63
407.66	1941.47
407.87	2040.80
408.08	1857.10
408.29	1877.78
408.49	1961.75
408.70	1896.42
408.91	1795.25
409.12	1881.06
409.33	1814.09
409.54	2054.11
409.75	1782.55
409.96	1804.47
410.17	2036.30
410.38	1877.58
410.59	1784.40
410.80	1906.86
411.01	1873.28
411.22	1900.31
411.43	1850.95
411.64	1756.75
411.85	1812.04
412.06	1807.54
412.27	1653.33
412.47	1809.99
412.68	1896.62
412.89	1954.38
413.10	1774.36
413.31	1694.69
413.52	2135.21
413.73	2165.93
413.94	1773.34
414.15	1924.48
414.36	1849.11
414.57	1819.62
414.78	1813.68
414.99	2287.38
415.19	2871.46
415.40	3000.68
415.61	3162.27
415.82	3001.09
416.03	2887.64
416.24	2595.19
416.45	2289.01
416.66	2006.80
416.87	1843.38
417.08	2046.94
417.29	1833.14
417.50	2005.78
417.70	2147.30
417.91	2184.36
418.12	2169.62
418.33	2227.99
418.54	2396.33
418.75	2622.01
418.96	2713.35
419.17	3002.32
419.38	3634.73
419.59	3646.41
419.79	3526.19
420.00	3383.24
420.21	3319.76
420.42	2602.35
420.63	2243.75
420.84	2120.26
421.05	1972.60
421.26	1928.57
421.47	1741.39
421.67	2062.10
421.88	1827.20
422.09	1765.76
422.30	1970.15
422.51	1808.36
422.72	2117.19
422.93	1992.88
423.14	1807.13
423.35	1671.76
423.55	1726.64
423.76	1811.63
423.97	1836.82
424.18	1707.39
424.39	1928.37
424.60	2093.23
424.81	1899.70
425.02	2112.27
425.22	2226.55
425.43	2248.06
425.64	2466.78
425.85	2471.69
426.06	2748.58
426.27	2628.77
426.48	2655.40
426.68	2653.14
426.89	2706.80
427.10	2776.43
427.31	2284.30
427.52	2019.71
427.73	2162.45
427.94	2073.16
428.14	1935.94
428.35	1815.32
428.56	2087.70
428.77	2020.12
428.98	1905.84
429.19	2076.23
429.40	2208.73
429.60	2283.08
429.81	2361.72
430.02	2241.09
430.23	2133.37
430.44	2156.92
430.65	1906.45
430.85	1927.96
431.06	1978.34
431.27	1735.04
431.48	1800.57
431.69	1842.76
431.90	1917.31
432.10	1902.56
432.31	1885.56
432.52	1978.95
432.73	2619.35
432.94	2630.00
433.15	2496.88
433.35	2368.07
433.56	2506.51
433.77	2251.54
433.98	2193.58
434.19	2053.70
434.40	2094.46
434.60	2008.44
434.81	1874.51
435.02	1911.98
435.23	1956.42
435.44	1858.33
435.64	1717.02
435.85	1773.34
436.06	1886.18
436.27	1848.50
436.48	1734.22
436.68	1768.01
436.89	2113.71
437.10	1983.25
437.31	1822.08
437.52	1884.95
437.73	1925.30
437.93	1917.92
438.14	1867.75
438.35	1669.09
438.56	1857.92
438.77	1886.18
438.97	1930.82
439.18	1782.96
439.39	2038.75
439.60	1784.60
439.80	1688.76
440.01	1823.92
440.22	1846.65
440.43	1977.93
440.64	1704.52
440.84	1849.73
441.05	1768.01
441.26	2282.26
441.47	1850.34
441.68	1761.25
441.88	1871.02
442.09	1870.82
442.30	1933.90
442.51	1871.23
442.71	1856.28
442.92	1958.47
443.13	1759.41
443.34	1751.22
443.55	1790.95
443.75	1979.57
443.96	1768.01
444.17	1734.63
444.38	2032.81
444.58	1807.95
444.79	1888.64
445.00	1858.12
445.21	1906.86
445.41	1883.52
445.62	1628.34
445.83	1880.44
446.04	1924.07
446.24	1755.72
446.45	1652.30
446.66	1782.35
446.87	1948.03
447.07	1856.69
447.28	2003.94
447.49	1830.88
447.70	2018.68
447.90	2026.06
448.11	1800.78
448.32	1903.38
448.53	2075.82
448.73	2064.76
448.94	1812.45
449.15	1942.91
449.36	1917.72
449.56	1954.38
449.77	1804.67
449.98	1738.52
450.19	1933.90
450.39	2040.39
450.60	2062.10
450.81	2050.43
451.02	2109.41
451.22	2248.46
451.43	1892.73
451.64	1910.55
451.84	1987.14
452.05	2192.35
452.26	1948.85
452.47	1868.36
452.67	1878.19
452.88	2107.16
453.09	1783.78
453.30	1738.32
453.50	1995.34
453.71	2098.55
453.92	1813.68
454.12	1912.39
454.33	1851.98
454.54	1872.66
454.75	1738.52
454.95	1759.41
455.16	1945.57
455.37	2010.70
455.57	1837.64
455.78	1800.16
455.99	1910.96
456.19	1910.35
456.40	1759.21
456.61	1838.05
456.82	1905.23
457.02	1983.66
457.23	1870.61
457.44	1981.00
457.64	1860.37
457.85	1965.23
458.06	1861.81
458.26	2018.68
458.47	1916.28
458.68	2067.42
458.89	1806.10
459.09	2010.29
459.30	2262.39
459.51	2008.65
459.71	1770.47
459.92	1838.67
460.13	2034.45
460.33	2187.03
460.54	1795.45
460.75	1816.14
460.95	1778.25
461.16	1970.35
461.37	1813.68
461.57	1853.21
461.78	1940.66
461.99	1813.68
462.19	2066.20
462.40	1844.40
462.61	2237.82
462.81	2086.06
463.02	1789.31
463.23	1832.52
463.43	2039.98
463.64	1907.27
463.85	2772.13
464.05	1841.33
464.26	2362.13
464.47	2126.82
464.67	2024.62
464.88	1921.81
465.09	1842.56
465.29	1948.44
465.50	1948.23
465.71	1817.57
465.91	1861.60
466.12	1893.96
466.33	1864.06
466.53	1811.43
466.74	2100.60
466.94	1888.84
467.15	1835.39
467.36	2025.24
467.56	1817.57
467.77	1947.00
467.98	1851.57
468.18	1821.26
468.39	1849.32
468.60	2152.21
468.80	1849.32
469.01	1782.35
469.21	1973.83
469.42	2101.63
469.63	1934.92
469.83	1887.20
470.04	2111.05
470.25	2226.14
470.45	1950.90
470.66	1828.43
470.86	2026.06
471.07	1894.58
471.28	1941.68
471.48	2009.26
471.69	1963.39
471.90	2384.04
472.10	1831.50
472.31	1833.55
472.51	1842.35
472.72	1838.87
472.93	1762.48
473.13	1937.99
473.34	1958.27
473.54	1881.06
473.75	1857.92
473.96	2000.05
474.16	1933.90
474.37	2025.24
474.57	1970.15
474.78	1854.44
474.99	2055.75
475.19	2000.46
475.40	1838.05
475.60	1764.73
475.81	2089.54
476.02	1937.17
476.22	1959.29
476.43	2072.54
476.63	1995.75
476.84	2156.10
477.05	1764.12
477.25	1844.61
477.46	2328.95
477.66	1933.90
477.87	1747.74
478.08	1848.09
478.28	2050.63
478.49	1892.53
478.69	1785.83
478.90	1844.81
479.10	2025.03
479.31	2118.42
479.52	1908.91
479.72	1976.90
479.93	1998.82
480.13	1889.46
480.34	1815.32
480.54	1890.48
480.75	1827.61
480.96	2059.03
481.16	1809.38
481.37	1931.44
481.57	2021.14
481.78	1958.88
481.98	2017.04
482.19	1884.54
482.40	2185.59
482.60	2018.27
482.81	1949.05
483.01	1887.20
483.22	2129.89
483.42	2083.60
483.63	2000.87
483.83	1934.51
484.04	1848.09
484.24	2016.23
484.45	1909.32
484.66	1746.30
484.86	1997.79
485.07	1840.71
485.27	1895.60
485.48	1811.43
485.68	2069.88
485.89	1868.57
486.09	1960.93
486.30	1843.99
486.50	1974.04
486.71	1995.95
486.91	2041.01
487.12	2084.01
487.33	2318.92
487.53	2332.64
487.74	2046.74
487.94	2032.61
488.15	2183.95
488.35	2284.30
488.56	2180.06
488.76	2115.96
488.97	2146.48
489.17	2143.40
489.38	1978.75
489.58	1900.52
489.79	2033.02
489.99	2007.62
490.20	1930.42
490.40	1952.94
490.61	2032.20
490.81	1876.96
491.02	1884.54
491.22	1951.92
491.43	2044.08
491.63	1962.16
491.84	2031.99
492.04	1788.08
492.25	1998.41
492.45	1936.56
492.66	1838.87
492.86	1748.15
493.07	1893.14
493.27	2204.23
493.48	1744.25
493.68	1874.71
493.89	1929.39
494.09	2027.49
494.30	1825.35
494.50	2101.83
494.71	2007.42
494.91	1865.70
495.12	1939.02
495.32	2054.52
495.53	2048.38
495.73	1821.46
495.94	1894.17
496.14	1729.92
496.35	2161.22
496.55	1913.01
496.76	1857.51
496.96	1941.68
497.17	1939.63
497.37	2012.33
497.58	1842.97
497.78	1803.24
497.98	1918.95
498.19	1950.49
498.39	1970.35
498.60	1962.16
498.80	1810.81
499.01	2076.23
499.21	1807.95
499.42	1906.45
499.62	1873.28
499.83	2212.83
500.03	1762.48
500.24	1936.15
500.44	2101.63
500.64	2060.05
500.85	1823.31
501.05	1966.87
501.26	1766.58
501.46	2096.10
501.67	1817.78
501.87	1776.61
502.08	1818.39
502.28	1890.68
502.48	1950.49
502.69	2047.97
502.89	1843.58
503.10	1895.40
503.30	1939.02
503.51	1940.66
503.71	1793.20
503.92	2048.79
504.12	1980.59
504.32	1982.02
504.53	2179.45
504.73	2184.77
504.94	2170.23
505.14	2291.27
505.35	2292.70
505.55	2292.70
505.75	2208.53
505.96	2278.57
506.16	2383.84
506.37	2039.37
506.57	1958.88
506.78	2036.50
506.98	2199.52
507.18	1867.95
507.39	1879.63
507.59	1967.89
507.80	1930.42
508.00	2046.13
508.20	2114.32
508.41	1996.56
508.61	2158.56
508.82	2094.87
509.02	2018.07
509.22	1805.90
509.43	1796.68
509.63	1884.75
509.84	1903.38
510.04	1760.64
510.24	2123.95
510.45	2029.54
510.65	1774.56
510.86	1949.46
511.06	1856.28
511.26	2086.47
511.47	2039.57
511.67	1890.89
511.88	2071.11
512.08	2119.44
512.28	1809.18
512.49	2001.68
512.69	1957.24
512.90	1963.39
513.10	1819.42
513.30	1905.84
513.51	2014.79
513.71	2140.74
513.91	1964.21
514.12	1955.81
514.32	2142.79
514.53	1998.82
514.73	2136.03
514.93	2103.88
515.14	2194.60
515.34	2469.03
515.54	2317.89
515.75	2453.06
515.95	2560.17
516.15	2623.04
516.36	2274.88
516.56	2191.53
516.77	1834.78
516.97	2142.58
517.17	1984.48
517.38	2094.25
517.58	2299.05
517.78	2160.61
517.99	2352.91
518.19	2459.41
518.39	2709.26
518.60	2557.91
518.80	2360.69
519.00	2319.73
519.21	2155.08
519.41	2336.32
519.61	1945.57
519.82	2059.44
520.02	2031.58
520.22	2036.30
520.43	2037.73
520.63	2029.95
520.83	1965.23
521.04	1904.82
521.24	2286.56
521.44	2304.78
521.65	2377.28
521.85	2634.92
522.05	2395.71
522.26	2243.14
522.46	2428.07
522.66	2200.95
522.87	1989.19
523.07	2151.39
523.27	2019.50
523.48	2262.39
523.68	2045.10
523.88	2027.28
524.09	2177.61
524.29	2141.56
524.49	1995.95
524.70	2308.47
524.90	2456.33
525.10	2352.50
525.31	2095.69
525.51	1988.78
525.71	2175.76
525.91	2086.27
526.12	1881.26
526.32	1799.14
526.52	1918.74
526.73	1891.91
526.93	1976.09
527.13	1783.78
527.34	1961.13
527.54	1980.80
527.74	1910.96
527.94	1865.70
528.15	1876.76
528.35	2026.67
528.55	2008.24
528.76	1964.82
528.96	1796.48
529.16	2073.16
529.36	2033.43
529.57	1801.60
529.77	2088.52
529.97	1804.67
530.18	1941.88
530.38	1891.50
530.58	2012.33
530.78	1959.29
530.99	1877.17
531.19	2009.47
531.39	1882.49
531.60	1981.82
531.80	1889.05
532.00	2039.37
532.20	1957.86
532.41	1872.46
532.61	1859.56
532.81	1880.04
533.01	1889.87
533.22	1980.18
533.42	1991.65
533.62	1737.70
533.82	2081.35
534.03	1943.11
534.23	1959.91
534.43	1818.39
534.63	1887.61
534.84	1962.36
535.04	1939.02
535.24	1909.94
535.44	2270.79
535.65	1875.73
535.85	1849.73
536.05	1850.34
536.25	1910.55
536.46	1881.88
536.66	2112.27
536.86	1974.65
537.06	2091.80
537.27	2173.51
537.47	2021.75
537.67	1917.31
537.87	2167.37
538.08	1938.61
538.28	1844.61
538.48	1855.87
538.68	2012.33
538.88	2058.00
539.09	1825.15
539.29	1926.73
539.49	2072.75
539.69	1991.04
539.90	1973.22
540.10	1875.12
540.30	2176.58
540.50	1963.18
540.70	1892.94
540.91	2015.41
541.11	2168.18
541.31	2332.43
541.51	2186.00
541.72	2237.41
541.92	2277.14
542.12	2108.18
542.32	2017.66
542.52	1965.23
542.73	1953.15
542.93	2089.75
543.13	1977.11
543.33	2120.26
543.53	2207.30
543.74	2244.78
543.94	2096.10
544.14	2299.25
544.34	2463.30
544.54	2367.86
544.75	2471.28
544.95	2634.92
545.15	2526.37
545.35	2550.95
545.55	2328.95
545.75	2117.80
545.96	2406.57
546.16	1982.64
546.36	2029.74
546.56	2039.78
546.76	2206.28
546.97	2262.80
547.17	1971.78
547.37	2008.44
547.57	1908.30
547.77	2072.13
547.97	1966.05
548.18	2002.71
548.38	2051.45
548.58	2602.35
548.78	2707.21
548.98	3100.83
549.18	3499.16
549.39	3657.26
549.59	3256.27
549.79	2910.16
549.99	2956.45
550.19	2752.88
550.39	2597.44
550.60	2350.86
550.80	2328.13
551.00	2288.20
551.20	2062.30
551.40	1998.20
551.60	2124.97
551.80	2101.63
552.01	2135.01
552.21	2047.76
552.41	2120.67
552.61	2260.34
552.81	2032.61
553.01	1877.78
553.21	2063.74
553.42	1895.40
553.62	1881.26
553.82	1880.04
554.02	2167.57
554.22	2069.88
554.42	1824.33
554.62	2008.85
554.83	2374.62
555.03	2685.30
555.23	2699.22
555.43	3106.15
555.63	3111.48
555.83	2959.11
556.03	2598.05
556.23	2409.23
556.44	2586.79
556.64	2630.21
556.84	2239.45
557.04	2409.23
557.24	2436.26
557.44	2319.73
557.64	2197.06
557.84	2001.89
558.04	2039.16
558.25	2156.10
558.45	1951.30
558.65	2045.51
558.85	2099.58
559.05	1894.37
559.25	2075.82
559.45	2229.83
559.65	2674.65
559.85	3203.84
560.05	2717.86
560.26	2852.41
560.46	2886.20
560.66	2618.94
560.86	2402.68
561.06	2242.32
561.26	2483.78
561.46	2303.56
561.66	2121.08
561.86	2196.86
562.06	2021.96
562.26	2077.46
562.47	2060.87
562.67	1873.07
562.87	2088.52
563.07	1845.83
563.27	2010.70
563.47	2054.11
563.67	1995.13
563.87	2145.25
564.07	2087.90
564.27	2208.32
564.47	2330.38
564.67	2423.16
564.87	2298.64
565.08	2340.21
565.28	2192.56
565.48	2262.19
565.68	2209.55
565.88	2147.30
566.08	2302.33
566.28	2035.07
566.48	1853.82
566.68	1915.06
566.88	1925.71
567.08	2073.16
567.28	1966.66
567.48	1985.30
567.68	2107.16
567.88	1945.16
568.08	2160.20
568.28	2220.41
568.48	2099.58
568.68	2273.04
568.89	2096.51
569.09	1859.15
569.29	2123.74
569.49	2123.33
569.69	1874.92
569.89	1852.18
570.09	1726.03
570.29	1872.25
570.49	1757.36
570.69	1834.78
570.89	2018.07
571.09	2193.37
571.29	1772.72
571.49	2036.09
571.69	1989.81
571.89	1991.04
572.09	1864.68
572.29	1846.86
572.49	2001.89
572.69	2008.65
572.89	1943.32
573.09	1784.19
573.29	2125.18
573.49	2196.24
573.69	2154.46
573.89	2226.55
574.09	2030.36
574.29	2192.76
574.49	1933.49
574.69	1876.14
574.89	1826.58
575.09	1829.25
575.29	1844.20
575.49	1923.45
575.69	1975.88
575.89	1801.19
576.09	1933.28
576.29	1970.35
576.49	1868.57
576.69	1982.02
576.89	1966.25
577.09	2010.08
577.29	1836.41
577.49	2242.53
577.69	1891.50
577.89	2024.01
578.09	1986.53
578.29	1742.00
578.49	1918.74
578.69	1865.90
578.89	2061.28
579.09	1958.47
579.29	1851.98
579.49	2081.56
579.69	1953.35
579.89	2259.11
580.09	1768.83
580.29	1781.32
580.49	1907.48
580.69	1828.22
580.89	1889.87
581.09	1886.59
581.29	1877.37
581.49	1895.40
581.69	1808.15
581.89	1835.59
582.09	1804.47
582.28	1824.94
582.48	2052.68
582.68	2171.87
582.88	2229.42
583.08	2082.37
583.28	2058.82
583.48	2030.56
583.68	1908.50
583.88	2014.38
584.08	1984.69
584.28	1928.57
584.48	2191.94
584.68	2000.87
584.88	1908.91
585.08	2063.74
585.28	2099.78
585.48	2167.98
585.68	2043.87
585.87	2079.51
586.07	2052.06
586.27	1974.45
586.47	2013.56
586.67	1922.02
586.87	1926.32
587.07	1913.21
587.27	1860.78
587.47	2042.23
587.67	2369.70
587.87	2733.63
588.07	2620.58
588.27	2623.24
588.46	2867.36
588.66	2856.51
588.86	2531.29
589.06	2466.37
589.26	2444.25
589.46	2292.09
589.66	2005.99
589.86	1980.80
590.06	2086.68
590.26	2281.03
590.46	2188.87
590.66	2369.30
590.85	2324.85
591.05	2429.51
591.25	2139.72
591.45	2106.34
591.65	2240.68
591.85	2275.91
592.05	2229.42
592.25	2402.27
592.45	2498.73
592.64	2329.15
592.84	2244.57
593.04	2083.81
593.24	2502.41
593.44	2102.44
593.64	2202.59
593.84	2209.96
594.04	2104.70
594.24	2311.54
594.43	2047.76
594.63	2040.60
594.83	2140.54
595.03	2107.36
595.23	1893.14
595.43	1808.77
595.63	1902.56
595.83	2057.18
596.02	1761.05
596.22	1984.48
596.42	2051.86
596.62	2009.67
596.82	1958.68
597.02	2076.44
597.22	2146.48
597.41	2018.89
597.61	1889.66
597.81	2132.55
598.01	2188.05
598.21	2051.66
598.41	2038.55
598.61	1993.08
598.80	2091.18
599.00	2132.35
599.20	2188.87
599.40	2044.69
599.60	2085.86
599.80	2192.35
599.99	2191.12
600.19	2052.88
600.39	2082.37
600.59	2114.53
600.79	2056.78
600.99	2068.86
601.19	2252.97
601.38	2264.23
601.58	2139.72
601.78	1866.52
601.98	2391.00
602.18	3258.93
602.37	4060.51
602.57	4361.35
602.77	4857.37
602.97	4999.30
603.17	4719.54
603.37	4452.08
603.56	4424.43
603.76	4299.10
603.96	4130.75
604.16	3836.26
604.36	3555.89
604.56	3257.70
604.75	2814.73
604.95	2763.53
605.15	2780.94
605.35	2637.99
605.55	2408.62
605.74	2298.23
605.94	2435.44
606.14	2247.85
606.34	2142.79
606.54	2053.91
606.73	1981.82
606.93	2088.11
607.13	1892.53
607.33	1977.31
607.53	2150.78
607.72	2107.77
607.92	2047.15
608.12	2072.54
608.32	2012.95
608.51	2096.71
608.71	1957.45
608.91	2125.38
609.11	2204.02
609.31	2181.91
609.50	2318.71
609.70	2557.30
609.90	2525.35
610.10	2501.80
610.29	2381.79
610.49	2209.96
610.69	2343.90
610.89	2208.12
611.09	2172.28
611.28	2226.55
611.48	2216.72
611.68	2055.55
611.88	1990.01
612.07	1962.77
612.27	2147.30
612.47	1952.94
612.67	2023.19
612.86	2088.93
613.06	1975.88
613.26	1781.53
613.46	1997.79
613.65	2108.38
613.85	2509.17
614.05	2282.67
614.25	2303.35
614.44	2177.20
614.64	2191.33
614.84	2160.61
615.04	2091.39
615.23	2122.31
615.43	2231.67
615.63	2199.93
615.83	2033.02
616.02	2027.90
616.22	2406.57
616.42	2260.75
616.62	2342.88
616.81	2484.80
617.01	2505.69
617.21	2348.82
617.41	2158.56
617.60	2200.75
617.80	2197.88
618.00	2185.59
618.19	2081.76
618.39	2083.40
618.59	2084.01
618.79	1971.37
618.98	1741.59
619.18	1891.09
619.38	2203.20
619.57	1936.76
619.77	1906.86
619.97	1888.43
620.17	1931.64
620.36	1952.53
620.56	2292.91
620.76	2141.56
620.95	2198.70
621.15	2250.72
621.35	2143.61
621.54	2148.73
621.74	2174.12
621.94	2005.99
622.14	1949.67
622.33	1862.01
622.53	1999.43
622.73	1942.29
622.92	1788.90
623.12	1942.50
623.32	2165.93
623.51	2025.65
623.71	1781.73
623.91	2060.05
624.10	1846.04
624.30	1983.87
624.50	1825.15
624.69	1795.25
624.89	2445.48
625.09	1889.25
625.29	1715.79
625.48	1773.54
625.68	1939.43
625.88	2033.02
626.07	1953.97
626.27	1777.02
626.47	1850.95
626.66	1733.61
626.86	1876.35
627.06	1871.64
627.25	1932.87
627.45	2107.97
627.64	1866.72
627.84	2080.74
628.04	1806.51
628.23	2144.02
628.43	1803.24
628.63	1896.21
628.82	1995.34
629.02	2309.49
629.22	2216.52
629.41	2274.88
629.61	2152.82
629.81	2468.83
630.00	2171.46
630.20	2130.09
630.40	2312.77
630.59	2307.45
630.79	2135.21
630.98	2102.65
631.18	2051.45
631.38	2040.19
631.57	2136.03
631.77	1837.44
631.97	1993.08
632.16	1989.19
632.36	1935.74
632.56	1923.86
632.75	1962.36
632.95	2017.04
633.14	1765.35
633.34	2041.01
633.54	1695.10
633.73	1853.00
633.93	1826.99
634.12	1723.98
634.32	2246.62
634.52	1901.33
634.71	1771.70
634.91	1937.17
635.11	1766.17
635.30	1816.34
635.50	1928.78
635.69	1836.82
635.89	2217.13
636.09	2145.04
636.28	1917.92
636.48	1943.11
636.67	2119.65
636.87	2093.43
637.07	2044.49
637.26	1917.72
637.46	2069.88
637.65	2179.65
637.85	2098.96
638.04	1988.78
638.24	2042.23
638.44	2074.80
638.63	1991.24
638.83	1944.96
639.02	2028.31
639.22	2022.78
639.42	1941.06
639.61	1913.42
639.81	1959.91
640.00	1920.38
640.20	1983.25
640.39	2055.55
640.59	2525.96
640.79	2553.20
640.98	2666.25
641.18	2717.24
641.37	2769.67
641.57	2501.59
641.76	2451.62
641.96	2171.26
642.15	2317.69
642.35	2181.09
642.55	2156.72
642.74	2005.99
642.94	2192.15
643.13	2186.41
643.33	1932.87
643.52	1858.33
643.72	1865.70
643.91	1911.16
644.11	1852.80
644.31	1808.36
644.50	1840.30
644.70	2064.56
644.89	1893.14
645.09	1932.05
645.28	1909.12
645.48	1968.10
645.67	1813.48
645.87	1745.69
646.06	1910.55
646.26	1961.95
646.45	1706.57
646.65	1715.38
646.84	2155.28
647.04	1848.29
647.24	1782.96
647.43	1922.43
647.63	1942.50
647.82	2122.72
648.02	1778.25
648.21	1824.54
648.41	2086.88
648.60	1875.12
648.80	1998.82
648.99	1935.33
649.19	1836.21
649.38	1723.37
649.58	1883.11
649.77	1920.79
649.97	2050.02
650.16	1947.21
650.36	1709.44
650.55	1988.58
650.75	1959.29
650.94	2086.68
651.14	1883.52
651.33	1884.75
651.53	2110.64
651.72	1827.61
651.92	1880.24
652.11	1686.30
652.31	1956.63
652.50	1969.12
652.70	1939.63
652.89	1782.96
653.09	2139.31
653.28	1948.85
653.48	1759.21
653.67	1769.85
653.87	2362.95
654.06	1959.91
654.25	2067.01
654.45	1843.38
654.64	1889.25
654.84	1909.94
655.03	1705.14
655.23	1997.38
655.42	2006.80
655.62	2124.36
655.81	1928.98
656.01	1804.06
656.20	2009.67
656.40	2087.29
656.59	1902.77
656.79	2034.66
656.98	1960.52
657.17	2045.31
657.37	1870.41
657.56	1826.17
657.76	1937.99
657.95	2026.26
658.15	1591.48
658.34	1882.70
658.54	1905.63
658.73	1772.31
658.92	1837.85
659.12	1929.80
659.31	2030.97
659.51	1874.30
659.70	2049.20
659.90	1999.84
660.09	2149.75
660.29	2025.85
660.48	1893.14
660.67	2128.66
660.87	1930.21
661.06	2029.33
661.26	2018.68
661.45	2007.83
661.65	1996.36
661.84	1867.34
662.03	1857.92
662.23	1844.81
662.42	2170.23
662.62	1778.25
662.81	1789.52
663.00	1830.27
663.20	1912.39
663.39	1941.68
663.59	1954.79
663.78	1844.20
663.97	1828.84
664.17	2027.49
664.36	1705.96
664.56	1768.63
664.75	2030.15
664.94	2003.32
665.14	1966.66
665.33	1947.00
665.53	2005.37
665.72	2023.19
665.91	2116.99
666.11	1973.83
666.30	2017.25
666.50	1947.41
666.69	1991.85
666.88	1900.92
667.08	1980.80
667.27	1912.19
667.47	1957.65
667.66	1884.13
667.85	2056.78
668.05	1952.33
668.24	1850.34
668.43	2020.73
668.63	1871.02
668.82	2051.45
669.02	1997.38
669.21	1931.64
669.40	1788.29
669.60	2194.40
669.79	1808.97
669.98	2364.58
670.18	1805.08
670.37	1786.03
670.56	1900.11
670.76	1935.94
670.95	1910.55
671.15	2074.59
671.34	1997.79
671.53	1959.91
671.73	1940.45
671.92	1868.16
672.11	1810.40
672.31	1851.98
672.50	1980.39
672.69	1805.69
672.89	1692.85
673.08	1854.85
673.27	2027.08
673.47	1960.11
673.66	1942.09
673.85	1810.81
674.05	2099.37
674.24	2483.57
674.43	2634.30
674.63	3048.81
674.82	3459.63
675.01	3022.39
675.21	3061.51
675.40	2759.84
675.59	2695.54
675.79	2865.52
675.98	2524.74
676.17	2610.96
676.37	2467.19
676.56	2268.94
676.75	2221.43
676.95	2106.95
677.14	2041.42
677.33	2175.35
677.52	1853.62
677.72	1913.83
677.91	1987.35
678.10	1768.42
678.30	1824.13
678.49	1767.40
678.68	2185.59
678.88	1730.12
679.07	2015.61
679.26	1849.11
679.45	2158.56
679.65	2054.32
679.84	1690.19
680.03	1756.13
680.23	1861.40
680.42	2225.53
680.61	1764.53
680.81	1842.76
681.00	1934.72
681.19	1984.89
681.38	2012.13
681.58	2003.94
681.77	1898.06
681.96	2058.41
682.15	1916.28
682.35	1979.16
682.54	1995.75
682.73	1822.90
682.93	1853.00
683.12	1822.69
683.31	2029.33
683.50	2252.56
683.70	1816.14
683.89	1916.49
684.08	1826.17
684.27	2052.88
684.47	1755.72
684.66	1947.41
684.85	2200.95
685.04	2061.28
685.24	1813.48
685.43	1908.71
685.62	1719.47
685.81	1975.88
686.01	2176.79
686.20	2329.36
686.39	2414.35
686.58	2976.11
686.78	2812.07
686.97	2708.64
687.16	2629.80
687.35	2522.07
687.55	2395.10
687.74	2391.82
687.93	2249.49
688.12	2312.98
688.32	2282.26
688.51	2075.21
688.70	2214.06
688.89	1960.32
689.08	1901.13
689.28	1932.05
689.47	1987.55
689.66	2000.05
689.85	2023.39
690.05	1877.99
690.24	1840.30
690.43	1946.59
690.62	1942.29
690.81	1835.80
691.01	1932.26
691.20	1859.56
691.39	1796.07
691.58	1940.66
691.77	2137.06
691.97	1924.89
692.16	1943.32
692.35	1890.07
692.54	1891.71
692.73	2149.96
692.93	2124.15
693.12	2226.76
693.31	2311.13
693.50	2269.15
693.69	2238.43
693.89	2107.56
694.08	2303.96
694.27	2310.31
694.46	2029.33
694.65	2097.94
694.85	2209.55
695.04	2154.26
695.23	2138.90
695.42	2807.15
695.61	3396.15
695.80	3764.37
696.00	4116.42
696.19	4285.37
696.38	3773.59
696.57	3395.12
696.76	3326.52
696.95	3048.20
697.15	3125.61
697.34	2986.14
697.53	2609.11
697.72	2574.50
697.91	2395.10
698.10	2484.19
698.30	2156.51
698.49	2059.23
698.68	2087.49
698.87	1967.07
699.06	1855.05
699.25	1930.42
699.45	2081.15
699.64	1934.31
699.83	2004.76
700.02	1836.41
700.21	1988.99
700.40	1874.92
700.59	1872.46
700.79	1849.11
700.98	1968.51
701.17	1832.93
701.36	1795.04
701.55	1851.57
701.74	2173.71
701.93	2212.22
702.12	2627.54
702.32	2747.76
702.51	3139.74
702.70	3170.26
702.89	2868.59
703.08	2566.92
703.27	2742.84
703.46	2591.70
703.65	2421.72
703.85	2233.51
704.04	2249.69
704.23	2402.06
704.42	2075.00
704.61	2032.20
704.80	2253.38
704.99	1899.49
705.18	2009.88
705.37	1995.34
705.57	2480.70
705.76	3316.69
705.95	3565.51
706.14	4234.38
706.33	4511.68
706.52	4628.00
706.71	3727.51
706.90	3363.99
707.09	3329.38
707.28	3195.65
707.47	2886.20
707.67	2936.99
707.86	2608.29
708.05	2718.06
708.24	2433.40
708.43	2277.14
708.62	2097.32
708.81	1999.43
709.00	1871.23
709.19	1900.72
709.38	2080.33
709.57	1853.21
709.76	2044.69
709.96	1987.55
710.15	2258.70
710.34	2105.93
710.53	2206.28
710.72	2051.45
710.91	2171.67
711.10	2086.06
711.29	2052.47
711.48	1961.95
711.67	1912.19
711.86	2094.46
712.05	1910.35
712.24	1933.90
712.43	2076.85
712.62	2156.72
712.81	1993.70
713.00	2089.54
713.19	1814.30
713.39	2028.92
713.58	1829.86
713.77	1997.18
713.96	2102.85
714.15	2036.30
714.34	2000.46
714.53	1918.74
714.72	2291.06
714.91	1957.45
715.10	2071.52
715.29	1971.78
715.48	2481.73
715.67	2183.54
715.86	2068.04
716.05	2055.55
716.24	1968.71
716.43	1965.44
716.62	1857.30
716.81	1842.56
717.00	1936.56
717.19	2198.29
717.38	1960.93
717.57	1903.79
717.76	1776.82
717.95	2022.78
718.14	1948.03
718.33	1871.64
718.52	1728.28
718.71	1733.61
718.90	1749.37
719.09	1850.75
719.28	1918.95
719.47	2057.59
719.66	2110.02
719.85	2176.17
720.04	2143.61
720.23	2238.84
720.42	2127.02
720.61	2216.72
720.80	1937.38
720.99	2102.85
721.18	2002.30
721.37	1928.16
721.56	1969.74
721.75	2111.46
721.94	1871.23
722.13	1937.38
722.32	1917.92
722.51	2057.80
722.70	1939.43
722.89	1939.63
723.08	1908.50
723.27	2056.37
723.46	1918.95
723.65	1881.47
723.84	1847.06
724.03	2080.53
724.22	1787.47
724.41	1931.03
724.60	1857.51
724.79	2008.44
724.98	1952.12
725.16	1854.64
725.35	2026.67
725.54	1811.02
725.73	1935.54
725.92	1968.51
726.11	2071.73
726.30	2331.41
726.49	2219.38
726.68	2413.94
726.87	2508.76
727.06	2556.27
727.25	2203.00
727.44	2297.21
727.63	2215.08
727.82	2157.94
728.01	2169.41
728.20	2201.98
728.38	2289.63
728.57	2070.29
728.76	2042.44
728.95	2118.62
729.14	1859.76
729.33	1823.72
729.52	1710.26
729.71	1817.78
729.90	1819.42
730.09	1939.84
730.28	2047.56
730.47	2042.64
730.66	2346.97
730.84	2245.39
731.03	2209.76
731.22	2207.71
731.41	2150.16
731.60	2148.11
731.79	1881.06
731.98	1970.15
732.17	2119.44
732.36	2079.92
732.55	1945.16
732.73	1854.85
732.92	2132.14
733.11	2022.57
733.30	1841.74
733.49	1791.77
733.68	2022.78
733.87	1991.65
734.06	1920.79
734.25	2096.92
734.43	2302.94
734.62	2491.15
734.81	2511.22
735.00	2508.35
735.19	2413.12
735.38	2344.31
735.57	2142.58
735.76	2312.98
735.94	2482.55
736.13	3090.38
736.32	3180.09
736.51	3312.18
736.70	3709.28
736.89	3801.44
737.08	3656.85
737.27	4078.53
737.45	5189.96
737.64	5475.86
737.83	6059.33
738.02	6227.46
738.21	5965.94
738.40	5148.80
738.59	4586.02
738.77	4371.18
738.96	4027.33
739.15	3834.21
739.34	3659.92
739.53	3303.37
739.72	3225.76
739.90	3006.83
740.09	2566.31
740.28	2505.69
740.47	2429.91
740.66	2276.11
740.85	2083.40
741.03	2069.68
741.22	1955.20
741.41	2034.66
741.60	1903.38
741.79	2079.10
741.98	2241.91
742.16	2324.65
742.35	2159.99
742.54	2211.60
742.73	2548.49
742.92	2335.71
743.10	2263.82
743.29	2282.05
743.48	2567.54
743.67	2149.14
743.86	2016.84
744.05	2018.07
744.23	2003.73
744.42	1991.24
744.61	2039.37
744.80	1894.58
744.99	1963.18
745.17	1801.39
745.36	1781.94
745.55	1995.54
745.74	1929.19
745.93	1853.82
746.11	1829.66
746.30	1801.19
746.49	2051.66
746.68	1780.71
746.86	1915.47
747.05	1873.48
747.24	2024.83
747.43	2069.88
747.62	1863.86
747.80	1945.78
747.99	2201.36
748.18	2192.15
748.37	2101.01
748.56	2057.59
748.74	2162.45
748.93	2088.31
749.12	2363.36
749.31	3190.94
749.49	3865.75
749.68	4368.32
749.87	4819.48
750.06	4977.18
750.24	5063.60
750.43	5464.80
750.62	6005.87
750.81	6446.19
750.99	6850.87
751.18	6838.58
751.37	5846.95
751.56	5095.14
751.74	5166.41
751.93	4899.36
752.12	4041.26
752.31	3775.84
752.49	3491.79
752.68	3434.65
752.87	3021.16
753.06	2749.40
753.24	2572.04
753.43	2527.81
753.62	2232.08
753.81	2089.34
753.99	2284.51
754.18	2098.55
754.37	1917.31
754.55	1971.78
754.74	2188.87
754.93	1764.73
755.12	1866.11
755.30	1831.29
755.49	2069.06
755.68	1929.39
755.86	1966.87
756.05	1804.26
756.24	2109.82
756.43	1772.31
756.61	1823.92
756.80	1935.74
756.99	2082.17
757.17	1921.61
757.36	1809.99
757.55	1930.62
757.74	1978.95
757.92	1925.50
758.11	1774.97
758.30	1728.49
758.48	1879.63
758.67	1779.28
758.86	1924.48
759.04	1805.69
759.23	1869.80
759.42	1923.45
759.60	1817.16
759.79	1918.13
759.98	1880.44
760.16	1821.26
760.35	1797.09
760.54	1760.02
760.73	1962.16
760.91	1745.48
761.10	1958.27
761.29	1950.28
761.47	1917.72
761.66	2234.95
761.85	1969.94
762.03	2172.28
762.22	3061.10
762.41	5871.12
762.59	9019.87
762.78	10670.53
762.97	12836.87
763.15	13668.55
763.34	12516.98
763.52	9501.96
763.71	8863.81
763.90	8187.57
764.08	7690.74
764.27	7151.51
764.46	6762.80
764.64	5897.33
764.83	5392.71
765.02	4936.83
765.20	4366.68
765.39	3778.91
765.58	3008.47
765.76	2740.80
765.95	2504.67
766.13	2280.62
766.32	2148.32
766.51	2086.27
766.69	2602.76
766.88	2061.89
767.07	1873.48
767.25	1768.83
767.44	2121.90
767.62	2100.19
767.81	1882.70
768.00	1962.57
768.18	1966.46
768.37	1904.00
768.56	1799.75
768.74	1881.67
768.93	1811.63
769.11	1997.59
769.30	1926.11
769.49	1879.83
769.67	1910.14
769.86	1849.73
770.04	1886.79
770.23	1871.84
770.42	2081.35
770.60	1924.48
770.79	1831.50
770.97	1893.35
771.16	2474.15
771.35	3245.42
771.53	4018.73
771.72	4534.00
771.90	5188.12
772.09	5569.45
772.27	4954.65
772.46	4024.46
772.65	4073.41
772.83	3801.44
773.02	3654.81
773.20	3341.88
773.39	3379.97
773.58	3183.36
773.76	2763.94
773.95	2696.97
774.13	2644.75
774.32	2379.53
774.50	2138.28
774.69	2117.19
774.87	1985.51
775.06	2289.83
775.25	1866.31
775.43	1910.55
775.62	1949.05
775.80	1992.06
775.99	1948.64
776.17	1833.96
776.36	1937.17
776.54	2086.06
776.73	1870.41
776.92	1950.08
777.10	2064.56
777.29	1995.54
777.47	1821.05
777.66	1850.75
777.84	1931.23
778.03	1898.88
778.21	1858.33
778.40	1907.68
778.58	1974.45
778.77	2061.49
778.95	1762.89
779.14	1837.03
779.32	2139.10
779.51	2033.84
779.70	1850.75
779.88	1746.51
780.07	1852.39
780.25	2249.08
780.44	1870.41
780.62	2016.63
780.81	1992.06
780.99	1935.33
781.18	1837.85
781.36	1851.36
781.55	1887.00
781.73	2090.77
781.92	1775.79
782.10	1761.87
782.29	1975.06
782.47	2106.75
782.66	1923.25
782.84	1740.77
783.03	1836.62
783.21	2065.99
783.40	1858.33
783.58	1843.99
783.77	1849.73
783.95	1876.76
784.14	1781.94
784.32	1902.36
784.51	2089.13
784.69	1849.93
784.88	1768.22
785.06	1940.66
785.24	1798.94
785.43	2074.39
785.61	1992.47
785.80	1849.73
785.98	2034.66
786.17	1973.83
786.35	1849.93
786.54	1965.64
786.72	2057.59
786.91	2046.74
787.09	1928.78
787.28	1795.45
787.46	1914.03
787.65	2051.04
787.83	1784.60
788.01	1949.87
788.20	1870.41
788.38	2009.47
788.57	1914.65
788.75	1956.83
788.94	2211.19
789.12	2151.60
789.31	1952.53
789.49	2039.37
789.67	1907.89
789.86	2011.11
790.04	1875.94
790.23	1801.39
790.41	2278.37
790.60	1931.23
790.78	1942.50
790.96	1947.41
791.15	2048.58
791.33	1937.38
791.52	1902.36
791.70	1842.97
791.89	1951.71
792.07	2021.35
792.25	1940.25
792.44	1786.85
792.62	2062.10
792.81	1886.38
792.99	1926.73
793.17	1831.70
793.36	1848.50
793.54	2367.45
793.73	2832.55
793.91	3478.27
794.10	4018.32
794.28	4595.23
794.46	4502.46
794.65	4411.73
794.83	3659.52
795.01	3519.43
795.20	3559.78
795.38	3297.02
795.57	3208.55
795.75	3133.39
795.93	2858.76
796.12	2761.07
796.30	2733.01
796.49	2622.22
796.67	2293.32
796.85	2389.37
797.04	2250.51
797.22	2195.63
797.40	1895.60
797.59	2009.26
797.77	2027.49
797.96	1877.99
798.14	1868.36
798.32	1862.22
798.51	2044.28
798.69	2183.75
798.87	1927.14
799.06	1898.06
799.24	1783.78
799.42	2258.50
799.61	2575.73
799.79	2917.95
799.98	3429.73
800.16	3510.01
800.34	4239.30
800.53	5178.29
800.71	5463.16
800.89	6325.97
801.08	6453.35
801.26	6449.26
801.44	5463.57
801.63	4703.16
801.81	4594.21
801.99	4269.61
802.18	4083.85
802.36	3896.67
802.54	3671.19
802.73	3254.43
802.91	3117.21
803.09	2938.43
803.28	2803.26
803.46	2649.05
803.64	2647.00
803.83	2182.11
804.01	2077.05
804.19	1966.05
804.38	2159.38
804.56	2132.35
804.74	2019.71
804.92	2027.08
805.11	1906.66
805.29	2150.78
805.47	1936.35
805.66	1845.22
805.84	1835.59
806.02	2102.24
806.21	1928.98
806.39	2071.11
806.57	2063.74
806.76	2051.66
806.94	1993.90
807.12	1910.35
807.30	1928.78
807.49	2075.00
807.67	2039.16
807.85	2112.27
808.04	2118.62
808.22	2317.48
808.40	1856.48
808.58	1860.58
808.77	2077.25
808.95	2213.85
809.13	2372.78
809.31	3814.34
809.50	5226.01
809.68	5989.28
809.86	6545.92
810.05	7044.60
810.23	7727.40
810.41	9658.63
810.59	14987.85
810.78	18157.91
810.96	21074.01
811.14	22737.78
811.32	22296.24
811.51	18154.22
811.69	14700.52
811.87	14505.35
812.05	12748.20
812.24	11987.99
812.42	11100.20
812.60	9999.41
812.78	8512.59
812.97	7365.31
813.15	6787.17
813.33	5841.42
813.51	5175.83
813.70	4245.03
813.88	3583.33
814.06	3111.48
814.24	2714.38
814.42	2285.94
814.61	2248.26
814.79	2349.02
814.97	1915.26
815.15	1972.19
815.34	2046.54
815.52	2075.62
815.70	1823.92
815.88	1880.44
816.06	1836.00
816.25	1899.08
816.43	1836.41
816.61	2002.09
816.79	2128.86
816.98	1763.30
817.16	1889.87
817.34	1853.41
817.52	2039.78
817.70	2198.08
817.89	1925.50
818.07	1812.04
818.25	1930.82
818.43	1984.28
818.61	1896.83
818.80	1857.71
818.98	2158.97
819.16	1974.04
819.34	1776.61
819.52	2103.88
819.70	1826.17
819.89	1926.93
820.07	1753.06
820.25	1742.00
820.43	1922.63
820.61	2009.47
820.80	1874.71
820.98	1821.46
821.16	1691.42
821.34	1757.36
821.52	1824.33
821.70	1912.19
821.89	1881.06
822.07	1886.18
822.25	1824.94
822.43	1780.71
822.61	2070.09
822.79	1945.57
822.98	1849.11
823.16	1679.74
823.34	1930.62
823.52	2066.20
823.70	1969.94
823.88	1698.38
824.06	1962.77
824.25	1879.83
824.43	2007.62
824.61	1833.14
824.79	1962.36
824.97	2026.87
825.15	2148.93
825.33	2504.26
825.52	3005.19
825.70	3214.49
825.88	3444.27
826.06	3707.64
826.24	3735.50
826.42	3499.98
826.60	3045.33
826.78	3085.06
826.97	2825.99
827.15	2913.03
827.33	2584.74
827.51	2642.90
827.69	2424.59
827.87	2405.13
828.05	2354.75
828.23	2115.76
828.41	2302.74
828.60	2241.30
828.78	1916.08
828.96	2044.49
829.14	1904.41
829.32	1925.09
829.50	1877.37
829.68	1876.76
829.86	1872.87
830.04	2013.15
830.22	1929.60
830.41	1781.12
830.59	1885.56
830.77	2004.14
830.95	1832.73
831.13	1799.14
831.31	1782.55
831.49	2026.06
831.67	2001.48
831.85	1961.34
832.03	1857.30
832.21	1983.66
832.39	1748.15
832.57	1800.57
832.76	2044.90
832.94	1894.99
833.12	1739.14
833.30	1886.38
833.48	2053.91
833.66	1922.84
833.84	1815.52
834.02	1883.11
834.20	2018.68
834.38	1994.72
834.56	1746.51
834.74	1760.84
834.92	1772.93
835.10	2082.99
835.28	1910.75
835.46	1876.76
835.64	1883.52
835.82	1815.93
836.01	2064.76
836.19	1979.77
836.37	1854.03
836.55	1788.70
836.73	1801.19
836.91	1771.08
837.09	1971.78
837.27	2085.45
837.45	1745.28
837.63	1798.73
837.81	1801.39
837.99	1935.54
838.17	1933.28
838.35	1883.93
838.53	2295.98
838.71	2087.08
838.89	1950.28
839.07	1933.08
839.25	2052.88
839.43	2160.40
839.61	2216.31
839.79	3230.26
839.97	4262.23
840.15	4833.82
840.33	5286.63
840.51	5644.61
840.69	5481.80
840.87	4643.97
841.05	4261.82
841.23	4442.45
841.41	5393.94
841.59	7230.76
841.77	8066.95
841.95	8742.16
842.13	9396.08
842.31	8946.35
842.49	7327.84
842.67	6328.22
842.85	6237.70
843.03	5476.68
843.21	5261.23
843.39	4980.86
843.57	4578.23
843.75	4225.16
843.93	3715.42
844.11	3373.41
844.29	3188.07
844.47	2950.92
844.65	2960.75
844.83	2603.38
845.01	2420.29
845.19	2383.84
845.36	2149.34
845.54	2103.67
845.72	2031.38
845.90	2055.34
846.08	1806.72
846.26	1881.47
846.44	1996.36
846.62	1983.25
846.80	1880.24
846.98	1803.85
847.16	1889.25
847.34	1938.61
847.52	1752.86
847.70	1785.21
847.88	1870.41
848.06	2078.28
848.24	1917.51
848.41	1687.94
848.59	2002.71
848.77	1936.97
848.95	1805.49
849.13	1831.50
849.31	1981.00
849.49	1913.62
849.67	1786.44
849.85	1736.27
850.03	1936.76
850.21	1922.63
850.39	1785.83
850.57	1939.63
850.74	2068.24
850.92	2148.32
851.10	2254.61
851.28	2545.01
851.46	2935.76
851.64	3315.46
851.82	3119.67
852.00	3177.83
852.18	3032.02
852.36	2775.61
852.53	2580.03
852.71	2579.62
852.89	2572.86
853.07	2520.23
853.25	2296.59
853.43	2145.86
853.61	2226.96
853.79	2202.18
853.97	2045.10
854.14	1973.83
854.32	2185.59
854.50	2090.36
854.68	1902.36
854.86	1862.63
855.04	1823.92
855.22	2026.06
855.40	1781.32
855.57	1791.77
855.75	1983.05
855.93	1989.40
856.11	1679.74
856.29	1773.54
856.47	1799.96
856.65	1933.28
856.82	1772.93
857.00	1720.29
857.18	1851.57
857.36	1823.10
857.54	1885.77
857.72	1960.11
857.89	1975.47
858.07	1915.67
858.25	1981.82
858.43	1730.74
858.61	1858.53
858.79	1887.82
858.97	1746.10
859.14	1923.45
859.32	1845.42
859.50	1856.07
859.68	1915.67
859.86	1822.08
860.03	1949.67
860.21	2032.20
860.39	1863.24
860.57	1955.20
860.75	1984.48
860.93	2179.04
861.10	2053.91
861.28	1880.04
861.46	1991.85
861.64	2024.62
861.82	1884.13
861.99	2000.46
862.17	2081.76
862.35	2047.76
862.53	1892.12
862.71	1920.38
862.88	1939.84
863.06	1997.18
863.24	1853.62
863.42	1776.41
863.60	1863.45
863.77	1936.35
863.95	1666.02
864.13	1866.31
864.31	1847.88
864.49	1992.88
864.66	1708.62
864.84	1824.13
865.02	1926.11
865.20	2243.75
865.37	1876.55
865.55	1805.08
865.73	1791.36
865.91	2073.16
866.09	2072.13
866.26	2081.35
866.44	2157.94
866.62	2067.22
866.80	1928.16
866.97	2018.89
867.15	1985.71
867.33	2057.59
867.51	2034.25
867.68	1947.21
867.86	1932.05
868.04	1888.43
868.22	1729.71
868.39	1891.50
868.57	1966.05
868.75	2094.05
868.93	1734.42
869.10	1806.92
869.28	2127.23
869.46	2061.28
869.64	1873.69
869.81	1844.61
869.99	1923.86
870.17	1922.02
870.35	1758.59
870.52	1781.53
870.70	1989.60
870.88	1806.31
871.05	1755.72
871.23	1647.39
871.41	1876.14
871.59	1866.31
871.76	1825.97
871.94	1753.47
872.12	1884.54
872.29	1738.73
872.47	1812.25
872.65	1758.59
872.83	1934.51
873.00	2069.68
873.18	1850.34
873.36	1799.96
873.53	2002.71
873.71	1759.00
873.89	1798.94
874.06	1839.49
874.24	1956.83
874.42	2059.03
874.60	1931.85
874.77	1905.43
874.95	1805.90
875.13	2034.04
875.30	1790.74
875.48	1848.70
875.66	2111.05
875.83	1818.80
876.01	1873.69
876.19	1981.20
876.36	1751.22
876.54	1908.09
876.72	1757.36
876.89	1898.67
877.07	1989.19
877.25	1689.98
877.42	1893.35
877.60	1860.37
877.78	2100.19
877.95	1846.45
878.13	1762.28
878.31	1911.37
878.48	1994.93
878.66	1990.63
878.84	1811.43
879.01	1858.12
879.19	1947.21
879.37	1959.50
879.54	1824.74
879.72	1732.17
879.90	1693.26
880.07	1981.20
880.25	1593.93
880.42	1955.61
880.60	1902.77
880.78	1970.56
880.95	1804.06
881.13	1856.69
881.31	1865.09
881.48	1817.98
881.66	1786.03
881.83	1880.24
882.01	1787.88
882.19	1722.14
882.36	1851.16
882.54	1824.33
882.72	1967.28
882.89	1879.42
883.07	1740.36
883.24	1808.77
883.42	1986.32
883.60	1906.04
883.77	1747.74
883.95	1817.78
884.12	2024.01
884.30	1995.75
884.48	2040.39
884.65	1957.65
884.83	2002.91
885.00	2011.92
885.18	1826.99
885.36	1857.51
885.53	1997.79
885.71	2102.85
885.88	1757.16
886.06	1803.44
886.23	1952.33
886.41	1850.75
886.59	1832.73
886.76	1787.47
886.94	1963.18
887.11	2253.99
887.29	1819.83
887.47	1715.99
887.64	2024.83
887.82	2042.85
887.99	1671.96
888.17	1861.40
888.34	1824.54
888.52	1758.39
888.69	1858.94
888.87	1740.57
889.05	1844.81
889.22	1833.55
889.40	1790.74
889.57	1965.23
889.75	2087.49
889.92	1809.38
890.10	1750.81
890.27	1822.28
890.45	1802.21
890.62	1686.50
890.80	1710.67
890.98	1675.44
891.15	2021.96
891.33	1991.65
891.50	1774.77
891.68	1692.03
891.85	1965.44
892.03	1939.02
892.20	1786.65
892.38	1741.59
892.55	1964.00
892.73	1991.44
892.90	1718.86
893.08	1788.29
893.25	1847.68
893.43	1815.11
893.60	1923.25
893.78	1657.22
893.95	1935.13
894.13	1853.00
894.30	1741.18
894.48	1821.26
894.65	1981.41
894.83	1893.76
895.00	1671.35
895.18	1674.62
895.35	1956.83
895.53	1970.35
895.70	1729.92
895.88	1926.93
896.05	1957.24
896.23	1748.76
896.40	1790.54
896.58	1890.48
896.75	1978.13
896.93	2046.13
897.10	1795.25
897.28	1714.76
897.45	1882.49
897.63	1950.08
897.80	1945.98
897.98	1831.70
898.15	1904.20
898.33	1775.79
898.50	1866.11
898.67	1850.54
898.85	1852.59
899.02	1940.66
899.20	2002.91
899.37	1831.29
899.55	1890.28
899.72	2035.48
899.90	1769.24
900.07	1760.43
900.25	1949.05
900.42	2038.14
900.59	1799.96
900.77	1907.89
900.94	1933.49
901.12	1906.86
901.29	1777.84
901.47	1927.34
901.64	1942.29
901.82	1877.78
901.99	1613.18
902.16	1763.71
902.34	2012.54
902.51	1901.74
902.69	1778.05
902.86	1830.68
903.03	2308.06
903.21	1888.23
903.38	1829.86
903.56	1778.87
903.73	2007.83
903.91	1824.74
904.08	1725.41
904.25	1672.58
904.43	1791.15
904.60	1958.06
904.78	1810.40
904.95	1749.78
905.12	1849.52
905.30	2092.41
905.47	1906.66
905.65	1967.89
905.82	1917.51
905.99	1978.13
906.17	1907.07
906.34	1823.92
906.52	1837.23
906.69	2054.32
906.86	2034.66
907.04	1952.74
907.21	2080.12
907.38	2090.16
907.56	1829.86
907.73	1832.93
907.91	2089.34
908.08	2016.23
908.25	1789.92
908.43	1738.73
908.60	1957.65
908.77	1937.17
908.95	1803.24
909.12	1748.35
909.30	1968.71
909.47	1746.30
909.64	1844.20
909.82	1965.23
909.99	1866.52
910.16	1892.12
910.34	1764.33
910.51	1820.23
910.68	1931.85
910.86	1887.82
911.03	1769.65
911.20	2008.44
911.38	2746.53
911.55	3789.56
911.72	4213.49
911.90	4408.46
912.07	4825.42
912.24	4821.74
912.42	3890.12
912.59	3091.61
912.76	3135.24
912.94	2802.85
913.11	2558.12
913.28	2377.69
913.46	2272.63
913.63	2365.40
913.80	2473.54
913.98	2155.90
914.15	2326.90
914.32	2350.45
914.49	2169.41
914.67	2013.56
914.84	2161.02
915.01	2216.31
915.19	2104.08
915.36	1972.60
915.53	2127.84
915.71	2052.06
915.88	1971.37
916.05	1821.87
916.22	2032.40
916.40	1929.19
916.57	1758.18
916.74	1889.05
916.92	2068.04
917.09	1791.77
917.26	1742.82
917.43	1729.30
917.61	1835.39
917.78	1692.85
917.95	1681.79
918.13	1768.22
918.30	2169.82
918.47	1902.97
918.64	1779.68
918.82	1785.62
918.99	1913.83
919.16	2161.63
919.33	1967.48
919.51	1861.19
919.68	1992.88
919.85	2120.06
920.02	1773.95
920.20	1864.68
920.37	2129.68
920.54	2013.56
920.71	1803.44
920.89	1814.09
921.06	2140.13
921.23	1811.84
921.40	1818.60
921.58	2141.97
921.75	2710.90
921.92	2324.65
922.09	2422.95
922.27	2428.89
922.44	2405.75
922.61	2301.30
922.78	2071.52
922.96	1987.55
923.13	1991.65
923.30	2106.54
923.47	1821.87
923.64	1895.60
923.82	2031.59
923.99	1995.54
924.16	1965.23
924.33	1803.44
924.50	1943.11
924.68	2125.59
924.85	1787.88
925.02	1828.63
925.19	2028.10
925.36	1925.09
925.54	1913.01
925.71	1888.23
925.88	2291.47
926.05	1874.71
926.22	1770.67
926.40	1872.46
926.57	1905.23
926.74	1960.73
926.91	1762.07
927.08	1968.92
927.26	2005.37
927.43	1901.54
927.60	1745.28
927.77	1817.57
927.94	2086.47
928.11	2021.55
928.29	1684.04
928.46	1864.27
928.63	1800.98
928.80	1868.16
928.97	1901.95
929.14	1760.84
929.32	2150.16
929.49	1888.84
929.66	1761.87
929.83	1714.97
930.00	1800.16
930.17	1937.99
930.35	1703.71
930.52	1791.36
930.69	2081.97
930.86	1746.51
931.03	1883.93
931.20	1639.40
931.37	2003.32
931.55	1875.94
931.72	1834.37
931.89	1692.65
932.06	1773.95
932.23	2082.58
932.40	1899.90
932.57	1888.64
932.74	2043.67
932.92	2042.64
933.09	1919.56
933.26	1565.67
933.43	1811.22
933.60	1925.71
933.77	1846.65
933.94	1873.07
934.11	1868.57
934.29	1912.80
934.46	1732.79
934.63	1864.06
934.80	1753.27
934.97	1883.72
935.14	1849.73
935.31	1724.39
935.48	1788.90
935.65	1934.10
935.82	1879.42
936.00	1759.41
936.17	2080.94
936.34	1865.09
936.51	1901.95
936.68	1713.95
936.85	1935.33
937.02	1901.13
937.19	1878.81
937.36	1821.46
937.53	1941.27
937.70	1982.43
937.87	1820.64
938.05	1894.99
938.22	1925.30
938.39	1748.76
938.56	1833.55
938.73	1734.83
938.90	1859.97
939.07	1807.74
939.24	1846.86
939.41	1671.55
939.58	1938.61
939.75	1983.46
939.92	1762.48
940.09	1967.07
940.26	1831.91
940.43	2001.89
940.60	1797.71
940.77	1793.61
940.95	1918.54
941.12	1973.22
941.29	1782.96
941.46	1831.91
941.63	2011.72
941.80	2069.88
941.97	1693.47
942.14	1703.91
942.31	1939.02
942.48	1846.24
942.65	1889.66
942.82	1845.63
942.99	1940.04
943.16	1870.61
943.33	1736.47
943.50	1765.35
943.67	1957.65
943.84	1998.41
944.01	1794.02
944.18	1737.09
944.35	2054.93
944.52	1777.23
944.69	1851.36
944.86	1690.19
945.03	1956.01
945.20	2209.76
945.37	1674.21
945.54	1841.12
945.71	2085.45
945.88	2112.07
946.05	1756.34
946.22	1721.52
946.39	2051.86
946.56	1866.93
946.73	1704.32
946.90	1767.19
947.07	1836.41
947.24	1862.63
947.41	1682.20
947.58	1924.89
947.75	1949.46
947.92	1921.40
948.09	1604.38
948.26	1701.04
948.43	1887.82
948.60	2094.46
948.77	1744.05
948.94	1799.55
949.11	1982.43
949.27	1923.86
949.44	1750.81
949.61	1756.75
949.78	1920.59
949.95	2009.06
950.12	1738.32
950.29	1683.23
950.46	1802.42
950.63	1975.88
950.80	1777.02
950.97	1826.99
951.14	2011.51
951.31	1836.82
951.48	1735.24
951.65	1705.14
951.82	2116.78
951.99	1896.42
952.15	1671.35
952.32	1778.66
952.49	1796.07
952.66	1805.90
952.83	1763.10
953.00	1749.17
953.17	1856.89
953.34	1985.10
953.51	1826.17
953.68	1786.85
953.85	1993.29
954.02	2037.73
954.18	1788.08
954.35	1825.35
954.52	1774.97
954.69	1877.99
954.86	1633.05
955.03	1820.03
955.20	1948.44
955.37	1856.07
955.54	1782.96
955.71	1777.23
955.87	1936.15
956.04	2087.49
956.21	1778.46
956.38	1739.95
956.55	1906.04
956.72	2184.57
956.89	1812.86
957.06	1746.30
957.23	1789.92
957.39	2029.95
957.56	1773.54
957.73	1731.35
957.90	1651.89
958.07	2083.60
958.24	1807.74
958.41	1760.43
958.57	1952.33
958.74	1874.10
958.91	1716.61
959.08	1765.55
959.25	1958.47
959.42	1861.81
959.59	1819.01
959.75	1764.12
959.92	2006.39
960.09	2009.47
960.26	1754.09
960.43	1864.88
960.60	1896.62
960.76	1845.02
960.93	1701.04
961.10	1855.05
961.27	1979.16
961.44	1850.95
961.61	1707.80
961.77	1709.03
961.94	1875.12
962.11	1969.53
962.28	1781.53
962.45	1698.18
962.62	1851.36
962.78	1997.18
962.95	1711.90
963.12	1770.88
963.29	1945.78
963.46	2228.39
963.62	1824.13
963.79	1763.10
963.96	2176.17
964.13	1831.70
964.30	1859.56
964.46	1771.29
964.63	1778.66
964.80	2258.70
964.97	1698.38
965.14	1954.99
965.30	2072.34
965.47	2166.34
965.64	2069.06
965.81	2011.51
965.98	2161.22
966.14	1996.36
966.31	1864.68
966.48	1838.46
966.65	2089.13
966.81	1997.79
966.98	1851.16
967.15	1873.69
967.32	1934.92
967.49	1805.69
967.65	1681.79
967.82	1674.83
967.99	1893.96
968.16	1718.86
968.32	1948.85
968.49	1820.44
968.66	1874.10
968.83	2100.19
968.99	1846.04
969.16	1724.39
969.33	2062.30
969.50	1971.17
969.66	1890.28
969.83	1974.04
970.00	1956.01
970.17	1949.46
970.33	1778.87
970.50	1726.03
970.67	2072.34
970.84	2054.11
971.00	1723.78
971.17	1714.97
971.34	1960.73
971.50	1865.70
971.67	1888.02
971.84	1818.60
972.01	1752.24
972.17	1638.58
972.34	1734.02
972.51	1856.69
972.67	1992.67
972.84	1938.40
973.01	1747.74
973.18	1753.06
973.34	2020.73
973.51	1771.29
973.68	1780.50
973.84	1825.97
974.01	1850.54
974.18	2069.06
974.34	1872.66
974.51	1856.28
974.68	1781.32
974.85	2121.49
975.01	1896.01
975.18	1783.58
975.35	1881.06
975.51	1760.43
975.68	1665.20
975.85	1927.34
976.01	1774.56
976.18	2049.61
976.35	1798.94
976.51	1794.23
976.68	2087.90
976.85	2014.79
977.01	1812.25
977.18	1873.48
977.35	1966.46
977.51	1750.60
977.68	1623.42
977.85	1722.34
978.01	2025.65
978.18	1969.33
978.35	1836.62
978.51	1832.11
978.68	2023.19
978.85	2084.42
979.01	1771.90
979.18	1818.39
979.34	1863.04
979.51	1881.06
979.68	1748.97
979.84	1788.49
980.01	2233.51
980.18	1910.75
980.34	1757.36
980.51	1844.40
980.67	1968.92
980.84	1955.61
981.01	1803.65
981.17	1865.29
981.34	1689.16
981.51	1950.08
981.67	1715.38
981.84	1902.36
982.00	1957.04
982.17	1864.68
982.34	1652.92
982.50	1587.99
982.67	2064.97
982.83	1823.31
983.00	1710.67
983.17	1615.64
983.33	2016.43
983.50	1692.65
983.66	1685.07
983.83	1605.40
984.00	1832.11
984.16	1869.18
984.33	1626.70
984.49	1608.68
984.66	1774.97
984.83	1996.36
984.99	1630.39
985.16	1601.51
985.32	1939.63
985.49	1977.93
985.65	1734.83
985.82	1612.37
985.99	2067.63
986.15	1897.03
986.32	1685.48
986.48	1664.18
986.65	1846.65
986.81	1962.98
986.98	1607.04
987.14	1686.30
987.31	1868.98
987.48	1700.22
987.64	1537.82
987.81	1575.50
987.97	2148.73
988.14	1776.61
988.30	1634.28
988.47	1507.10
988.63	1939.22
988.80	1729.10
988.96	1686.09
989.13	1718.04
989.30	1825.35
989.46	1958.47
989.63	1580.21
989.79	1608.68
989.96	1883.93
990.12	2039.16
990.29	1650.87
990.45	1678.92
990.62	1851.77
990.78	2020.12
990.95	1730.94
991.11	1651.07
991.28	1800.98
991.44	1934.10
991.61	1550.31
991.77	1685.27
991.94	1883.11
992.10	2013.15
992.27	1696.13
992.43	1658.04
992.60	1942.09
992.76	1826.17
992.93	1783.99
993.09	1626.91
993.26	1970.35
993.42	2112.89
993.59	1646.16
993.75	1545.40
993.92	1803.65
994.08	1799.14
994.25	1713.74
994.41	1603.15
994.58	1954.99
994.74	2039.78
994.91	1600.08
995.07	1711.69
995.24	1871.84
995.40	1849.32
995.56	1753.06
995.73	1715.17
995.89	2078.28
996.06	1860.78
996.22	1640.83
996.39	1587.79
996.55	1856.69
996.72	1926.52
996.88	1556.25
997.05	1610.11
997.21	2129.68
997.37	1968.30
997.54	1710.67
997.70	1677.29
997.87	1887.20
998.03	1848.50
998.20	1559.32
998.36	1571.41
998.52	1957.86
998.69	1996.16
998.85	1554.61
999.02	1653.33
999.18	1975.06
999.35	1984.07
999.51	1688.76
999.67	1662.13
999.84	1757.98
1000.00	1971.78
1000.17	1720.50
1000.33	1594.34
1000.49	1807.74
1000.66	1862.63
1000.82	1617.28
1000.99	1706.57
1001.15	2033.02
1001.31	1827.20
1001.48	1664.18
1001.64	1692.85
1001.81	1806.51
1001.97	2143.40
1002.13	1654.35
1002.30	1657.42
1002.46	2051.04
1002.63	1841.53
1002.79	1739.95
1002.95	1630.80
1003.12	2008.65
1003.28	1920.79
1003.45	1643.70
1003.61	1609.50
1003.77	1905.43
1003.94	1711.69
1004.10	1676.26
1004.26	1714.97
1004.43	1947.00
1004.59	2086.68
1004.75	1648.00
1004.92	1605.61
1005.08	1831.91
1005.25	1918.13
1005.41	1650.46
1005.57	1727.26
1005.74	2003.12
1005.90	1862.22
1006.06	1724.80
1006.23	1643.29
1006.39	1949.26
1006.55	2200.95
1006.72	1804.87
1006.88	1621.17
1007.04	1753.06
1007.21	1875.94
1007.37	1677.70
1007.53	1619.94
1007.70	2070.29
1007.86	1973.63
1008.02	1705.14
1008.19	1637.15
1008.35	1906.66
1008.51	1764.33
1008.68	1697.77
1008.84	1591.68
1009.00	1781.73
1009.17	2034.66
1009.33	1788.29
1009.49	1726.64
1009.65	1789.52
1009.82	1922.02
1009.98	1718.04
1010.14	1552.97
1010.31	1964.00
1010.47	1930.62
1010.63	1725.41
1010.80	1695.92
1010.96	1921.81
1011.12	1862.83
1011.28	1657.83
1011.45	1620.97
1011.61	2205.46
1011.77	1773.95
1011.94	1622.20
1012.10	1587.18
1012.26	1762.48
1012.42	1813.89
1012.59	1698.99
1012.75	1677.90
1012.91	1838.67
1013.07	1955.20
1013.24	1594.14
1013.40	1636.94
1013.56	1872.25
1013.72	1840.71
1013.89	1711.28
1014.05	1720.50
1014.21	2098.76
1014.37	2186.00
1014.54	1701.45
1014.70	1620.97
1014.86	1840.10
1015.02	1755.52
1015.19	1630.80
1015.35	1606.22
1015.51	1848.70
1015.67	1810.40
1015.84	1621.99
1016.00	1661.52
1016.16	1993.90
1016.32	1958.88
1016.49	1640.01
1016.65	1624.04
1016.81	1850.54
1016.97	1926.93
1017.14	1773.95
1017.30	1641.86
1017.46	1804.47
1017.62	1906.04
1017.78	1709.44
1017.95	1618.51
1018.11	1951.51
1018.27	2157.74
1018.43	1771.08
1018.59	1695.10
1018.76	1958.88
1018.92	2194.60
1019.08	1627.52
1019.24	1666.43
1019.40	2020.94
1019.57	1912.39
1019.73	1738.11
1019.89	1665.82
1020.05	1905.63
1020.21	2101.63
1020.38	1630.59
1020.54	1823.92
1020.70	1955.40
1020.86	1961.13
1021.02	1657.01
1021.18	1620.35
1021.35	1801.39
1021.51	1930.21
1021.67	1780.71
1021.83	1658.85
1021.99	1888.02
1022.15	1949.67
1022.32	1726.85
1022.48	1720.50
1022.64	2028.31
1022.80	2077.66
1022.96	1719.47
1023.12	1595.98
1023.29	1991.04
1023.45	1935.74
1023.61	1658.45
1023.77	1795.86
1023.93	1885.56
1024.09	1755.72
1024.25	1634.89
1024.42	1603.35
1024.58	1841.94
1024.74	1898.26
1024.90	1665.41
1025.06	1690.60
1025.22	1797.91
1025.38	2046.74
1025.54	1612.98
1025.71	1726.44
1025.87	1927.55
1026.03	1949.87
1026.19	1619.74
1026.35	1799.96
1026.51	1950.08
1026.67	1863.45
1026.83	1704.52
1026.99	1745.48
1027.16	1937.79
1027.32	1999.64
1027.48	1664.59
1027.64	1606.22
1027.80	1938.81
1027.96	1862.83
1028.12	1651.69
1028.28	1609.70
1028.44	1926.52
1028.60	2050.02
1028.77	1780.91
1028.93	1704.11
1029.09	1805.28
1029.25	1752.24
1029.41	1705.75
1029.57	1754.70
1029.73	1905.84
1029.89	2048.99
1030.05	1775.59
1030.21	1722.96
1030.37	2172.28
1030.53	1928.57
1030.69	1689.98
1030.85	1619.33
1031.02	1744.05
1031.18	1891.30
1031.34	1687.73
1031.50	1743.23
1031.66	1793.00
1031.82	2062.51
1031.98	1703.71
1032.14	1629.16
1032.30	1764.73
1032.46	1944.96
1032.62	1813.48
1032.78	1606.63
1032.94	1779.07
1033.10	1828.63
1033.26	1706.57
1033.42	1771.29
1033.58	2151.80
1033.74	1811.43
1033.90	1643.90
1034.06	1820.64
1034.22	2149.14
1034.38	1980.80
1034.54	1678.11
1034.70	1718.66
1034.86	2115.14
>>>>>End Processed Spectral Data<<<<<
