SpectraSuite Data File
++++++++++++++++++++++++++++++++++++
Date: Thu Mar 30 14:30:28 PDT 2017
User: UCSD _CER
Dark Spectrum Present: No
Reference Spectrum Present: No
Number of Sampled Component Spectra: 1
Spectrometers: USB4C00073
Integration Time (usec): 380000 (USB4C00073)
Spectra Averaged: 10 (USB4C00073)
Boxcar Smoothing: 0 (USB4C00073)
Correct for Electrical Dark: No (USB4C00073)
Strobe/Lamp Enabled: No (USB4C00073)
Correct for Detector Non-linearity: No (USB4C00073)
Correct for Stray Light: No (USB4C00073)
Number of Pixels in Processed Spectrum: 3648
>>>>>Begin Processed Spectral Data<<<<<
345.37	1266.26
345.58	1266.26
345.80	1266.26
346.01	1227.35
346.22	1248.03
346.43	2046.33
346.65	1919.56
346.86	2451.42
347.07	2379.33
347.28	1847.47
347.50	1840.10
347.71	2160.81
347.92	1890.28
348.13	1821.67
348.35	1801.39
348.56	2146.68
348.77	1947.82
348.98	1841.12
349.20	1675.03
349.41	2172.89
349.62	2288.81
349.83	1951.92
350.05	1816.96
350.26	2211.40
350.47	2357.83
350.68	1848.70
350.90	1748.76
351.11	2393.05
351.32	2356.19
351.53	1865.90
351.75	1786.24
351.96	2206.07
352.17	2130.30
352.38	1912.80
352.60	1901.13
352.81	2171.67
353.02	2443.02
353.23	1794.64
353.44	1842.97
353.66	2071.11
353.87	2105.93
354.08	1899.29
354.29	1831.91
354.51	2012.74
354.72	2081.15
354.93	1814.71
355.14	1783.78
355.35	1879.83
355.57	2306.22
355.78	1854.85
355.99	1916.90
356.20	2104.29
356.42	2066.40
356.63	1895.60
356.84	1814.50
357.05	2281.85
357.26	2496.27
357.48	1981.00
357.69	1891.50
357.90	2244.16
358.11	2067.01
358.32	1882.08
358.54	1882.08
358.75	2048.99
358.96	2266.28
359.17	1835.18
359.38	1883.31
359.60	2257.48
359.81	2102.24
360.02	1864.06
360.23	1811.22
360.44	2026.87
360.66	2284.10
360.87	1803.65
361.08	1802.62
361.29	2185.59
361.50	2152.62
361.72	1840.51
361.93	1938.61
362.14	2158.15
362.35	1903.38
362.56	2013.77
362.77	1731.56
362.99	2259.93
363.20	2118.62
363.41	1885.77
363.62	1686.30
363.83	2241.30
364.05	2286.15
364.26	1789.11
364.47	1839.08
364.68	2319.94
364.89	1991.65
365.10	1759.82
365.32	1862.22
365.53	1996.56
365.74	2057.59
365.95	1838.87
366.16	1713.95
366.37	2102.65
366.59	2079.51
366.80	1859.35
367.01	1735.04
367.22	2501.59
367.43	2659.08
367.64	1895.60
367.86	1829.45
368.07	2223.07
368.28	2361.51
368.49	1752.04
368.70	1895.80
368.91	2096.92
369.12	2107.36
369.34	1742.82
369.55	1749.17
369.76	2114.73
369.97	2062.92
370.18	1729.71
370.39	1811.43
370.60	1910.14
370.82	1964.82
371.03	1863.04
371.24	1802.42
371.45	2271.61
371.66	2224.91
371.87	1844.40
372.08	1863.24
372.30	1994.52
372.51	2350.66
372.72	2016.43
372.93	1862.42
373.14	2438.93
373.35	2042.64
373.56	1785.01
373.78	1850.54
373.99	2285.94
374.20	2676.29
374.41	1820.85
374.62	1814.91
374.83	2405.13
375.04	2069.27
375.25	1875.94
375.47	1874.51
375.68	2070.50
375.89	2281.85
376.10	1879.42
376.31	1918.33
376.52	2190.71
376.73	2199.31
376.94	1902.36
377.15	1808.77
377.37	2134.60
377.58	2092.41
377.79	1745.89
378.00	1801.19
378.21	2187.85
378.42	2259.73
378.63	1900.52
378.84	1930.42
379.05	2318.30
379.27	2136.85
379.48	1944.34
379.69	1808.97
379.90	2357.42
380.11	1836.62
380.32	1846.24
380.53	1979.77
380.74	2381.79
380.95	2163.47
381.16	1898.47
381.37	1885.77
381.59	2392.64
381.80	2323.63
382.01	1812.04
382.22	1759.21
382.43	2209.14
382.64	2154.87
382.85	1761.66
383.06	1903.79
383.27	2261.78
383.48	2053.70
383.69	1874.92
383.91	1798.32
384.12	2275.91
384.33	2265.05
384.54	1931.85
384.75	1822.28
384.96	2736.70
385.17	2351.48
385.38	1880.04
385.59	1825.56
385.80	2246.83
386.01	2418.04
386.22	1955.20
386.43	1873.89
386.64	2538.05
386.86	2097.32
387.07	1958.88
387.28	1757.98
387.49	2036.91
387.70	2357.62
387.91	1978.75
388.12	1846.45
388.33	2199.93
388.54	2067.83
388.75	1815.73
388.96	1912.60
389.17	2060.46
389.38	2074.39
389.59	1909.94
389.80	1957.24
390.01	2099.99
390.22	2071.52
390.43	1968.71
390.64	1710.05
390.86	2207.51
391.07	2316.05
391.28	1838.87
391.49	1927.75
391.70	1922.02
391.91	2016.23
392.12	1867.34
392.33	1962.98
392.54	2210.78
392.75	2131.12
392.96	1984.48
393.17	1852.18
393.38	2538.66
393.59	2330.38
393.80	1764.94
394.01	1871.02
394.22	2094.66
394.43	2463.30
394.64	1738.11
394.85	1934.31
395.06	2142.79
395.27	2167.16
395.48	1836.62
395.69	1758.39
395.90	2102.24
396.11	2139.31
396.32	1839.28
396.53	1958.88
396.74	2125.59
396.95	2317.28
397.16	1822.69
397.37	1747.53
397.58	2308.06
397.79	2153.85
398.00	1916.49
398.21	1893.76
398.42	2172.89
398.63	2481.73
398.84	1862.42
399.05	1824.54
399.26	2364.18
399.47	2209.96
399.68	1727.67
399.89	1793.61
400.10	1948.44
400.31	2077.46
400.52	1927.96
400.73	1830.88
400.94	1920.38
401.15	2222.46
401.36	1882.29
401.57	1914.24
401.78	2364.99
401.99	2301.92
402.20	1806.51
402.41	1999.23
402.62	2403.29
402.83	2102.85
403.04	1804.47
403.25	2035.07
403.46	2166.55
403.67	2354.96
403.88	1842.97
404.09	1821.67
404.30	2002.50
404.51	2009.47
404.72	1778.05
404.93	1985.10
405.14	2007.62
405.35	2106.75
405.56	1876.55
405.77	1793.00
405.98	2184.77
406.19	2132.35
406.40	1789.31
406.61	1860.99
406.82	2034.25
407.03	2572.04
407.24	1823.51
407.45	1882.90
407.66	2188.87
407.87	2308.06
408.08	1934.31
408.29	1948.03
408.49	2231.88
408.70	2119.44
408.91	1819.42
409.12	1975.68
409.33	1952.94
409.54	2389.57
409.75	1815.32
409.96	1862.83
410.17	2311.13
410.38	2092.82
410.59	1843.38
410.80	1952.33
411.01	2112.27
411.22	2097.94
411.43	1929.60
411.64	1816.34
411.85	1986.32
412.06	1985.92
412.27	1641.65
412.47	1816.14
412.68	2101.63
412.89	2191.94
413.10	1835.39
413.31	1745.69
413.52	2477.22
413.73	2505.89
413.94	1819.83
414.15	1995.13
414.36	2038.34
414.57	1969.53
414.78	1755.31
414.99	1780.71
415.19	2228.60
415.40	2133.98
415.61	1930.01
415.82	1904.82
416.03	2260.34
416.24	2180.68
416.45	1863.65
416.66	1778.05
416.87	1888.02
417.08	2220.61
417.29	1780.91
417.50	1881.06
417.70	2226.14
417.91	2172.49
418.12	1890.89
418.33	1847.27
418.54	2192.56
418.75	2322.81
418.96	1973.01
419.17	1924.48
419.38	2348.20
419.59	2207.30
419.79	1943.11
420.00	1871.64
420.21	2625.91
420.42	2116.17
420.63	1822.69
420.84	1906.66
421.05	2127.23
421.26	2164.29
421.47	1794.23
421.67	2211.60
421.88	2025.03
422.09	1966.66
422.30	2093.64
422.51	1900.11
422.72	2466.37
422.93	2308.68
423.14	1922.02
423.35	1751.63
423.55	1883.11
423.76	1989.19
423.97	1862.63
424.18	1728.49
424.39	2070.09
424.60	2275.09
424.81	1853.62
425.02	1894.17
425.22	2102.85
425.43	2074.18
425.64	2053.09
425.85	1884.13
426.06	2501.18
426.27	2293.11
426.48	1978.13
426.68	1959.09
426.89	2267.31
427.10	2465.14
427.31	1917.72
427.52	1819.62
427.73	2267.51
427.94	2209.35
428.14	2049.40
428.35	1931.23
428.56	2397.76
428.77	2299.25
428.98	1917.31
429.19	1888.84
429.40	2054.52
429.60	2099.78
429.81	1983.25
430.02	1909.53
430.23	2109.61
430.44	2266.90
430.65	1828.02
430.85	1871.23
431.06	2241.09
431.27	1875.94
431.48	1880.65
431.69	1905.02
431.90	2153.23
432.10	2167.98
432.31	1966.25
432.52	1876.35
432.73	2576.55
432.94	2457.77
433.15	2060.46
433.35	1863.65
433.56	2356.80
433.77	2170.64
433.98	2162.66
434.19	2056.98
434.40	2396.74
434.60	2389.16
434.81	2212.42
435.02	2115.14
435.23	2253.38
435.44	2139.10
435.64	1837.85
435.85	1835.59
436.06	2089.95
436.27	2063.12
436.48	1784.19
436.68	1857.51
436.89	2475.38
437.10	2357.62
437.31	2004.55
437.52	2094.46
437.73	2285.53
437.93	2246.42
438.14	2003.73
438.35	1802.01
438.56	2093.84
438.77	2132.75
438.97	2065.99
439.18	1884.75
439.39	2340.83
439.60	1941.68
439.80	1842.76
440.01	1896.83
440.22	2068.24
440.43	2280.00
440.64	1829.66
440.84	1943.93
441.05	1964.62
441.26	2635.53
441.47	1983.46
441.68	1941.47
441.88	2282.67
442.09	2314.61
442.30	2291.88
442.51	2342.67
442.71	2376.46
442.92	2379.33
443.13	2042.23
443.34	1934.31
443.55	2054.52
443.75	2287.38
443.96	1890.68
444.17	1803.44
444.38	2298.44
444.58	2003.73
444.79	1966.66
445.00	1953.56
445.21	2114.12
445.41	2071.73
445.62	1704.52
445.83	2003.12
446.04	2150.16
446.24	1896.21
446.45	1728.49
446.66	1890.07
446.87	2208.12
447.07	2026.87
447.28	2141.56
447.49	1894.78
447.70	2288.20
447.90	2311.95
448.11	1959.50
448.32	1983.66
448.53	2415.78
448.73	2360.90
448.94	1882.90
449.15	2030.97
449.36	2173.30
449.56	2226.14
449.77	1870.21
449.98	1757.36
450.19	2036.30
450.39	2056.57
450.60	1960.93
450.81	1970.76
451.02	2113.91
451.22	2383.63
451.43	1818.60
451.64	1877.37
451.84	2056.57
452.05	2364.79
452.26	1906.45
452.47	1899.49
452.67	2042.85
452.88	2376.46
453.09	1817.98
453.30	1833.34
453.50	2291.27
453.71	2524.53
453.92	2027.08
454.12	2221.23
454.33	2207.30
454.54	2289.42
454.75	1937.17
454.95	1902.56
455.16	2187.64
455.37	2300.07
455.57	2015.82
455.78	1925.50
455.99	2151.19
456.19	2155.49
456.40	1832.32
456.61	1937.38
456.82	2137.46
457.02	2322.40
457.23	2129.07
457.44	2231.67
457.64	2231.06
457.85	2371.34
458.06	2041.62
458.26	2113.91
458.47	2161.22
458.68	2347.59
458.89	1894.58
459.09	2084.63
459.30	2512.24
459.51	2159.58
459.71	1782.76
459.92	1855.05
460.13	2281.03
460.33	2554.02
460.54	1959.09
460.75	1970.76
460.95	1963.39
461.16	2232.90
461.37	1940.86
461.57	1912.19
461.78	2141.15
461.99	1957.45
462.19	2140.54
462.40	1856.28
462.61	2522.89
462.81	2296.18
463.02	1863.86
463.23	1868.57
463.43	2221.84
463.64	2053.09
463.85	3191.14
464.05	1899.70
464.26	2680.79
464.47	2334.89
464.67	2103.26
464.88	2056.16
465.09	2149.55
465.29	2312.77
465.50	2225.94
465.71	2134.80
465.91	2192.56
466.12	2182.32
466.33	2006.19
466.53	1891.71
466.74	2418.65
466.94	2125.38
467.15	1973.01
467.36	2097.12
467.56	1982.23
467.77	2172.08
467.98	1940.25
468.18	1918.74
468.39	2050.84
468.60	2457.97
468.80	1873.48
469.01	1839.08
469.21	2221.84
469.42	2356.39
469.63	1902.77
469.83	1852.39
470.04	2255.63
470.25	2381.38
470.45	2045.72
470.66	1916.08
470.86	2205.66
471.07	2066.81
471.28	2016.23
471.48	1980.39
471.69	2197.47
471.90	2950.71
472.10	2172.08
472.31	2191.12
472.51	2331.41
472.72	2287.17
472.93	2033.84
473.13	2161.22
473.34	2301.51
473.54	2251.74
473.75	2042.23
473.96	2173.92
474.16	2147.70
474.37	2263.62
474.57	2032.40
474.78	1875.73
474.99	2227.99
475.19	2187.64
475.40	1940.04
475.60	1931.44
475.81	2647.00
476.02	2377.69
476.22	2278.37
476.43	2324.85
476.63	2288.81
476.84	2453.26
477.05	1874.71
477.25	1940.86
477.46	2728.92
477.66	2203.61
477.87	1900.72
478.08	1942.91
478.28	2305.40
478.49	2103.88
478.69	1908.50
478.90	1885.36
479.10	2256.04
479.31	2425.41
479.52	1988.58
479.72	2072.54
479.93	2285.94
480.13	2115.14
480.34	1982.64
480.54	2068.65
480.75	2046.74
480.96	2394.49
481.16	1885.97
481.37	2016.02
481.57	2309.29
481.78	2281.85
481.98	2166.14
482.19	2031.59
482.40	2454.90
482.60	2249.69
482.81	2063.94
483.01	1840.92
483.22	2307.24
483.42	2295.77
483.63	1985.51
483.83	1973.42
484.04	2075.82
484.24	2330.59
484.45	2136.24
484.66	1901.74
484.86	2235.56
485.07	2015.20
485.27	1987.35
485.48	1892.53
485.68	2353.32
485.89	2031.79
486.09	2031.79
486.30	1938.81
486.50	2167.37
486.71	2115.14
486.91	2024.83
487.12	2277.14
487.33	2921.63
487.53	3035.70
487.74	2649.25
487.94	2588.43
488.15	2565.29
488.35	2478.25
488.56	2115.76
488.76	2027.49
488.97	2234.54
489.17	2329.36
489.38	2114.73
489.58	1989.60
489.79	2277.75
489.99	2237.61
490.20	1982.02
490.40	2072.34
490.61	2194.19
490.81	2060.26
491.02	2017.25
491.22	2004.14
491.43	2279.18
491.63	2123.54
491.84	2084.22
492.04	1847.27
492.25	2222.87
492.45	2099.37
492.66	1916.90
492.86	1815.11
493.07	2115.55
493.27	2526.78
493.48	1852.59
493.68	1900.92
493.89	2106.13
494.09	2282.46
494.30	1922.63
494.50	2164.70
494.71	2246.01
494.91	1901.95
495.12	1949.05
495.32	1975.47
495.53	2174.53
495.73	2003.32
495.94	2196.65
496.14	2029.13
496.35	2723.18
496.55	2289.83
496.76	2030.15
496.96	2058.21
497.17	2169.41
497.37	2247.03
497.58	1952.33
497.78	1863.24
497.98	2100.60
498.19	2097.53
498.39	1956.83
498.60	1980.39
498.80	1862.63
499.01	2255.02
499.21	1831.50
499.42	1986.12
499.62	2088.31
499.83	2501.39
500.03	1855.87
500.24	2060.67
500.44	2355.78
500.64	2333.25
500.85	1925.09
501.05	2059.44
501.26	1896.83
501.46	2330.18
501.67	1876.76
501.87	1849.32
502.08	2000.46
502.28	2087.49
502.48	1996.36
502.69	2043.67
502.89	1887.00
503.10	1984.89
503.30	2002.71
503.51	1992.47
503.71	1887.41
503.92	2222.66
504.12	1983.87
504.32	1891.30
504.53	2257.48
504.73	2216.31
504.94	2070.29
505.14	2183.34
505.35	2264.23
505.55	2228.80
505.75	1988.78
505.96	2137.46
506.16	2504.87
506.37	2085.24
506.57	1883.93
506.78	2054.32
506.98	2316.66
507.18	1908.71
507.39	1859.76
507.59	1942.09
507.80	2020.53
508.00	2163.47
508.20	2147.30
508.41	1914.65
508.61	2336.12
508.82	2312.98
509.02	2063.74
509.22	1865.29
509.43	1937.38
509.63	2031.79
509.84	1979.36
510.04	1795.66
510.24	2404.93
510.45	2262.19
510.65	1849.52
510.86	1991.65
511.06	1929.60
511.26	2258.91
511.47	2125.18
511.67	1911.98
511.88	2219.59
512.08	2312.16
512.28	1872.05
512.49	2000.05
512.69	2139.92
512.90	2165.11
513.10	1942.29
513.30	1985.10
513.51	2216.93
513.71	2431.96
513.91	2035.68
514.12	2024.21
514.32	2275.50
514.53	2043.05
514.73	2049.81
514.93	1948.85
515.14	2118.62
515.34	2357.83
515.54	1916.49
515.75	2004.35
515.95	2230.65
516.15	2356.39
516.36	1990.42
516.56	2014.59
516.77	1802.62
516.97	2214.88
517.17	1963.80
517.38	2043.26
517.58	2387.73
517.78	2065.17
517.99	2037.52
518.19	1941.27
518.39	2319.94
518.60	2046.54
518.80	1858.74
519.00	2005.17
519.21	2099.37
519.41	2451.62
519.61	1894.99
519.82	2052.88
520.02	2134.80
520.22	2123.54
520.43	1929.60
520.63	2026.67
520.83	2030.36
521.04	1832.11
521.24	2051.86
521.44	1960.11
521.65	2006.39
521.85	2243.34
522.05	1893.35
522.26	1899.49
522.46	2480.50
522.66	2264.85
522.87	1968.71
523.07	2127.63
523.27	2067.42
523.48	2382.20
523.68	1959.70
523.88	2048.79
524.09	2326.29
524.29	2170.64
524.49	1844.40
524.70	2042.03
524.90	2336.94
525.10	2236.18
525.31	1855.87
525.51	1873.28
525.71	2255.43
525.91	2260.75
526.12	1958.06
526.32	1881.67
526.52	2016.02
526.73	2001.68
526.93	2001.28
527.13	1836.62
527.34	2108.79
527.54	2124.97
527.74	1970.15
527.94	1870.61
528.15	1975.06
528.35	2148.73
528.55	2072.75
528.76	2008.44
528.96	1854.85
529.16	2302.74
529.36	2071.73
529.57	1868.36
529.77	2360.90
529.97	1981.20
530.18	2048.38
530.38	1937.58
530.58	2228.60
530.78	2182.32
530.99	1929.80
531.19	2013.77
531.39	2002.91
531.60	2144.02
531.80	1991.85
532.00	2139.51
532.20	2160.20
532.41	2018.07
532.61	1913.01
532.81	1884.95
533.01	2043.87
533.22	2229.62
533.42	2091.59
533.62	1841.33
533.82	2377.69
534.03	2097.73
534.23	2064.97
534.43	1903.59
534.63	2060.67
534.84	2183.54
535.04	2060.87
535.24	1980.80
535.44	2602.76
535.65	2078.48
535.85	1930.01
536.05	1889.05
536.25	2125.59
536.46	1981.41
536.66	2128.45
536.86	2008.24
537.06	2236.59
537.27	2346.97
537.47	1999.43
537.67	1945.98
537.87	2367.45
538.08	2093.23
538.28	1861.19
538.48	1852.80
538.68	2073.16
538.88	2246.83
539.09	1803.03
539.29	1965.44
539.49	2295.57
539.69	2192.35
539.90	2062.92
540.10	1872.66
540.30	2361.10
540.50	2018.07
540.70	1825.56
540.91	1907.48
541.11	2267.31
541.31	2396.53
541.51	2039.57
541.72	2041.42
541.92	2184.98
542.12	2016.23
542.32	1999.43
542.52	1933.28
542.73	2006.19
542.93	2197.27
543.13	1942.29
543.33	2055.96
543.53	2263.42
543.74	2218.36
543.94	1911.98
544.14	2031.18
544.34	2320.14
544.54	2106.54
544.75	2040.39
544.95	2131.73
545.15	2254.81
545.35	2411.48
545.55	2081.35
545.75	1965.03
545.96	2539.89
546.16	2005.78
546.36	1973.63
546.56	2010.29
546.76	2326.08
546.97	2417.01
547.17	2008.44
547.37	2058.00
547.57	2072.13
547.77	2277.55
547.97	2030.97
548.18	2044.08
548.38	2118.83
548.58	2370.52
548.78	1922.43
548.98	1982.02
549.18	2300.28
549.39	2398.99
549.59	2041.62
549.79	2013.77
549.99	2387.73
550.19	2306.83
550.39	2152.21
550.60	1989.40
550.80	2206.28
551.00	2240.27
551.20	1949.26
551.40	1954.79
551.60	2210.17
551.80	2188.66
552.01	2060.05
552.21	1979.36
552.41	2180.06
552.61	2465.55
552.81	2060.46
553.01	1908.71
553.21	2226.96
553.42	1994.11
553.62	1981.82
553.82	1896.01
554.02	2385.47
554.22	2288.20
554.42	1887.41
554.62	2111.87
554.83	2383.84
555.03	2407.18
555.23	1984.48
555.43	2247.85
555.63	2147.09
555.83	2171.26
556.03	2061.28
556.23	1859.97
556.44	2156.51
556.64	2340.62
556.84	1739.34
557.04	1968.10
557.24	2172.89
557.44	2163.27
557.64	2033.02
557.84	1909.53
558.04	2073.36
558.25	2280.21
558.45	1914.85
558.65	2002.30
558.85	2155.69
559.05	1839.49
559.25	1978.34
559.45	2066.20
559.65	2477.63
559.85	2980.20
560.05	2016.02
560.26	2070.09
560.46	2074.80
560.66	2037.11
560.86	1940.04
561.06	1914.44
561.26	2365.40
561.46	2247.03
561.66	1962.36
561.86	2087.08
562.06	1987.55
562.26	2109.20
562.47	2021.35
562.67	1885.16
562.87	2245.19
563.07	1858.74
563.27	2020.94
563.47	2001.28
563.67	2062.30
563.87	2259.93
564.07	1902.77
564.27	1956.01
564.47	2142.18
564.67	2162.66
564.87	1950.49
565.08	2040.39
565.28	2051.66
565.48	2216.52
565.68	2033.22
565.88	2119.85
566.08	2474.15
566.28	2126.82
566.48	1855.46
566.68	2004.96
566.88	2115.55
567.08	2292.70
567.28	2025.24
567.48	1987.96
567.68	2195.01
567.88	1903.18
568.08	1984.48
568.28	2115.35
568.48	2077.87
568.68	2340.83
568.89	2032.81
569.09	1855.46
569.29	2279.59
569.49	2267.51
569.69	1872.87
569.89	1887.41
570.09	1814.09
570.29	2017.66
570.49	1888.64
570.69	1978.13
570.89	2251.54
571.09	2472.51
571.29	1868.36
571.49	2123.74
571.69	2169.21
571.89	2222.25
572.09	1984.07
572.29	2014.79
572.49	2283.69
572.69	2252.56
572.89	2015.20
573.09	1728.69
573.29	2104.08
573.49	2119.44
573.69	1965.03
573.89	2019.50
574.09	2023.39
574.29	2309.29
574.49	1987.14
574.69	1873.28
574.89	1916.49
575.09	1958.06
575.29	1865.29
575.49	1976.90
575.69	2161.22
575.89	1915.67
576.09	1981.00
576.29	1983.05
576.49	1943.73
576.69	2075.41
576.89	1948.44
577.09	2006.80
577.29	1875.32
577.49	2414.76
577.69	1922.43
577.89	2102.04
578.09	2151.39
578.29	1840.71
578.49	2012.13
578.69	1865.90
578.89	2307.65
579.09	2127.23
579.29	1887.82
579.49	2103.67
579.69	2063.94
579.89	2401.04
580.09	1760.43
580.29	1820.44
580.49	2029.54
580.69	1951.30
580.89	1934.92
581.09	1955.20
581.29	2011.51
581.49	2096.92
581.69	1890.07
581.89	1923.45
582.09	1978.13
582.28	1986.32
582.48	2059.64
582.68	2122.72
582.88	2362.74
583.08	2071.93
583.28	1983.87
583.48	1996.56
583.68	1979.98
583.88	2128.86
584.08	1981.00
584.28	2030.56
584.48	2481.73
584.68	2235.77
584.88	1946.59
585.08	2188.46
585.28	2283.69
585.48	2336.12
585.68	2037.73
585.87	2104.70
586.07	2208.73
586.27	2157.13
586.47	2052.27
586.67	1942.09
586.87	2115.55
587.07	2045.92
587.27	1845.63
587.47	2034.86
587.67	2398.58
587.87	2575.12
588.07	2035.27
588.27	1927.96
588.46	2275.09
588.66	2261.57
588.86	1945.78
589.06	2005.78
589.26	2247.65
589.46	2246.83
589.66	1902.56
589.86	1868.98
590.06	2046.13
590.26	2173.92
590.46	1928.37
590.66	2042.64
590.85	1985.10
591.05	2160.40
591.25	1901.33
591.45	1955.20
591.65	2216.11
591.85	2126.00
592.05	1912.39
592.25	2025.85
592.45	2262.39
592.64	2043.05
592.84	2013.15
593.04	1898.67
593.24	2566.31
593.44	2031.79
593.64	2019.30
593.84	2053.29
594.04	2061.49
594.24	2407.80
594.43	1928.57
594.63	1989.81
594.83	2290.04
595.03	2290.24
595.23	1913.42
595.43	1846.86
595.63	2009.06
595.83	2306.01
596.02	1786.85
596.22	1965.23
596.42	2170.64
596.62	2091.39
596.82	1953.76
597.02	2022.78
597.22	2381.17
597.41	2166.96
597.61	1903.59
597.81	2082.37
598.01	2232.08
598.21	2046.13
598.41	1864.06
598.61	1879.01
598.80	2127.43
599.00	2154.67
599.20	2103.47
599.40	2002.30
599.60	2014.59
599.80	2232.49
599.99	2108.38
600.19	1936.35
600.39	2125.59
600.59	2196.24
600.79	2037.11
600.99	1997.79
601.19	2394.89
601.38	2442.41
601.58	2049.81
601.78	1740.57
601.98	2198.70
602.18	2166.34
602.37	2217.54
602.57	1994.72
602.77	2278.37
602.97	2156.51
603.17	2172.49
603.37	2103.67
603.56	2320.76
603.76	2249.90
603.96	2013.15
604.16	2019.71
604.36	2367.66
604.56	2266.90
604.75	1910.14
604.95	2041.21
605.15	2358.24
605.35	2285.74
605.55	1957.24
605.74	1901.33
605.94	2300.69
606.14	2144.84
606.34	1990.83
606.54	2059.85
606.73	2064.35
606.93	2236.59
607.13	1921.81
607.33	2076.23
607.53	2406.98
607.72	2324.44
607.92	2033.02
608.12	2142.79
608.32	2099.99
608.51	2243.14
608.71	1884.13
608.91	2061.49
609.11	2245.60
609.31	2076.23
609.50	1976.09
609.70	2210.99
609.90	2306.83
610.10	2304.99
610.29	1944.14
610.49	1854.85
610.69	2228.39
610.89	2152.62
611.09	1966.87
611.28	2154.46
611.48	2312.16
611.68	2103.47
611.88	1975.27
612.07	1901.33
612.27	2279.18
612.47	1997.18
612.67	2015.00
612.86	2100.60
613.06	2135.83
613.26	1871.43
613.46	1907.27
613.65	2027.08
613.85	2657.03
614.05	2262.60
614.25	2076.44
614.44	2002.09
614.64	2122.31
614.84	2048.38
615.04	1921.61
615.23	1969.94
615.43	2218.97
615.63	2226.55
615.83	1930.82
616.02	1787.06
616.22	2212.01
616.42	1918.54
616.62	1867.54
616.81	1985.10
617.01	2126.82
617.21	2129.89
617.41	1873.28
617.60	1990.01
617.80	2209.76
618.00	2246.42
618.19	2088.31
618.39	2000.87
618.59	2207.92
618.79	2133.98
618.98	1837.23
619.18	1972.60
619.38	2501.59
619.57	2086.88
619.77	1977.52
619.97	1977.52
620.17	2038.55
620.36	1921.20
620.56	2131.73
620.76	1856.89
620.95	1950.49
621.15	2025.65
621.35	1904.20
621.54	2008.65
621.74	2144.63
621.94	1995.13
622.14	1865.90
622.33	1840.51
622.53	2097.32
622.73	2088.72
622.92	1838.26
623.12	1956.01
623.32	2469.44
623.51	2250.51
623.71	1859.35
623.91	2182.73
624.10	1961.34
624.30	2130.50
624.50	1857.30
624.69	1819.01
624.89	2810.02
625.09	2091.18
625.29	1789.92
625.48	1862.22
625.68	2175.76
625.88	2311.95
626.07	2045.31
626.27	1907.07
626.47	2033.84
626.66	1854.23
626.86	2021.55
627.06	1952.12
627.25	2128.66
627.45	2408.21
627.64	1975.06
627.84	2151.60
628.04	2000.46
628.23	2482.55
628.43	1856.69
628.63	1876.55
628.82	2017.25
629.02	2405.34
629.22	1987.96
629.41	2127.63
629.61	2116.58
629.81	2420.70
630.00	1903.79
630.20	1875.32
630.40	2137.67
630.59	2181.50
630.79	1936.35
630.98	1965.23
631.18	2093.64
631.38	2129.68
631.57	2098.55
631.77	1822.69
631.97	2154.67
632.16	2224.50
632.36	1978.54
632.56	2008.24
632.75	2167.37
632.95	2306.83
633.14	1884.75
633.34	2137.67
633.54	1833.96
633.73	2034.86
633.93	1943.32
634.12	1815.11
634.32	2587.81
634.52	2119.24
634.71	1814.09
634.91	2014.79
635.11	1943.11
635.30	2004.76
635.50	1965.03
635.69	1876.35
635.89	2440.97
636.09	2283.89
636.28	1900.72
636.48	1871.84
636.67	2214.06
636.87	2191.53
637.07	2028.92
637.26	1926.93
637.46	2115.76
637.65	2251.74
637.85	2016.43
638.04	1920.18
638.24	2029.33
638.44	2194.81
638.63	1982.64
638.83	1959.91
639.02	2183.54
639.22	2219.18
639.42	1922.43
639.61	1939.02
639.81	2140.54
640.00	2104.70
640.20	2125.38
640.39	2003.53
640.59	2438.93
640.79	2275.50
640.98	2020.32
641.18	1914.03
641.37	2048.99
641.57	1988.99
641.76	2000.46
641.96	1750.19
642.15	2124.15
642.35	2018.48
642.55	1986.53
642.74	1823.10
642.94	2226.55
643.13	2340.21
643.33	1924.68
643.52	1915.67
643.72	2049.40
643.91	2097.32
644.11	1881.67
644.31	1910.75
644.50	1996.16
644.70	2330.38
644.89	1999.43
645.09	2065.38
645.28	2145.04
645.48	2187.64
645.67	1884.34
645.87	1805.90
646.06	2065.38
646.26	2178.22
646.45	1774.77
646.65	1765.14
646.84	2443.02
647.04	2031.79
647.24	1870.21
647.43	1928.98
647.63	2167.77
647.82	2370.93
648.02	1866.31
648.21	1914.85
648.41	2347.38
648.60	2078.69
648.80	2086.47
648.99	1950.69
649.19	2021.14
649.38	1835.80
649.58	1956.22
649.77	2051.25
649.97	2303.15
650.16	2214.67
650.36	1732.99
650.55	2097.73
650.75	2166.55
650.94	2404.93
651.14	1965.03
651.33	2020.94
651.53	2407.18
651.72	2001.48
651.92	1955.20
652.11	1796.27
652.31	2206.07
652.50	2154.87
652.70	1984.07
652.89	1832.73
653.09	2372.78
653.28	2074.18
653.48	1750.40
653.67	1793.82
653.87	2614.23
654.06	2120.47
654.25	2184.98
654.45	1897.44
654.64	2064.35
654.84	2093.02
655.03	1765.96
655.23	2116.99
655.42	2296.59
655.62	2480.70
655.81	2118.62
656.01	1955.81
656.20	2302.12
656.40	2449.99
656.59	2066.20
656.79	2128.04
656.98	2174.33
657.17	2283.28
657.37	1988.17
657.56	1964.82
657.76	2164.91
657.95	2328.54
658.15	1626.50
658.34	1988.99
658.54	2098.35
658.73	1903.18
658.92	1916.28
659.12	1972.81
659.31	2215.49
659.51	1963.39
659.70	2013.15
659.90	1874.71
660.09	2239.04
660.29	2079.10
660.48	1847.06
660.67	2086.27
660.87	1992.88
661.06	2191.53
661.26	2033.63
661.45	2087.08
661.65	2178.42
661.84	2026.06
662.03	1899.90
662.23	1912.60
662.42	2459.61
662.62	1958.27
662.81	1857.92
663.00	1933.49
663.20	2172.69
663.39	2228.39
663.59	2059.44
663.78	1968.71
663.97	2093.64
664.17	2300.07
664.36	1875.94
664.56	1912.39
664.75	2269.97
664.94	2217.34
665.14	2044.90
665.33	1971.17
665.53	2105.72
665.72	2079.51
665.91	2064.15
666.11	1986.32
666.30	2118.42
666.50	2056.16
666.69	2010.70
666.88	1904.61
667.08	2093.84
667.27	2038.55
667.47	1947.00
667.66	1932.67
667.85	2266.08
668.05	2113.30
668.24	1859.35
668.43	2140.74
668.63	2036.70
668.82	2271.40
669.02	2056.78
669.21	1943.32
669.40	1896.62
669.60	2428.07
669.79	1805.49
669.98	2601.53
670.18	1948.03
670.37	1892.32
670.56	1937.99
670.76	2044.08
670.95	2052.68
671.15	2240.07
671.34	1999.23
671.53	1941.88
671.73	2001.48
671.92	1965.44
672.11	1879.22
672.31	1933.28
672.50	2170.64
672.69	1909.12
672.89	1732.58
673.08	1949.46
673.27	2255.84
673.47	2161.22
673.66	1991.44
673.85	1843.38
674.05	2115.76
674.24	2108.18
674.43	1817.78
674.63	2017.66
674.82	2502.62
675.01	1732.99
675.21	2041.82
675.40	1897.03
675.59	2007.01
675.79	2343.90
675.98	1928.98
676.17	2080.12
676.37	2133.98
676.56	2002.50
676.75	1950.90
676.95	1988.78
677.14	2062.71
677.33	2305.81
677.52	1833.14
677.72	1908.91
677.91	2175.56
678.10	1849.52
678.30	1865.70
678.49	1881.88
678.68	2491.35
678.88	1805.69
679.07	2100.40
679.26	1947.62
679.45	2446.30
679.65	2337.35
679.84	1788.70
680.03	1809.59
680.23	2031.18
680.42	2585.77
680.61	1855.25
680.81	1914.85
681.00	2114.32
681.19	2184.77
681.38	2084.22
681.58	2015.00
681.77	2040.19
681.96	2231.88
682.15	1848.50
682.35	2003.32
682.54	2175.97
682.73	1911.78
682.93	1855.87
683.12	1856.69
683.31	2243.55
683.50	2581.87
683.70	1847.27
683.89	1998.82
684.08	1944.14
684.27	2281.85
684.47	1823.10
684.66	1941.68
684.85	2431.35
685.04	2281.23
685.24	1862.63
685.43	1930.01
685.62	1836.41
685.81	2152.42
686.01	2021.75
686.20	1858.94
686.39	1873.28
686.58	2446.71
686.78	1988.37
686.97	1934.31
687.16	2264.85
687.35	2145.04
687.55	1905.84
687.74	1984.69
687.93	1921.81
688.12	2043.46
688.32	1962.77
688.51	1784.19
688.70	2180.47
688.89	1919.36
689.08	1804.06
689.28	1901.13
689.47	2145.25
689.66	2127.23
689.85	2024.83
690.05	1879.42
690.24	1978.34
690.43	2185.39
690.62	1976.49
690.81	1913.42
691.01	2105.11
691.20	2047.35
691.39	1817.98
691.58	1988.37
691.77	2400.22
691.97	2103.67
692.16	2001.68
692.35	1926.32
692.54	2027.08
692.73	2192.76
692.93	1951.51
693.12	1977.72
693.31	2146.48
693.50	2123.74
693.69	2020.32
693.89	1881.26
694.08	2290.24
694.27	2324.85
694.46	1908.71
694.65	1935.54
694.85	2208.12
695.04	2197.68
695.23	1863.04
695.42	2090.16
695.61	2187.23
695.80	2306.63
696.00	2249.69
696.19	2268.33
696.38	2069.68
696.57	2264.03
696.76	2124.36
696.95	1995.34
697.15	2403.50
697.34	2362.95
697.53	1941.06
697.72	2043.26
697.91	2045.92
698.10	2331.82
698.30	1944.96
698.49	1929.39
698.68	2156.31
698.87	2058.82
699.06	1871.43
699.25	1978.95
699.45	2283.28
699.64	2129.48
699.83	2129.89
700.02	1907.48
700.21	2191.94
700.40	2008.24
700.59	1919.36
700.79	1971.78
700.98	2199.31
701.17	2008.85
701.36	1873.07
701.55	1883.72
701.74	2292.29
701.93	1881.06
702.12	1915.06
702.32	1843.99
702.51	2225.94
702.70	2193.78
702.89	1945.37
703.08	1914.03
703.27	2310.11
703.46	2176.17
703.65	1829.25
703.85	1818.80
704.04	1987.76
704.23	2274.27
704.42	1868.16
704.61	1881.88
704.80	2377.90
704.99	1967.89
705.18	2001.89
705.37	1945.16
705.57	2164.09
705.76	2319.32
705.95	1950.08
706.14	2275.29
706.33	2467.39
706.52	2687.75
706.71	2116.78
706.90	2020.32
707.09	2272.22
707.28	2195.63
707.47	1894.78
707.67	2086.27
707.86	2007.42
708.05	2266.49
708.24	1947.00
708.43	1972.19
708.62	2056.37
708.81	1996.56
709.00	1896.62
709.19	1865.29
709.38	2298.44
709.57	1897.65
709.76	1971.17
709.96	1855.87
710.15	2314.41
710.34	2082.58
710.53	2045.92
710.72	1935.33
710.91	2314.00
711.10	2185.18
711.29	2037.73
711.48	1923.66
711.67	1914.24
711.86	2181.91
712.05	1818.80
712.24	1843.58
712.43	2197.88
712.62	2324.85
712.81	1957.86
713.00	2110.84
713.19	1920.99
713.39	2197.68
713.58	1819.62
713.77	1983.46
713.96	2165.11
714.15	2051.04
714.34	1913.01
714.53	1754.90
714.72	2423.98
714.91	1917.10
715.10	1983.05
715.29	1823.92
715.48	2600.51
715.67	2223.07
715.86	1954.79
716.05	1915.87
716.24	2051.45
716.43	2020.73
716.62	1849.52
716.81	1796.89
717.00	2045.10
717.19	2352.71
717.38	1907.07
717.57	1913.21
717.76	1871.43
717.95	2286.35
718.14	1961.75
718.33	1970.56
718.52	1831.91
718.71	1851.57
718.90	1846.86
719.09	1873.07
719.28	2071.93
719.47	2226.55
719.66	2000.66
719.85	2043.67
720.04	2019.71
720.23	2078.48
720.42	1856.07
720.61	2005.78
720.80	1834.57
720.99	2131.32
721.18	1890.28
721.37	1853.00
721.56	2038.96
721.75	2232.08
721.94	1857.51
722.13	1904.20
722.32	2033.84
722.51	2236.79
722.70	1986.94
722.89	2021.55
723.08	2090.98
723.27	2246.83
723.46	1967.28
723.65	1964.41
723.84	1987.14
724.03	2346.36
724.22	1820.64
724.41	1946.18
724.60	2065.38
724.79	2240.89
724.98	1982.23
725.16	1914.03
725.35	2252.56
725.54	1915.87
725.73	1946.80
725.92	1971.37
726.11	2010.90
726.30	2169.00
726.49	1848.91
726.68	1886.18
726.87	2138.08
727.06	2326.29
727.25	1879.01
727.44	1991.44
727.63	2092.41
727.82	2029.74
728.01	1980.59
728.20	2011.11
728.38	2335.91
728.57	2042.64
728.76	1917.51
728.95	2042.03
729.14	1900.31
729.33	1918.54
729.52	1672.17
729.71	1825.76
729.90	1917.51
730.09	1978.95
730.28	1881.26
730.47	1852.80
730.66	2251.54
730.84	2105.72
731.03	1939.84
731.22	1939.43
731.41	2094.05
731.60	2178.83
731.79	1754.90
731.98	1820.44
732.17	2180.68
732.36	2165.73
732.55	1848.50
732.73	1778.46
732.92	2313.18
733.11	2164.09
733.30	1870.41
733.49	1789.52
733.68	2170.85
733.87	2144.02
734.06	1793.61
734.25	1816.14
734.43	1935.33
734.62	2085.45
734.81	1902.77
735.00	1852.80
735.19	2020.32
735.38	2159.38
735.57	1795.45
735.76	1994.11
735.94	2174.12
736.13	2426.64
736.32	2021.75
736.51	1910.55
736.70	2431.96
736.89	2435.24
737.08	2079.30
737.27	2206.69
737.45	2498.52
737.64	2337.76
737.83	2342.88
738.02	2329.15
738.21	2523.71
738.40	2568.97
738.59	2078.28
738.77	2139.92
738.96	2093.84
739.15	2166.14
739.34	2117.60
739.53	2047.76
739.72	2312.57
739.90	2281.85
740.09	1891.30
740.28	1965.85
740.47	2213.24
740.66	2195.83
740.85	1849.52
741.03	1896.83
741.22	1931.64
741.41	2032.20
741.60	1778.87
741.79	1979.36
741.98	2284.10
742.16	2406.36
742.35	1945.78
742.54	1967.69
742.73	2459.00
742.92	2034.45
743.10	1770.06
743.29	1884.13
743.48	2479.48
743.67	1996.36
743.86	1759.41
744.05	1791.97
744.23	1916.90
744.42	1930.82
744.61	1965.23
744.80	1789.31
744.99	1973.22
745.17	1797.50
745.36	1745.28
745.55	2020.94
745.74	2061.69
745.93	1966.87
746.11	1846.65
746.30	1780.71
746.49	2242.94
746.68	1883.93
746.86	1920.99
747.05	1890.07
747.24	2156.31
747.43	2198.29
747.62	1774.97
747.80	1846.65
747.99	2267.51
748.18	2150.16
748.37	1958.06
748.56	2001.28
748.74	2235.15
748.93	2094.25
749.12	2115.55
749.31	2417.22
749.49	2747.76
749.68	2943.55
749.87	3030.79
750.06	2848.31
750.24	2991.47
750.43	2931.26
750.62	2736.29
750.81	2863.06
750.99	3062.94
751.18	3109.84
751.37	2632.05
751.56	2697.38
751.74	3105.13
751.93	3175.38
752.12	2249.69
752.31	2170.23
752.49	2301.92
752.68	2553.00
752.87	2093.43
753.06	2016.84
753.24	2127.43
753.43	2351.07
753.62	1908.09
753.81	1925.30
753.99	2380.56
754.18	2191.74
754.37	1858.33
754.55	1907.07
754.74	2382.61
754.93	1794.23
755.12	1868.36
755.30	1814.50
755.49	2253.79
755.68	2091.59
755.86	2000.66
756.05	1782.14
756.24	2329.77
756.43	1899.29
756.61	1818.19
756.80	1943.73
756.99	2307.86
757.17	2076.64
757.36	1837.03
757.55	1900.72
757.74	2152.82
757.92	2047.56
758.11	1824.13
758.30	1732.17
758.48	2050.43
758.67	1892.73
758.86	1940.25
759.04	1813.07
759.23	1993.08
759.42	2080.94
759.60	1832.32
759.79	1926.32
759.98	2009.67
760.16	1932.26
760.35	1843.38
760.54	1842.76
760.73	2125.18
760.91	1857.10
761.10	1900.92
761.29	1979.77
761.47	2076.64
761.66	2477.02
761.85	1944.34
762.03	2090.16
762.22	2326.08
762.41	2657.85
762.59	2851.18
762.78	3046.15
762.97	3661.97
763.15	3612.00
763.34	3330.82
763.52	2843.60
763.71	3026.90
763.90	3053.32
764.08	2624.06
764.27	2649.66
764.46	2894.19
764.64	2483.57
764.83	2383.02
765.02	2292.09
765.20	2415.17
765.39	2403.09
765.58	1959.91
765.76	2004.14
765.95	2174.33
766.13	2147.50
766.32	1916.49
766.51	1885.36
766.69	2832.75
766.88	2173.92
767.07	1839.28
767.25	1707.19
767.44	2235.15
767.62	2280.62
767.81	1834.16
768.00	1919.56
768.18	2071.73
768.37	1981.82
768.56	1703.71
768.74	1853.41
768.93	1853.82
769.11	2154.05
769.30	1953.56
769.49	1882.70
769.67	2054.11
769.86	1993.49
770.04	1889.66
770.23	1853.41
770.42	2328.54
770.60	2098.76
770.79	1826.99
770.97	1867.13
771.16	2279.59
771.35	2169.41
771.53	2056.57
771.72	2132.55
771.90	2376.26
772.09	2661.95
772.27	2369.91
772.46	2144.84
772.65	2481.52
772.83	2356.39
773.02	2233.92
773.20	2013.36
773.39	2338.37
773.58	2328.54
773.76	1924.68
773.95	1905.43
774.13	2223.89
774.32	2060.26
774.50	1874.92
774.69	1971.17
774.87	2046.33
775.06	2491.97
775.25	1861.81
775.43	1939.02
775.62	2141.15
775.80	2196.45
775.99	1961.54
776.17	1908.30
776.36	2101.42
776.54	2273.86
776.73	1891.09
776.92	1971.99
777.10	2273.25
777.29	2135.21
777.47	1859.15
777.66	1904.00
777.84	2099.99
778.03	2081.15
778.21	1849.52
778.40	1973.22
778.58	2207.10
778.77	2261.16
778.95	1826.99
779.14	1894.78
779.32	2439.34
779.51	2229.83
779.70	1881.26
779.88	1772.52
780.07	2004.35
780.25	2553.61
780.44	1928.57
780.62	2005.99
780.81	2183.75
780.99	2167.37
781.18	1866.31
781.36	1842.15
781.55	2070.29
781.73	2363.97
781.92	1777.23
782.10	1816.14
782.29	2187.64
782.47	2377.28
782.66	1881.26
782.84	1765.35
783.03	1951.51
783.21	2301.51
783.40	1862.22
783.58	1865.49
783.77	1999.43
783.95	2044.49
784.14	1847.88
784.32	1930.01
784.51	2265.46
784.69	1939.84
784.88	1791.97
785.06	1893.35
785.24	1859.97
785.43	2247.65
785.61	1977.11
785.80	1838.46
785.98	2157.54
786.17	2088.93
786.35	1789.31
786.54	2025.65
786.72	2230.65
786.91	2263.82
787.09	1912.19
787.28	1763.51
787.46	2088.52
787.65	2200.13
787.83	1770.06
788.01	1850.95
788.20	1884.34
788.38	2027.08
788.57	1864.06
788.75	1834.98
788.94	2406.36
789.12	2195.22
789.31	1942.50
789.49	2029.54
789.67	1961.95
789.86	2146.07
790.04	1819.01
790.23	1744.66
790.41	2473.54
790.60	2014.59
790.78	1860.17
790.96	1905.23
791.15	2188.87
791.33	2033.22
791.52	1917.51
791.70	1799.35
791.89	2070.91
792.07	2230.44
792.25	1930.21
792.44	1768.83
792.62	2256.45
792.81	2003.12
792.99	1886.59
793.17	1859.15
793.36	1931.03
793.54	2367.25
793.73	2072.95
793.91	2000.46
794.10	2440.97
794.28	2530.88
794.46	2181.50
794.65	2216.11
794.83	2135.42
795.01	2255.02
795.20	2206.89
795.38	2147.09
795.57	2272.43
795.75	2280.21
795.93	1996.97
796.12	2026.47
796.30	2257.07
796.49	2259.11
796.67	1839.69
796.85	2018.27
797.04	2117.39
797.22	2175.15
797.40	1814.50
797.59	1924.48
797.77	2104.29
797.96	1937.38
798.14	1834.37
798.32	1851.77
798.51	2205.87
798.69	2404.52
798.87	1905.63
799.06	1900.72
799.24	1835.18
799.42	2225.73
799.61	1982.64
799.79	1971.99
799.98	2513.47
800.16	2147.91
800.34	2173.30
800.53	2322.81
800.71	2424.80
800.89	2885.38
801.08	2573.68
801.26	2557.30
801.44	2435.24
801.63	2325.88
801.81	2249.69
801.99	2158.97
802.18	2248.06
802.36	2280.00
802.54	2155.90
802.73	1931.64
802.91	2198.49
803.09	2230.24
803.28	2077.66
803.46	2063.94
803.64	2410.05
803.83	1934.31
804.01	1876.96
804.19	1817.16
804.38	2196.65
804.56	2155.90
804.74	1929.19
804.92	1928.37
805.11	1887.20
805.29	2255.22
805.47	1843.38
805.66	1787.47
805.84	1858.53
806.02	2220.20
806.21	1847.88
806.39	2062.92
806.57	2245.80
806.76	2235.36
806.94	1939.22
807.12	1853.62
807.30	1924.89
807.49	2064.35
807.67	1951.51
807.85	1995.54
808.04	2198.29
808.22	2469.85
808.40	1835.80
808.58	1751.83
808.77	2138.90
808.95	2323.42
809.13	1907.68
809.31	2220.61
809.50	2473.13
809.68	2631.44
809.86	2299.66
810.05	2402.27
810.23	2961.16
810.41	2995.97
810.59	4078.53
810.78	4719.75
810.96	5437.15
811.14	5770.15
811.32	5209.42
811.51	4494.68
811.69	4194.44
811.87	4279.23
812.05	3718.09
812.24	3527.01
812.42	3737.95
812.60	3638.42
812.78	2960.34
812.97	2784.42
813.15	3156.53
813.33	2850.36
813.51	2593.96
813.70	2234.74
813.88	2268.53
814.06	2307.86
814.24	2127.63
814.42	1859.15
814.61	2215.70
814.79	2470.26
814.97	1808.56
815.15	1857.30
815.34	2104.08
815.52	2258.50
815.70	1823.72
815.88	1923.04
816.06	1913.21
816.25	1990.01
816.43	1880.44
816.61	2005.37
816.79	2343.08
816.98	1822.28
817.16	1784.19
817.34	1818.19
817.52	2116.58
817.70	2358.65
817.89	1943.73
818.07	1816.96
818.25	2059.23
818.43	2092.82
818.61	1904.41
818.80	1863.86
818.98	2393.46
819.16	2083.40
819.34	1824.13
819.52	2139.92
819.70	1955.40
819.89	2088.52
820.07	1768.22
820.25	1760.43
820.43	2130.09
820.61	2252.15
820.80	1930.62
820.98	1815.32
821.16	1812.25
821.34	1853.62
821.52	1878.81
821.70	2034.66
821.89	2108.38
822.07	2025.85
822.25	1992.47
822.43	1836.62
822.61	2375.85
822.79	2141.56
822.98	1911.57
823.16	1783.17
823.34	2159.58
823.52	2312.98
823.70	1977.52
823.88	1802.62
824.06	2194.81
824.25	2083.19
824.43	1995.13
824.61	1821.46
824.79	2077.25
824.97	2092.00
825.15	1991.44
825.33	2141.15
825.52	2364.18
825.70	2181.91
825.88	2051.45
826.06	2103.47
826.24	2244.16
826.42	2329.36
826.60	2034.86
826.78	2121.49
826.97	2121.08
827.15	2368.27
827.33	1910.14
827.51	2000.66
827.69	2001.28
827.87	2149.14
828.05	2020.12
828.23	1866.31
828.41	2277.96
828.60	2235.15
828.78	1793.00
828.96	2013.77
829.14	2002.50
829.32	2021.35
829.50	1893.55
829.68	1884.95
829.86	1985.30
830.04	2182.52
830.22	2005.99
830.41	1836.21
830.59	2077.05
830.77	2190.71
830.95	1848.91
831.13	1869.39
831.31	1940.25
831.49	2220.82
831.67	2063.53
831.85	2039.78
832.03	2024.21
832.21	2171.87
832.39	1767.81
832.57	1842.56
832.76	2225.32
832.94	2041.01
833.12	1749.58
833.30	1888.84
833.48	2279.80
833.66	2137.87
833.84	1855.66
834.02	1934.72
834.20	2252.15
834.38	2225.32
834.56	1766.78
834.74	1826.79
834.92	1862.63
835.10	2391.62
835.28	1920.79
835.46	1925.09
835.64	2039.37
835.82	1959.09
836.01	2176.38
836.19	2096.51
836.37	1989.81
836.55	1949.26
836.73	1853.82
836.91	1820.03
837.09	2189.28
837.27	2296.18
837.45	1767.60
837.63	1763.51
837.81	1882.49
837.99	2051.86
838.17	1927.14
838.35	1834.78
838.53	2444.66
838.71	2195.22
838.89	1840.71
839.07	1825.15
839.25	2086.47
839.43	2215.70
839.61	1914.85
839.79	2149.34
839.97	2413.33
840.15	2497.29
840.33	2256.25
840.51	2495.86
840.69	2400.01
840.87	2344.11
841.05	2257.68
841.23	2187.03
841.41	2402.68
841.59	2805.10
841.77	2659.70
841.95	2754.11
842.13	3229.24
842.31	2899.51
842.49	2551.36
842.67	2555.87
842.85	2746.53
843.03	2368.48
843.21	2250.92
843.39	2465.96
843.57	2464.32
843.75	2449.58
843.93	2145.45
844.11	2179.45
844.29	2288.81
844.47	2211.40
844.65	2208.12
844.83	2032.20
845.01	2111.46
845.19	2287.99
845.36	2011.72
845.54	2037.93
845.72	2131.12
845.90	2233.31
846.08	1882.90
846.26	1976.90
846.44	2165.73
846.62	2184.16
846.80	2025.65
846.98	1862.42
847.16	2051.45
847.34	2105.31
847.52	1838.05
847.70	1811.84
847.88	2069.27
848.06	2346.36
848.24	2029.74
848.41	1801.60
848.59	2260.75
848.77	2158.15
848.95	1891.09
849.13	1891.91
849.31	2210.58
849.49	2144.84
849.67	1865.49
849.85	1815.11
850.03	2169.21
850.21	2120.88
850.39	1819.62
850.57	2014.18
850.74	2362.54
850.92	2308.47
851.10	2050.63
851.28	1955.40
851.46	2247.85
851.64	2638.40
851.82	2056.37
852.00	2132.35
852.18	2475.58
852.36	2361.51
852.53	2008.85
852.71	2085.65
852.89	2269.15
853.07	2284.92
853.25	1917.10
853.43	1837.03
853.61	2139.10
853.79	2191.33
853.97	1886.38
854.14	1885.56
854.32	2347.79
854.50	2233.92
854.68	1911.78
854.86	1892.73
855.04	1993.49
855.22	2209.76
855.40	1771.08
855.57	1867.54
855.75	2212.22
855.93	2136.65
856.11	1754.09
856.29	1869.18
856.47	1980.59
856.65	2129.68
856.82	1849.11
857.00	1794.02
857.18	2041.62
857.36	1990.63
857.54	1992.67
857.72	2055.14
857.89	2201.57
858.07	2115.35
858.25	2101.01
858.43	1836.82
858.61	2056.37
858.79	2064.97
858.97	1804.06
859.14	1984.48
859.32	2044.69
859.50	2037.52
859.68	1954.58
859.86	1840.71
860.03	2086.47
860.21	2183.13
860.39	1859.35
860.57	2041.01
860.75	2147.30
860.93	2410.05
861.10	2075.82
861.28	1839.28
861.46	2136.24
861.64	2134.60
861.82	1857.71
861.99	1998.41
862.17	2258.09
862.35	2259.73
862.53	1927.96
862.71	1919.77
862.88	2130.91
863.06	2217.34
863.24	1874.10
863.42	1827.61
863.60	2049.40
863.77	2184.36
863.95	1749.37
864.13	1890.48
864.31	2012.74
864.49	2218.97
864.66	1825.35
864.84	1862.42
865.02	2149.96
865.20	2561.80
865.37	1960.11
865.55	1846.65
865.73	1882.90
865.91	2207.30
866.09	2001.68
866.26	1923.86
866.44	2197.68
866.62	2026.06
866.80	1821.26
866.97	1858.33
867.15	2043.67
867.33	2080.33
867.51	1922.22
867.68	1915.47
867.86	1963.18
868.04	1994.11
868.22	1691.62
868.39	1846.65
868.57	2129.48
868.75	2324.03
868.93	1761.46
869.10	1835.80
869.28	2389.77
869.46	2308.27
869.64	1898.26
869.81	1869.59
869.99	2137.46
870.17	2101.63
870.35	1813.07
870.52	1863.24
870.70	2240.07
870.88	1978.95
871.05	1841.33
871.23	1731.35
871.41	2098.96
871.59	2070.91
871.76	1889.05
871.94	1788.08
872.12	2082.58
872.29	1877.58
872.47	1872.87
872.65	1796.68
872.83	2124.56
873.00	2321.17
873.18	1885.36
873.36	1858.53
873.53	2215.08
873.71	1862.63
873.89	1774.56
874.06	1885.97
874.24	2158.97
874.42	2314.00
874.60	2036.70
874.77	1960.11
874.95	1991.24
875.13	2271.81
875.30	1870.61
875.48	1812.25
875.66	2337.14
875.83	1963.59
876.01	1851.77
876.19	1978.34
876.36	1876.35
876.54	2069.06
876.72	1811.43
876.89	1979.77
877.07	2208.32
877.25	1801.39
877.42	1889.66
877.60	1889.05
877.78	2429.71
877.95	2046.33
878.13	1810.81
878.31	2051.86
878.48	2253.18
878.66	2233.31
878.84	1868.57
879.01	1895.19
879.19	2143.20
879.37	2192.96
879.54	1895.80
879.72	1763.92
879.90	1780.71
880.07	2222.87
880.25	1681.38
880.42	2036.70
880.60	2124.77
880.78	2204.64
880.95	1872.87
881.13	1943.32
881.31	2078.48
881.48	2011.51
881.66	1855.66
881.83	1984.69
882.01	1985.92
882.19	1863.86
882.36	1900.72
882.54	1870.61
882.72	2204.43
882.89	2099.58
883.07	1858.94
883.24	1871.23
883.42	2249.49
883.60	2102.85
883.77	1785.62
883.95	1896.21
884.12	2234.74
884.30	2138.28
884.48	1988.78
884.65	1910.96
884.83	2123.74
885.00	2137.46
885.18	1798.94
885.36	1890.68
885.53	2186.62
885.71	2290.86
885.88	1782.55
886.06	1868.36
886.23	2195.22
886.41	1995.34
886.59	1875.73
886.76	1798.12
886.94	2171.87
887.11	2597.64
887.29	1937.99
887.47	1788.90
887.64	2309.49
887.82	2318.51
887.99	1735.65
888.17	1936.97
888.34	2036.30
888.52	1903.38
888.69	1849.93
888.87	1794.23
889.05	2048.79
889.22	2022.78
889.40	1876.14
889.57	2083.81
889.75	2307.86
889.92	2030.56
890.10	1800.37
890.27	1946.80
890.45	1956.01
890.62	1785.83
890.80	1793.82
890.98	1712.10
891.15	2362.54
891.33	2232.29
891.50	1829.25
891.68	1769.45
891.85	2229.42
892.03	2199.93
892.20	1806.10
892.38	1794.64
892.55	2218.77
892.73	2232.90
892.90	1740.98
893.08	1854.03
893.25	1975.27
893.43	2007.01
893.60	1966.46
893.78	1699.40
893.95	2163.06
894.13	2067.22
894.30	1830.68
894.48	1876.35
894.65	2246.21
894.83	2130.91
895.00	1722.96
895.18	1717.02
895.35	2209.35
895.53	2213.85
895.70	1755.31
895.88	1960.93
896.05	2163.27
896.23	1869.59
896.40	1840.71
896.58	1907.48
896.75	2198.90
896.93	2330.59
897.10	1879.83
897.28	1748.35
897.45	2100.40
897.63	2181.09
897.80	1973.22
897.98	1825.35
898.15	2119.85
898.33	1992.88
898.50	1891.50
898.67	1853.21
898.85	2012.54
899.02	2172.28
899.20	2093.84
899.37	1886.59
899.55	2085.04
899.72	2324.03
899.90	1844.61
900.07	1814.30
900.25	2180.68
900.42	2308.47
900.59	1856.07
900.77	1969.53
900.94	2179.45
901.12	2112.89
901.29	1883.31
901.47	2005.17
901.64	2183.13
901.82	2066.81
901.99	1667.05
902.16	1826.38
902.34	2284.10
902.51	2107.77
902.69	1851.57
902.86	1895.19
903.03	2709.67
903.21	2078.07
903.38	1833.96
903.56	1839.49
903.73	2250.10
903.91	2024.21
904.08	1806.31
904.25	1705.96
904.43	1923.86
904.60	2240.07
904.78	1868.16
904.95	1802.01
905.12	2005.78
905.30	2381.17
905.47	1940.25
905.65	2032.61
905.82	2049.40
905.99	2145.04
906.17	1859.15
906.34	1826.58
906.52	1896.83
906.69	2163.06
906.86	1948.85
907.04	1931.64
907.21	2243.96
907.38	2180.68
907.56	1796.89
907.73	1789.31
907.91	2335.91
908.08	2264.03
908.25	1851.98
908.43	1767.40
908.60	2154.05
908.77	2124.15
908.95	1871.64
909.12	1785.62
909.30	2187.85
909.47	1813.27
909.64	1877.99
909.82	2034.25
909.99	2029.95
910.16	2088.72
910.34	1820.85
910.51	1807.95
910.68	2150.37
910.86	2090.98
911.03	1736.88
911.20	1803.85
911.38	2247.24
911.55	2558.12
911.72	2401.04
911.90	2279.59
912.07	2649.46
912.24	2841.76
912.42	2300.89
912.59	2107.16
912.76	2444.46
912.94	2260.55
913.11	1968.71
913.28	1887.61
913.46	1925.50
913.63	2176.17
913.80	2196.45
913.98	1831.70
914.15	2261.57
914.32	2297.62
914.49	1968.71
914.67	1788.90
914.84	2105.93
915.01	2180.88
915.19	1933.69
915.36	1832.93
915.53	2232.49
915.71	2192.35
915.88	1966.46
916.05	1849.52
916.22	2283.69
916.40	2142.58
916.57	1765.55
916.74	1997.18
916.92	2352.50
917.09	1906.86
917.26	1803.65
917.43	1760.23
917.61	2013.36
917.78	1814.30
917.95	1776.00
918.13	1765.76
918.30	2444.87
918.47	2098.35
918.64	1797.50
918.82	1772.52
918.99	2034.04
919.16	2326.70
919.33	1873.28
919.51	1851.98
919.68	2038.75
919.85	2249.49
920.02	1744.87
920.20	1891.91
920.37	2360.69
920.54	2240.07
920.71	1820.44
920.89	1838.87
921.06	2386.50
921.23	1896.21
921.40	1760.64
921.58	1922.84
921.75	2592.11
921.92	1956.22
922.09	1928.37
922.27	1883.72
922.44	2063.94
922.61	2143.40
922.78	1851.16
922.96	1815.73
923.13	2027.49
923.30	2217.95
923.47	1770.06
923.64	1795.86
923.82	2165.11
923.99	2117.39
924.16	1954.58
924.33	1783.78
924.50	2084.42
924.68	2348.20
924.85	1808.77
925.02	1845.02
925.19	2201.98
925.36	2103.47
925.54	1888.43
925.71	1933.90
925.88	2619.97
926.05	2033.43
926.22	1816.14
926.40	1961.75
926.57	2114.73
926.74	2205.87
926.91	1838.87
927.08	2028.51
927.26	2277.14
927.43	2110.43
927.60	1831.91
927.77	1880.85
927.94	2370.52
928.11	2313.80
928.29	1742.00
928.46	1909.12
928.63	1947.21
928.80	2027.08
928.97	1923.04
929.14	1788.08
929.32	2459.00
929.49	2085.86
929.66	1798.12
929.83	1741.80
930.00	2019.09
930.17	2168.18
930.35	1791.56
930.52	1823.31
930.69	2348.41
930.86	1887.82
931.03	1882.08
931.20	1667.66
931.37	2299.25
931.55	2078.07
931.72	1905.23
931.89	1783.17
932.06	1918.74
932.23	2366.63
932.40	1930.82
932.57	1971.99
932.74	2310.52
932.92	2270.38
933.09	2015.20
933.26	1600.69
933.43	2017.25
933.60	2142.58
933.77	1907.68
933.94	1965.85
934.11	2050.84
934.29	2128.04
934.46	1786.24
934.63	1910.75
934.80	1836.41
934.97	2043.67
935.14	1872.46
935.31	1699.20
935.48	1925.91
935.65	2135.83
935.82	1892.12
936.00	1739.95
936.17	2370.73
936.34	2074.80
936.51	1922.84
936.68	1778.05
936.85	2118.21
937.02	2132.14
937.19	1952.74
937.36	1873.07
937.53	2115.76
937.70	2233.11
937.87	1833.96
938.05	1966.66
938.22	2106.75
938.39	1888.02
938.56	1858.74
938.73	1790.33
938.90	2058.00
939.07	1981.61
939.24	1942.09
939.41	1703.30
939.58	2152.01
939.75	2194.81
939.92	1815.32
940.09	2093.84
940.26	2042.64
940.43	2237.41
940.60	1900.52
940.77	1842.97
940.95	2136.44
941.12	2211.19
941.29	1842.56
941.46	1903.18
941.63	2297.62
941.80	2329.77
941.97	1731.76
942.14	1722.75
942.31	2241.71
942.48	2088.31
942.65	1984.07
942.82	1892.12
942.99	2172.89
943.16	2079.71
943.33	1768.22
943.50	1849.52
943.67	2235.56
943.84	2267.72
944.01	1839.69
944.18	1824.94
944.35	2340.01
944.52	1953.97
944.69	1928.16
944.86	1747.74
945.03	2200.34
945.20	2522.48
945.37	1662.54
945.54	1898.26
945.71	2285.33
945.88	2390.59
946.05	1806.10
946.22	1757.16
946.39	2316.87
946.56	2060.26
946.73	1720.70
946.90	1795.86
947.07	1996.97
947.24	2044.90
947.41	1710.87
947.58	1964.62
947.75	2188.25
947.92	2158.35
948.09	1650.05
948.26	1730.74
948.43	2115.14
948.60	2419.68
948.77	1780.91
948.94	1877.58
949.11	2213.65
949.27	2147.30
949.44	1811.84
949.61	1741.59
949.78	2165.73
949.95	2279.80
950.12	1743.85
950.29	1751.63
950.46	1994.31
950.63	2270.38
950.80	1791.77
950.97	1834.57
951.14	2272.02
951.31	2043.67
951.48	1800.78
951.65	1774.36
951.82	2416.19
951.99	2130.71
952.15	1776.41
952.32	1856.07
952.49	1972.60
952.66	2005.17
952.83	1828.22
953.00	1774.36
953.17	2098.96
953.34	2249.28
953.51	1888.43
953.68	1889.87
953.85	2295.36
954.02	2288.20
954.18	1880.04
954.35	1822.49
954.52	1941.06
954.69	2132.14
954.86	1717.63
955.03	1897.65
955.20	2201.36
955.37	2070.50
955.54	1817.98
955.71	1783.58
955.87	2152.21
956.04	2363.97
956.21	1833.34
956.38	1781.53
956.55	2120.67
956.72	2547.06
956.89	1895.40
957.06	1769.85
957.23	1968.10
957.39	2334.89
957.56	1840.51
957.73	1721.32
957.90	1744.05
958.07	2403.91
958.24	1870.41
958.41	1840.30
958.57	2214.06
958.74	2097.53
958.91	1764.73
959.08	1802.21
959.25	2209.96
959.42	2060.67
959.59	1856.07
959.75	1859.97
959.92	2299.66
960.09	2250.51
960.26	1793.61
960.43	1878.60
960.60	2136.24
960.76	2078.69
960.93	1751.42
961.10	1898.88
961.27	2262.60
961.44	2050.43
961.61	1747.12
961.77	1743.64
961.94	2126.82
962.11	2232.29
962.28	1833.34
962.45	1737.50
962.62	2069.47
962.78	2250.31
962.95	1730.33
963.12	1811.02
963.29	2162.86
963.46	2589.04
963.62	1900.72
963.79	1808.15
963.96	2543.78
964.13	2047.35
964.30	1932.67
964.46	1801.39
964.63	1928.37
964.80	2545.83
964.97	1664.59
965.14	1938.61
965.30	2143.61
965.47	2190.51
965.64	1987.14
965.81	1909.12
965.98	2343.70
966.14	2116.78
966.31	1798.32
966.48	1800.57
966.65	2273.65
966.81	2162.25
966.98	1814.50
967.15	1821.87
967.32	2063.74
967.49	1939.43
967.65	1665.61
967.82	1650.66
967.99	2050.02
968.16	1810.20
968.32	1981.00
968.49	1806.72
968.66	2041.42
968.83	2358.24
968.99	1917.92
969.16	1765.96
969.33	2312.98
969.50	2184.57
969.66	1956.22
969.83	2079.30
970.00	2220.82
970.17	2165.11
970.33	1842.35
970.50	1749.78
970.67	2374.62
970.84	2356.60
971.00	1771.08
971.17	1715.79
971.34	2212.01
971.50	2103.88
971.67	1919.36
971.84	1837.85
972.01	1899.70
972.17	1750.19
972.34	1743.23
972.51	1985.30
972.67	2296.59
972.84	2139.51
973.01	1787.67
973.18	1818.80
973.34	2237.41
973.51	1920.79
973.68	1861.40
973.84	1877.37
974.01	2033.43
974.18	2360.69
974.34	1891.91
974.51	1912.60
974.68	1983.46
974.85	2461.45
975.01	1951.30
975.18	1841.53
975.35	2090.98
975.51	1994.72
975.68	1728.28
975.85	1995.13
976.01	1978.75
976.18	2349.84
976.35	1830.47
976.51	1871.23
976.68	2361.51
976.85	2326.29
977.01	1871.02
977.18	1920.38
977.35	2184.16
977.51	1907.27
977.68	1668.28
977.85	1738.73
978.01	2253.58
978.18	2182.11
978.35	1881.88
978.51	1855.46
978.68	2265.05
978.85	2351.07
979.01	1886.59
979.18	1859.35
979.34	2067.01
979.51	2110.84
979.68	1752.04
979.84	1894.17
980.01	2536.20
980.18	2100.81
980.34	1785.42
980.51	1899.90
980.67	2236.59
980.84	2218.77
981.01	1853.21
981.17	1891.30
981.34	1820.23
981.51	2222.25
981.67	1781.94
981.84	1945.98
982.00	2210.58
982.17	2063.12
982.34	1688.76
982.50	1585.33
982.67	2388.75
982.83	1992.67
983.00	1715.38
983.17	1627.93
983.33	2276.93
983.50	1829.86
983.66	1722.75
983.83	1608.07
984.00	2036.09
984.16	2108.18
984.33	1628.54
984.49	1600.49
984.66	1931.85
984.83	2238.02
984.99	1665.41
985.16	1632.85
985.32	2217.75
985.49	2218.15
985.65	1750.19
985.82	1653.12
985.99	2362.54
986.15	2110.84
986.32	1757.98
986.48	1710.67
986.65	2021.55
986.81	2206.69
986.98	1637.76
987.14	1714.15
987.31	2112.48
987.48	1849.11
987.64	1566.08
987.81	1606.22
987.97	2463.50
988.14	1934.31
988.30	1617.90
988.47	1528.60
988.63	2151.39
988.80	1870.61
988.96	1695.92
989.13	1724.39
989.30	2029.74
989.46	2249.69
989.63	1583.08
989.79	1598.23
989.96	2068.86
990.12	2347.38
990.29	1646.57
990.45	1717.63
990.62	2077.66
990.78	2286.76
990.95	1766.58
991.11	1670.94
991.28	2000.46
991.44	2141.36
991.61	1562.19
991.77	1722.14
991.94	2114.12
992.10	2284.30
992.27	1704.93
992.43	1685.27
992.60	2201.98
992.76	2002.09
992.93	1890.07
993.09	1590.86
993.26	2281.03
993.42	2437.70
993.59	1632.03
993.75	1586.97
993.92	1963.59
994.08	1958.27
994.25	1740.77
994.41	1611.14
994.58	2222.66
994.74	2341.24
994.91	1592.71
995.07	1752.04
995.24	2050.02
995.40	2072.75
995.56	1810.20
995.73	1726.85
995.89	2360.49
996.06	2048.99
996.22	1632.64
996.39	1581.85
996.55	2061.89
996.72	2141.15
996.88	1582.06
997.05	1632.03
997.21	2432.17
997.37	2209.96
997.54	1732.38
997.70	1689.78
997.87	2156.92
998.03	2071.32
998.20	1541.10
998.36	1572.64
998.52	2200.75
998.69	2210.37
998.85	1588.61
999.02	1675.44
999.18	2247.85
999.35	2236.79
999.51	1710.67
999.67	1685.27
999.84	1908.09
1000.00	2219.79
1000.17	1750.40
1000.33	1648.21
1000.49	1992.26
1000.66	2058.82
1000.82	1623.83
1000.99	1750.60
1001.15	2291.47
1001.31	2037.11
1001.48	1686.30
1001.64	1756.54
1001.81	2032.61
1001.97	2439.13
1002.13	1681.38
1002.30	1700.02
1002.46	2321.58
1002.63	2029.33
1002.79	1772.11
1002.95	1647.80
1003.12	2267.72
1003.28	2167.37
1003.45	1627.93
1003.61	1580.62
1003.77	2146.48
1003.94	1855.87
1004.10	1633.66
1004.26	1784.40
1004.43	2182.73
1004.59	2406.98
1004.75	1648.61
1004.92	1626.70
1005.08	2022.78
1005.25	2129.48
1005.41	1653.33
1005.57	1722.34
1005.74	2280.21
1005.90	1996.97
1006.06	1810.81
1006.23	1662.75
1006.39	2194.19
1006.55	2531.70
1006.72	1786.85
1006.88	1592.91
1007.04	1944.14
1007.21	2052.06
1007.37	1681.79
1007.53	1663.77
1007.70	2314.82
1007.86	2228.19
1008.02	1736.27
1008.19	1607.25
1008.35	2110.43
1008.51	1932.26
1008.68	1674.01
1008.84	1592.50
1009.00	1931.44
1009.17	2274.47
1009.33	1885.16
1009.49	1763.10
1009.65	1934.31
1009.82	2178.42
1009.98	1729.92
1010.14	1560.14
1010.31	2198.08
1010.47	2174.94
1010.63	1732.38
1010.80	1727.67
1010.96	2173.30
1011.12	2053.50
1011.28	1698.59
1011.45	1611.55
1011.61	2564.26
1011.77	1941.88
1011.94	1641.86
1012.10	1596.39
1012.26	1908.91
1012.42	1984.48
1012.59	1709.03
1012.75	1715.17
1012.91	2076.23
1013.07	2248.06
1013.24	1609.29
1013.40	1660.29
1013.56	2116.58
1013.72	2066.40
1013.89	1734.63
1014.05	1748.35
1014.21	2431.55
1014.37	2542.96
1014.54	1721.32
1014.70	1616.87
1014.86	2052.88
1015.02	1892.53
1015.19	1657.63
1015.35	1632.64
1015.51	2045.10
1015.67	2006.19
1015.84	1675.85
1016.00	1707.19
1016.16	2254.40
1016.32	2235.36
1016.49	1665.41
1016.65	1582.26
1016.81	2076.03
1016.97	2155.90
1017.14	1773.75
1017.30	1690.60
1017.46	1983.66
1017.62	2134.60
1017.78	1767.40
1017.95	1649.23
1018.11	2218.15
1018.27	2518.80
1018.43	1810.40
1018.59	1735.65
1018.76	2230.85
1018.92	2559.96
1019.08	1612.16
1019.24	1678.52
1019.40	2334.27
1019.57	2133.37
1019.73	1783.99
1019.89	1689.37
1020.05	2128.86
1020.21	2455.51
1020.38	1664.18
1020.54	1832.93
1020.70	2184.98
1020.86	2182.52
1021.02	1660.90
1021.18	1675.65
1021.35	2000.05
1021.51	2153.64
1021.67	1856.48
1021.83	1720.70
1021.99	2086.27
1022.15	2137.67
1022.32	1745.69
1022.48	1694.90
1022.64	2341.24
1022.80	2375.03
1022.96	1739.54
1023.12	1613.59
1023.29	2263.62
1023.45	2159.17
1023.61	1673.19
1023.77	1914.85
1023.93	2108.38
1024.09	1939.63
1024.25	1664.79
1024.42	1596.80
1024.58	2036.70
1024.74	2128.86
1024.90	1714.35
1025.06	1737.91
1025.22	1975.68
1025.38	2374.01
1025.54	1619.94
1025.71	1779.28
1025.87	2196.86
1026.03	2200.54
1026.19	1618.92
1026.35	1869.18
1026.51	2180.88
1026.67	2112.27
1026.83	1724.80
1026.99	1857.71
1027.16	2167.98
1027.32	2276.93
1027.48	1693.87
1027.64	1628.34
1027.80	2202.18
1027.96	2123.54
1028.12	1670.94
1028.28	1656.81
1028.44	2131.12
1028.60	2317.28
1028.77	1811.02
1028.93	1722.34
1029.09	2040.19
1029.25	1916.49
1029.41	1740.98
1029.57	1796.07
1029.73	2159.79
1029.89	2347.79
1030.05	1790.54
1030.21	1742.00
1030.37	2491.76
1030.53	2212.63
1030.69	1714.56
1030.85	1602.13
1031.02	1929.19
1031.18	2101.83
1031.34	1695.31
1031.50	1764.53
1031.66	1976.49
1031.82	2350.04
1031.98	1717.43
1032.14	1627.32
1032.30	1953.15
1032.46	2213.44
1032.62	1803.44
1032.78	1601.72
1032.94	1968.92
1033.10	2019.50
1033.26	1730.74
1033.42	1818.80
1033.58	2472.92
1033.74	2004.55
1033.90	1663.36
1034.06	1875.12
1034.22	2486.03
1034.38	2261.16
1034.54	1715.17
1034.70	1742.21
1034.86	2448.96
>>>>>End Processed Spectral Data<<<<<
