SpectraSuite Data File
++++++++++++++++++++++++++++++++++++
Date: Thu Mar 30 14:29:01 PDT 2017
User: UCSD _CER
Dark Spectrum Present: No
Reference Spectrum Present: No
Number of Sampled Component Spectra: 1
Spectrometers: USB4C00073
Integration Time (usec): 380000 (USB4C00073)
Spectra Averaged: 10 (USB4C00073)
Boxcar Smoothing: 0 (USB4C00073)
Correct for Electrical Dark: No (USB4C00073)
Strobe/Lamp Enabled: No (USB4C00073)
Correct for Detector Non-linearity: No (USB4C00073)
Correct for Stray Light: No (USB4C00073)
Number of Pixels in Processed Spectrum: 3648
>>>>>Begin Processed Spectral Data<<<<<
345.37	1251.72
345.58	1251.72
345.80	1251.72
346.01	1232.06
346.22	1260.32
346.43	2035.89
346.65	1913.21
346.86	2466.78
347.07	2370.73
347.28	1828.43
347.50	1831.50
347.71	2127.23
347.92	1888.02
348.13	1814.09
348.35	1795.86
348.56	2163.27
348.77	1971.78
348.98	1841.94
349.20	1677.29
349.41	2163.88
349.62	2269.76
349.83	1951.10
350.05	1827.61
350.26	2197.68
350.47	2408.82
350.68	1823.92
350.90	1762.07
351.11	2385.68
351.32	2344.51
351.53	1874.10
351.75	1772.31
351.96	2200.13
352.17	2108.38
352.38	1922.84
352.60	1914.85
352.81	2148.52
353.02	2457.15
353.23	1767.40
353.44	1847.68
353.66	2064.97
353.87	2089.54
354.08	1884.95
354.29	1816.96
354.51	2000.46
354.72	2075.41
354.93	1783.78
355.14	1787.88
355.35	1852.18
355.57	2274.27
355.78	1823.51
355.99	1924.27
356.20	2120.06
356.42	2096.30
356.63	1903.38
356.84	1814.30
357.05	2287.58
357.26	2531.70
357.48	1966.05
357.69	1893.35
357.90	2190.51
358.11	2049.20
358.32	1842.15
358.54	1897.03
358.75	2068.24
358.96	2249.08
359.17	1817.37
359.38	1876.96
359.60	2233.72
359.81	2118.42
360.02	1836.00
360.23	1808.77
360.44	2007.01
360.66	2298.64
360.87	1796.68
361.08	1807.74
361.29	2211.60
361.50	2166.34
361.72	1826.17
361.93	1939.84
362.14	2145.04
362.35	1889.87
362.56	1975.68
362.77	1721.73
362.99	2233.11
363.20	2147.50
363.41	1919.36
363.62	1689.37
363.83	2249.08
364.05	2257.89
364.26	1781.94
364.47	1826.99
364.68	2337.35
364.89	1987.76
365.10	1763.10
365.32	1860.37
365.53	1978.34
365.74	2049.20
365.95	1836.00
366.16	1704.93
366.37	2098.76
366.59	2090.36
366.80	1860.78
367.01	1728.28
367.22	2506.51
367.43	2631.44
367.64	1913.83
367.86	1844.40
368.07	2209.55
368.28	2334.27
368.49	1749.58
368.70	1890.68
368.91	2073.16
369.12	2132.55
369.34	1752.24
369.55	1742.41
369.76	2140.13
369.97	2065.38
370.18	1743.03
370.39	1800.37
370.60	1890.07
370.82	1959.91
371.03	1870.21
371.24	1817.37
371.45	2266.28
371.66	2244.57
371.87	1830.27
372.08	1863.24
372.30	1993.49
372.51	2320.14
372.72	1997.79
372.93	1837.23
373.14	2428.48
373.35	2026.87
373.56	1813.27
373.78	1850.75
373.99	2283.08
374.20	2669.94
374.41	1842.35
374.62	1821.87
374.83	2414.56
375.04	2082.58
375.25	1880.44
375.47	1866.93
375.68	2051.04
375.89	2250.10
376.10	1855.66
376.31	1911.98
376.52	2202.18
376.73	2203.20
376.94	1895.80
377.15	1779.48
377.37	2148.73
377.58	2073.36
377.79	1721.52
378.00	1793.82
378.21	2189.89
378.42	2266.49
378.63	1883.93
378.84	1915.47
379.05	2306.22
379.27	2154.46
379.48	1941.68
379.69	1809.59
379.90	2343.08
380.11	1818.39
380.32	1827.61
380.53	1966.66
380.74	2361.72
380.95	2156.92
381.16	1902.15
381.37	1888.64
381.59	2367.66
381.80	2297.00
382.01	1813.07
382.22	1765.96
382.43	2230.44
382.64	2136.65
382.85	1730.12
383.06	1896.42
383.27	2227.99
383.48	2086.88
383.69	1862.83
383.91	1792.79
384.12	2237.61
384.33	2237.20
384.54	1917.51
384.75	1814.50
384.96	2691.03
385.17	2329.36
385.38	1846.24
385.59	1828.63
385.80	2263.62
386.01	2418.65
386.22	1941.06
386.43	1887.00
386.64	2572.04
386.86	2105.93
387.07	1959.91
387.28	1740.57
387.49	2033.22
387.70	2343.29
387.91	1955.81
388.12	1839.90
388.33	2194.60
388.54	2030.77
388.75	1795.04
388.96	1917.31
389.17	2044.69
389.38	2102.24
389.59	1918.33
389.80	1940.04
390.01	2144.22
390.22	2044.49
390.43	1947.62
390.64	1745.28
390.86	2212.22
391.07	2307.65
391.28	1833.96
391.49	1881.88
391.70	1916.49
391.91	2005.99
392.12	1864.47
392.33	1944.14
392.54	2171.05
392.75	2109.20
392.96	1961.95
393.17	1841.53
393.38	2549.52
393.59	2320.76
393.80	1762.89
394.01	1892.53
394.22	2103.47
394.43	2439.13
394.64	1752.24
394.85	1922.02
395.06	2125.18
395.27	2164.91
395.48	1831.29
395.69	1761.25
395.90	2094.05
396.11	2107.97
396.32	1836.62
396.53	1940.45
396.74	2133.16
396.95	2317.48
397.16	1825.76
397.37	1724.18
397.58	2308.27
397.79	2104.29
398.00	1886.79
398.21	1881.06
398.42	2187.64
398.63	2497.91
398.84	1856.28
399.05	1812.25
399.26	2363.56
399.47	2238.23
399.68	1735.86
399.89	1783.58
400.10	1923.25
400.31	2087.08
400.52	1898.26
400.73	1832.93
400.94	1890.89
401.15	2190.30
401.36	1849.52
401.57	1891.91
401.78	2337.96
401.99	2288.81
402.20	1797.09
402.41	2002.91
402.62	2403.91
402.83	2098.55
403.04	1826.79
403.25	2055.34
403.46	2167.37
403.67	2373.39
403.88	1864.88
404.09	1805.28
404.30	2016.63
404.51	2002.91
404.72	1778.05
404.93	2002.30
405.14	1986.12
405.35	2130.91
405.56	1871.23
405.77	1807.95
405.98	2168.39
406.19	2104.70
406.40	1788.49
406.61	1862.83
406.82	2028.51
407.03	2536.61
407.24	1793.61
407.45	1888.23
407.66	2198.70
407.87	2332.84
408.08	1910.96
408.29	1924.48
408.49	2256.25
408.70	2145.25
408.91	1817.98
409.12	1978.54
409.33	1969.33
409.54	2354.34
409.75	1785.62
409.96	1843.58
410.17	2276.93
410.38	2103.06
410.59	1842.15
410.80	1971.37
411.01	2103.06
411.22	2075.82
411.43	1927.55
411.64	1815.32
411.85	1992.88
412.06	1965.44
412.27	1668.48
412.47	1810.61
412.68	2113.71
412.89	2194.81
413.10	1845.42
413.31	1748.97
413.52	2462.48
413.73	2470.26
413.94	1824.33
414.15	2021.35
414.36	2046.94
414.57	1956.01
414.78	1769.24
414.99	1762.28
415.19	2216.72
415.40	2153.23
415.61	1957.24
415.82	1896.42
416.03	2237.00
416.24	2189.89
416.45	1860.17
416.66	1736.88
416.87	1902.77
417.08	2232.08
417.29	1795.04
417.50	1899.08
417.70	2212.63
417.91	2192.76
418.12	1898.26
418.33	1826.58
418.54	2179.65
418.75	2313.80
418.96	1964.41
419.17	1877.37
419.38	2345.95
419.59	2213.85
419.79	1947.82
420.00	1878.19
420.21	2632.66
420.42	2133.57
420.63	1831.70
420.84	1893.55
421.05	2132.35
421.26	2132.75
421.47	1762.69
421.67	2204.84
421.88	1988.78
422.09	1965.64
422.30	2089.95
422.51	1904.61
422.72	2481.11
422.93	2264.85
423.14	1910.55
423.35	1751.83
423.55	1888.23
423.76	1986.73
423.97	1859.97
424.18	1716.40
424.39	2081.76
424.60	2271.20
424.81	1849.52
425.02	1947.62
425.22	2074.39
425.43	2056.57
425.64	2058.82
425.85	1884.75
426.06	2482.96
426.27	2264.03
426.48	1964.82
426.68	1965.85
426.89	2264.23
427.10	2456.54
427.31	1886.79
427.52	1804.87
427.73	2247.65
427.94	2159.58
428.14	2021.14
428.35	1934.72
428.56	2413.53
428.77	2283.49
428.98	1910.96
429.19	1861.81
429.40	2063.94
429.60	2085.24
429.81	1994.52
430.02	1904.20
430.23	2100.81
430.44	2253.58
430.65	1826.58
430.85	1859.76
431.06	2207.30
431.27	1891.30
431.48	1850.13
431.69	1921.61
431.90	2126.20
432.10	2164.09
432.31	1954.17
432.52	1845.83
432.73	2580.03
432.94	2449.17
433.15	2052.68
433.35	1853.00
433.56	2339.19
433.77	2164.91
433.98	2132.75
434.19	2066.81
434.40	2362.13
434.60	2330.38
434.81	2181.70
435.02	2098.35
435.23	2235.97
435.44	2099.37
435.64	1794.64
435.85	1812.04
436.06	2081.35
436.27	2068.65
436.48	1804.47
436.68	1832.32
436.89	2488.90
437.10	2342.06
437.31	1986.12
437.52	2089.13
437.73	2251.54
437.93	2253.79
438.14	1984.69
438.35	1775.59
438.56	2079.92
438.77	2086.68
438.97	2029.95
439.18	1886.38
439.39	2313.59
439.60	1953.15
439.80	1849.32
440.01	1890.48
440.22	2063.94
440.43	2244.98
440.64	1830.27
440.84	1915.26
441.05	1932.46
441.26	2615.26
441.47	1965.44
441.68	1924.89
441.88	2240.48
442.09	2283.08
442.30	2260.14
442.51	2291.27
442.71	2311.95
442.92	2375.85
443.13	2024.62
443.34	1925.71
443.55	2015.20
443.75	2264.64
443.96	1861.81
444.17	1815.93
444.38	2298.23
444.58	1966.25
444.79	1975.06
445.00	1951.51
445.21	2107.97
445.41	2075.00
445.62	1699.61
445.83	1975.27
446.04	2162.25
446.24	1894.78
446.45	1738.32
446.66	1878.60
446.87	2204.84
447.07	2025.24
447.28	2095.69
447.49	1872.25
447.70	2297.00
447.90	2289.01
448.11	1939.43
448.32	1997.18
448.53	2378.10
448.73	2368.48
448.94	1859.56
449.15	2040.80
449.36	2168.59
449.56	2219.38
449.77	1888.84
449.98	1775.79
450.19	2046.33
450.39	2057.18
450.60	1945.16
450.81	1963.18
451.02	2117.80
451.22	2367.45
451.43	1842.97
451.64	1848.91
451.84	2067.22
452.05	2342.06
452.26	1907.68
452.47	1920.79
452.67	2040.39
452.88	2389.57
453.09	1803.03
453.30	1813.07
453.50	2267.51
453.71	2486.44
453.92	1989.60
454.12	2161.02
454.33	2193.99
454.54	2251.33
454.75	1920.79
454.95	1888.64
455.16	2233.51
455.37	2288.20
455.57	1998.61
455.78	1910.14
455.99	2112.89
456.19	2160.40
456.40	1824.13
456.61	1918.95
456.82	2162.45
457.02	2318.71
457.23	2091.80
457.44	2215.90
457.64	2208.94
457.85	2392.64
458.06	2033.02
458.26	2124.97
458.47	2145.25
458.68	2326.70
458.89	1898.06
459.09	2053.29
459.30	2493.40
459.51	2143.81
459.71	1755.31
459.92	1843.17
460.13	2278.37
460.33	2528.01
460.54	1958.47
460.75	1980.80
460.95	2009.06
461.16	2238.43
461.37	1927.34
461.57	1897.44
461.78	2136.85
461.99	1961.75
462.19	2167.16
462.40	1833.75
462.61	2759.43
462.81	2322.19
463.02	1872.46
463.23	1850.34
463.43	2245.19
463.64	2025.44
463.85	3155.92
464.05	1879.22
464.26	2661.54
464.47	2348.82
464.67	2062.30
464.88	2048.38
465.09	2122.72
465.29	2292.70
465.50	2180.27
465.71	2097.32
465.91	2187.85
466.12	2184.98
466.33	2005.99
466.53	1857.92
466.74	2392.85
466.94	2121.70
467.15	1954.38
467.36	2097.12
467.56	1975.47
467.77	2212.83
467.98	1956.22
468.18	1907.48
468.39	2057.80
468.60	2468.01
468.80	1915.67
469.01	1848.50
469.21	2221.23
469.42	2373.19
469.63	1887.00
469.83	1857.92
470.04	2236.38
470.25	2360.69
470.45	2024.42
470.66	1891.71
470.86	2198.70
471.07	2051.45
471.28	1996.36
471.48	1988.99
471.69	2191.53
471.90	2951.12
472.10	2159.79
472.31	2123.74
472.51	2272.84
472.72	2276.11
472.93	2020.94
473.13	2145.04
473.34	2297.62
473.54	2240.07
473.75	2032.20
473.96	2155.49
474.16	2145.86
474.37	2216.93
474.57	2004.14
474.78	1869.39
474.99	2219.18
475.19	2172.28
475.40	1939.43
475.60	1918.95
475.81	2598.67
476.02	2336.12
476.22	2239.66
476.43	2286.15
476.63	2265.26
476.84	2433.19
477.05	1849.11
477.25	1917.51
477.46	2717.24
477.66	2166.34
477.87	1890.68
478.08	1953.56
478.28	2320.55
478.49	2101.01
478.69	1886.59
478.90	1904.61
479.10	2234.74
479.31	2412.51
479.52	1981.20
479.72	2053.09
479.93	2289.22
480.13	2134.60
480.34	1957.45
480.54	2057.39
480.75	2010.08
480.96	2370.32
481.16	1892.73
481.37	2017.66
481.57	2282.26
481.78	2201.98
481.98	2127.23
482.19	2024.62
482.40	2460.63
482.60	2238.02
482.81	2036.91
483.01	1821.05
483.22	2305.19
483.42	2295.16
483.63	2008.03
483.83	1950.90
484.04	2088.11
484.24	2328.95
484.45	2084.42
484.66	1866.93
484.86	2248.67
485.07	2033.02
485.27	1969.33
485.48	1879.63
485.68	2379.74
485.89	1992.06
486.09	2037.52
486.30	1917.31
486.50	2155.08
486.71	2131.73
486.91	2042.64
487.12	2251.33
487.33	2886.41
487.53	2989.01
487.74	2575.94
487.94	2566.31
488.15	2503.85
488.35	2456.33
488.56	2097.12
488.76	1994.93
488.97	2224.71
489.17	2311.95
489.38	2045.51
489.58	2004.55
489.79	2292.50
489.99	2235.97
490.20	1972.81
490.40	2075.62
490.61	2256.04
490.81	2043.87
491.02	1983.05
491.22	1989.19
491.43	2254.81
491.63	2109.61
491.84	2090.98
492.04	1832.93
492.25	2214.67
492.45	2094.66
492.66	1904.20
492.86	1847.27
493.07	2093.02
493.27	2529.04
493.48	1807.95
493.68	1887.00
493.89	2098.96
494.09	2231.47
494.30	1933.28
494.50	2148.32
494.71	2222.05
494.91	1909.53
495.12	1943.11
495.32	2006.80
495.53	2164.50
495.73	1954.99
495.94	2169.21
496.14	1998.20
496.35	2695.54
496.55	2272.84
496.76	2005.17
496.96	2018.07
497.17	2162.04
497.37	2252.36
497.58	1959.29
497.78	1868.77
497.98	2100.60
498.19	2097.53
498.39	1936.76
498.60	1994.31
498.80	1856.07
499.01	2238.02
499.21	1836.21
499.42	1993.70
499.62	2085.65
499.83	2501.59
500.03	1842.15
500.24	2030.97
500.44	2374.01
500.64	2329.77
500.85	1918.74
501.05	2045.72
501.26	1899.29
501.46	2355.78
501.67	1873.28
501.87	1832.93
502.08	1989.60
502.28	2064.56
502.48	2023.60
502.69	2027.08
502.89	1888.64
503.10	1996.16
503.30	1996.16
503.51	1984.07
503.71	1905.63
503.92	2207.30
504.12	1969.33
504.32	1878.19
504.53	2239.66
504.73	2224.91
504.94	2054.93
505.14	2157.54
505.35	2251.54
505.55	2221.43
505.75	1986.53
505.96	2161.02
506.16	2512.65
506.37	2048.17
506.57	1899.49
506.78	2021.35
506.98	2329.56
507.18	1925.30
507.39	1849.32
507.59	1924.89
507.80	1990.63
508.00	2139.31
508.20	2148.73
508.41	1917.10
508.61	2359.26
508.82	2277.96
509.02	2083.40
509.22	1869.18
509.43	1963.18
509.63	2036.30
509.84	1948.44
510.04	1780.71
510.24	2352.91
510.45	2257.27
510.65	1840.51
510.86	2004.35
511.06	1935.13
511.26	2273.04
511.47	2108.18
511.67	1878.40
511.88	2201.36
512.08	2289.83
512.28	1828.84
512.49	2003.94
512.69	2164.91
512.90	2158.76
513.10	1927.55
513.30	1993.29
513.51	2222.25
513.71	2437.49
513.91	2050.84
514.12	1999.23
514.32	2263.62
514.53	2038.75
514.73	2034.86
514.93	1967.89
515.14	2097.94
515.34	2353.12
515.54	1893.96
515.75	1994.11
515.95	2250.31
516.15	2360.90
516.36	1980.80
516.56	1979.57
516.77	1764.53
516.97	2223.48
517.17	1943.32
517.38	2085.45
517.58	2381.38
517.78	2045.72
517.99	2060.26
518.19	1920.38
518.39	2333.46
518.60	2039.78
518.80	1860.58
519.00	2022.37
519.21	2102.65
519.41	2447.53
519.61	1894.58
519.82	2049.40
520.02	2142.99
520.22	2127.02
520.43	1915.26
520.63	2004.35
520.83	2020.32
521.04	1883.93
521.24	2052.68
521.44	1971.58
521.65	1983.05
521.85	2247.65
522.05	1938.20
522.26	1911.98
522.46	2420.70
522.66	2283.08
522.87	1979.36
523.07	2148.11
523.27	2050.22
523.48	2343.70
523.68	1974.65
523.88	2018.68
524.09	2328.95
524.29	2172.49
524.49	1842.76
524.70	2065.38
524.90	2365.20
525.10	2223.48
525.31	1857.71
525.51	1845.02
525.71	2260.75
525.91	2220.00
526.12	1918.33
526.32	1877.99
526.52	2043.67
526.73	2030.15
526.93	2027.08
527.13	1838.26
527.34	2098.35
527.54	2111.87
527.74	1991.65
527.94	1862.22
528.15	1957.45
528.35	2143.61
528.55	2057.39
528.76	2013.97
528.96	1872.87
529.16	2307.45
529.36	2047.97
529.57	1870.82
529.77	2325.26
529.97	1960.32
530.18	2031.58
530.38	1930.82
530.58	2207.92
530.78	2167.98
530.99	1936.56
531.19	2023.19
531.39	2011.72
531.60	2138.90
531.80	2000.25
532.00	2101.83
532.20	2157.13
532.41	1999.02
532.61	1891.91
532.81	1885.56
533.01	2070.09
533.22	2203.00
533.42	2063.53
533.62	1799.96
533.82	2364.58
534.03	2075.21
534.23	2044.90
534.43	1902.15
534.63	2038.75
534.84	2150.16
535.04	2044.49
535.24	1947.82
535.44	2570.82
535.65	2047.15
535.85	1904.82
536.05	1889.46
536.25	2114.53
536.46	1958.27
536.66	2087.90
536.86	1990.83
537.06	2235.56
537.27	2329.15
537.47	1987.55
537.67	1936.15
537.87	2357.62
538.08	2106.13
538.28	1842.76
538.48	1843.79
538.68	2112.27
538.88	2237.00
539.09	1792.79
539.29	1943.52
539.49	2296.80
539.69	2188.25
539.90	2038.96
540.10	1863.45
540.30	2349.43
540.50	2028.10
540.70	1845.83
540.91	1909.32
541.11	2237.61
541.31	2384.86
541.51	2014.18
541.72	2042.85
541.92	2157.54
542.12	2005.37
542.32	1991.24
542.52	1941.68
542.73	1985.51
542.93	2213.04
543.13	1934.92
543.33	2080.12
543.53	2243.34
543.74	2227.58
543.94	1931.23
544.14	2031.18
544.34	2320.76
544.54	2129.07
544.75	2032.81
544.95	2141.15
545.15	2240.68
545.35	2407.59
545.55	2094.25
545.75	1973.83
545.96	2539.89
546.16	1934.72
546.36	1983.46
546.56	1967.28
546.76	2301.71
546.97	2418.45
547.17	1982.43
547.37	2074.80
547.57	2037.11
547.77	2241.71
547.97	2031.18
548.18	2068.45
548.38	2118.21
548.58	2376.67
548.78	1927.34
548.98	1965.85
549.18	2283.49
549.39	2404.52
549.59	2060.26
549.79	2016.23
549.99	2393.26
550.19	2282.87
550.39	2150.37
550.60	1991.85
550.80	2165.11
551.00	2216.11
551.20	1940.86
551.40	1956.83
551.60	2202.18
551.80	2172.28
552.01	2039.57
552.21	1985.30
552.41	2159.99
552.61	2446.50
552.81	2060.87
553.01	1917.31
553.21	2223.89
553.42	1961.75
553.62	1935.13
553.82	1876.55
554.02	2376.67
554.22	2267.51
554.42	1880.44
554.62	2100.81
554.83	2418.86
555.03	2346.77
555.23	2006.60
555.43	2233.92
555.63	2182.93
555.83	2153.03
556.03	2065.58
556.23	1877.37
556.44	2153.64
556.64	2312.77
556.84	1711.08
557.04	1966.25
557.24	2149.14
557.44	2147.30
557.64	2015.20
557.84	1910.35
558.04	2041.01
558.25	2218.36
558.45	1884.75
558.65	2011.51
558.85	2110.64
559.05	1853.21
559.25	1986.53
559.45	2053.91
559.65	2474.36
559.85	2907.91
560.05	1994.52
560.26	2061.89
560.46	2115.55
560.66	2014.38
560.86	1930.62
561.06	1909.53
561.26	2362.33
561.46	2217.34
561.66	1971.78
561.86	2091.59
562.06	1958.88
562.26	2091.18
562.47	2032.40
562.67	1887.00
562.87	2224.50
563.07	1857.51
563.27	2000.66
563.47	2009.88
563.67	2050.84
563.87	2213.85
564.07	1864.68
564.27	1946.80
564.47	2106.95
564.67	2185.59
564.87	1896.83
565.08	2020.32
565.28	2002.30
565.48	2208.32
565.68	2024.62
565.88	2082.78
566.08	2465.14
566.28	2124.56
566.48	1855.87
566.68	1951.30
566.88	2059.85
567.08	2268.74
567.28	1998.20
567.48	1985.30
567.68	2202.18
567.88	1893.96
568.08	1979.77
568.28	2102.85
568.48	2096.10
568.68	2328.54
568.89	2035.07
569.09	1866.72
569.29	2239.04
569.49	2289.22
569.69	1918.33
569.89	1897.65
570.09	1793.61
570.29	1995.34
570.49	1862.01
570.69	1962.77
570.89	2281.64
571.09	2503.44
571.29	1871.64
571.49	2146.07
571.69	2194.19
571.89	2205.05
572.09	1965.23
572.29	2023.39
572.49	2264.44
572.69	2212.83
572.89	2003.12
573.09	1699.20
573.29	2101.01
573.49	2117.39
573.69	1930.21
573.89	2002.91
574.09	2026.06
574.29	2356.39
574.49	1973.42
574.69	1876.35
574.89	1941.47
575.09	1946.80
575.29	1818.60
575.49	1978.75
575.69	2176.58
575.89	1908.50
576.09	1993.29
576.29	2004.96
576.49	1944.14
576.69	2090.57
576.89	1938.20
577.09	1998.00
577.29	1848.50
577.49	2421.31
577.69	1910.75
577.89	2075.21
578.09	2123.33
578.29	1859.35
578.49	1996.97
578.69	1885.16
578.89	2285.12
579.09	2123.95
579.29	1893.96
579.49	2089.54
579.69	2043.26
579.89	2409.44
580.09	1794.43
580.29	1807.95
580.49	2047.56
580.69	1940.66
580.89	1912.19
581.09	1973.83
581.29	2030.77
581.49	2096.92
581.69	1882.90
581.89	1907.68
582.09	1990.22
582.28	1949.87
582.48	2076.64
582.68	2111.05
582.88	2343.08
583.08	2078.48
583.28	1970.76
583.48	1971.99
583.68	1994.31
583.88	2098.14
584.08	1986.32
584.28	2019.30
584.48	2463.91
584.68	2210.37
584.88	1961.54
585.08	2167.98
585.28	2276.93
585.48	2334.07
585.68	2029.74
585.87	2104.90
586.07	2204.23
586.27	2099.99
586.47	2063.94
586.67	1974.45
586.87	2138.28
587.07	2055.75
587.27	1898.26
587.47	2029.95
587.67	2418.65
587.87	2566.51
588.07	2040.19
588.27	1914.85
588.46	2227.37
588.66	2270.79
588.86	1951.71
589.06	2002.30
589.26	2261.78
589.46	2242.53
589.66	1891.09
589.86	1851.57
590.06	2056.16
590.26	2162.45
590.46	1929.19
590.66	2035.27
590.85	1981.82
591.05	2152.01
591.25	1872.46
591.45	1967.69
591.65	2194.60
591.85	2101.01
592.05	1905.84
592.25	2033.63
592.45	2275.91
592.64	2055.96
592.84	2003.53
593.04	1907.48
593.24	2549.31
593.44	2022.57
593.64	2007.01
593.84	2040.19
594.04	2069.47
594.24	2383.22
594.43	1936.56
594.63	1978.34
594.83	2305.60
595.03	2258.09
595.23	1902.15
595.43	1838.05
595.63	1993.49
595.83	2278.57
596.02	1793.82
596.22	2002.91
596.42	2193.99
596.62	2099.17
596.82	1945.78
597.02	2002.71
597.22	2353.32
597.41	2171.87
597.61	1928.57
597.81	2093.84
598.01	2242.32
598.21	2037.32
598.41	1862.01
598.61	1880.85
598.80	2112.48
599.00	2156.10
599.20	2110.23
599.40	1969.33
599.60	2047.56
599.80	2246.21
599.99	2093.02
600.19	1927.14
600.39	2105.11
600.59	2210.99
600.79	2039.37
600.99	1953.35
601.19	2423.77
601.38	2475.38
601.58	2046.94
601.78	1748.76
601.98	2181.50
602.18	2199.52
602.37	2238.23
602.57	2010.90
602.77	2265.46
602.97	2162.45
603.17	2158.76
603.37	2077.66
603.56	2293.93
603.76	2247.65
603.96	2025.03
604.16	2022.16
604.36	2349.43
604.56	2262.19
604.75	1892.12
604.95	2011.51
605.15	2335.91
605.35	2250.31
605.55	1929.19
605.74	1890.07
605.94	2301.51
606.14	2117.60
606.34	1982.02
606.54	2035.68
606.73	2043.87
606.93	2246.01
607.13	1938.40
607.33	2059.44
607.53	2395.71
607.72	2295.98
607.92	2024.42
608.12	2119.44
608.32	2084.63
608.51	2244.78
608.71	1867.75
608.91	2055.55
609.11	2248.06
609.31	2102.04
609.50	1983.46
609.70	2189.89
609.90	2273.86
610.10	2278.37
610.29	1935.13
610.49	1878.40
610.69	2219.59
610.89	2142.18
611.09	1996.16
611.28	2165.11
611.48	2313.59
611.68	2096.51
611.88	1961.54
612.07	1881.47
612.27	2256.66
612.47	2016.02
612.67	2018.68
612.86	2090.77
613.06	2103.67
613.26	1857.10
613.46	1904.00
613.65	2033.22
613.85	2633.28
614.05	2261.98
614.25	2093.02
614.44	1986.12
614.64	2092.61
614.84	2025.03
615.04	1876.76
615.23	1945.78
615.43	2234.74
615.63	2235.15
615.83	1899.08
616.02	1816.96
616.22	2217.75
616.42	1923.66
616.62	1853.21
616.81	1985.30
617.01	2178.01
617.21	2072.75
617.41	1855.46
617.60	2035.89
617.80	2230.44
618.00	2236.38
618.19	2084.83
618.39	1972.40
618.59	2217.54
618.79	2112.48
618.98	1835.80
619.18	1956.83
619.38	2517.98
619.57	2121.70
619.77	1992.26
619.97	1966.66
620.17	2018.27
620.36	1925.30
620.56	2146.07
620.76	1864.06
620.95	1931.03
621.15	2032.20
621.35	1882.08
621.54	1983.05
621.74	2135.62
621.94	1988.17
622.14	1870.82
622.33	1818.39
622.53	2085.45
622.73	2056.37
622.92	1835.18
623.12	1979.77
623.32	2489.51
623.51	2252.15
623.71	1870.00
623.91	2169.21
624.10	1958.68
624.30	2129.07
624.50	1847.88
624.69	1839.49
624.89	2807.56
625.09	2028.51
625.29	1749.17
625.48	1859.15
625.68	2131.53
625.88	2308.68
626.07	2041.82
626.27	1897.44
626.47	2057.39
626.66	1861.81
626.86	2003.73
627.06	1956.83
627.25	2123.95
627.45	2386.09
627.64	1952.74
627.84	2130.09
628.04	1992.06
628.23	2489.10
628.43	1829.86
628.63	1882.49
628.82	2046.94
629.02	2424.18
629.22	2029.54
629.41	2116.37
629.61	2124.36
629.81	2445.89
630.00	1949.26
630.20	1855.05
630.40	2122.72
630.59	2173.51
630.79	1968.30
630.98	1936.35
631.18	2055.55
631.38	2089.54
631.57	2096.92
631.77	1832.93
631.97	2136.85
632.16	2185.39
632.36	2009.26
632.56	2022.57
632.75	2172.28
632.95	2295.98
633.14	1856.48
633.34	2148.32
633.54	1836.62
633.73	2062.71
633.93	1936.97
634.12	1825.97
634.32	2613.21
634.52	2147.30
634.71	1829.45
634.91	2021.96
635.11	1934.92
635.30	2009.06
635.50	2002.30
635.69	1875.32
635.89	2422.54
636.09	2278.57
636.28	1878.19
636.48	1871.64
636.67	2226.96
636.87	2226.14
637.07	2037.32
637.26	1928.78
637.46	2156.92
637.65	2256.25
637.85	2006.60
638.04	1899.29
638.24	2025.03
638.44	2180.27
638.63	1991.85
638.83	1943.11
639.02	2175.56
639.22	2196.86
639.42	1945.57
639.61	1947.62
639.81	2136.03
640.00	2081.35
640.20	2080.53
640.39	1981.20
640.59	2448.14
640.79	2252.77
640.98	2008.03
641.18	1923.66
641.37	2069.06
641.57	1971.17
641.76	1980.39
641.96	1774.97
642.15	2100.19
642.35	1991.44
642.55	2004.76
642.74	1813.27
642.94	2225.32
643.13	2325.88
643.33	1940.25
643.52	1887.00
643.72	2035.68
643.91	2102.44
644.11	1863.24
644.31	1869.39
644.50	1999.02
644.70	2311.95
644.89	1997.18
645.09	2043.67
645.28	2108.18
645.48	2190.71
645.67	1889.25
645.87	1784.60
646.06	2076.64
646.26	2156.51
646.45	1765.96
646.65	1728.49
646.84	2412.92
647.04	2047.35
647.24	1845.22
647.43	1968.30
647.63	2133.57
647.82	2371.14
648.02	1867.13
648.21	1945.16
648.41	2350.04
648.60	2063.12
648.80	2076.44
648.99	1960.11
649.19	2008.85
649.38	1842.76
649.58	1963.39
649.77	2024.62
649.97	2297.82
650.16	2194.19
650.36	1732.17
650.55	2098.35
650.75	2142.58
650.94	2383.22
651.14	1984.48
651.33	2023.39
651.53	2410.05
651.72	1967.89
651.92	1941.88
652.11	1792.38
652.31	2203.00
652.50	2172.28
652.70	1973.63
652.89	1828.84
653.09	2355.98
653.28	2076.44
653.48	1777.43
653.67	1796.48
653.87	2654.37
654.06	2111.46
654.25	2183.75
654.45	1921.20
654.64	2050.43
654.84	2063.53
655.03	1742.21
655.23	2110.64
655.42	2291.68
655.62	2447.53
655.81	2091.39
656.01	1947.82
656.20	2281.23
656.40	2454.90
656.59	2033.84
656.79	2093.84
656.98	2205.05
657.17	2289.22
657.37	1970.35
657.56	1958.88
657.76	2182.73
657.95	2311.95
658.15	1636.12
658.34	1985.71
658.54	2108.38
658.73	1906.04
658.92	1941.88
659.12	1963.80
659.31	2227.58
659.51	1911.98
659.70	2012.95
659.90	1890.48
660.09	2256.25
660.29	2043.67
660.48	1863.24
660.67	2116.17
660.87	2017.04
661.06	2176.17
661.26	2029.13
661.45	2067.22
661.65	2162.86
661.84	2010.08
662.03	1877.58
662.23	1916.28
662.42	2461.86
662.62	1926.73
662.81	1837.85
663.00	1920.38
663.20	2140.95
663.39	2199.31
663.59	2052.68
663.78	1947.21
663.97	2063.12
664.17	2298.03
664.36	1855.87
664.56	1885.77
664.75	2273.45
664.94	2214.67
665.14	2014.79
665.33	1954.99
665.53	2127.23
665.72	2057.39
665.91	2066.81
666.11	1965.44
666.30	2134.19
666.50	2042.23
666.69	1979.98
666.88	1900.92
667.08	2104.49
667.27	2047.56
667.47	1934.92
667.66	1912.60
667.85	2255.02
668.05	2073.57
668.24	1884.75
668.43	2141.36
668.63	2009.26
668.82	2270.38
669.02	2027.69
669.21	1918.54
669.40	1896.62
669.60	2408.62
669.79	1816.96
669.98	2587.81
670.18	1971.58
670.37	1905.43
670.56	1969.33
670.76	2011.92
670.95	2077.25
671.15	2212.63
671.34	1969.94
671.53	1950.69
671.73	2002.91
671.92	1983.46
672.11	1872.66
672.31	1912.80
672.50	2145.45
672.69	1905.84
672.89	1724.39
673.08	1927.14
673.27	2225.94
673.47	2150.37
673.66	1986.53
673.85	1839.49
674.05	2111.46
674.24	2096.92
674.43	1800.37
674.63	1994.72
674.82	2484.80
675.01	1762.07
675.21	2058.62
675.40	1908.50
675.59	1977.93
675.79	2354.96
675.98	1914.24
676.17	2076.23
676.37	2154.87
676.56	2006.39
676.75	1933.90
676.95	1998.20
677.14	2011.92
677.33	2289.63
677.52	1803.85
677.72	1885.97
677.91	2153.23
678.10	1870.00
678.30	1850.95
678.49	1870.41
678.68	2476.61
678.88	1812.04
679.07	2095.89
679.26	1923.66
679.45	2409.44
679.65	2345.33
679.84	1764.33
680.03	1785.83
680.23	2040.80
680.42	2560.78
680.61	1841.33
680.81	1905.43
681.00	2142.58
681.19	2177.81
681.38	2055.75
681.58	2012.95
681.77	2040.19
681.96	2227.78
682.15	1861.19
682.35	2023.39
682.54	2157.94
682.73	1890.48
682.93	1862.83
683.12	1862.63
683.31	2198.90
683.50	2596.21
683.70	1843.38
683.89	2000.05
684.08	1921.61
684.27	2292.50
684.47	1800.37
684.66	1928.57
684.85	2446.91
685.04	2287.79
685.24	1849.11
685.43	1925.30
685.62	1810.20
685.81	2163.68
686.01	2019.71
686.20	1840.92
686.39	1855.46
686.58	2407.39
686.78	1954.99
686.97	1936.15
687.16	2241.30
687.35	2137.87
687.55	1920.18
687.74	1970.15
687.93	1904.20
688.12	2019.50
688.32	1960.93
688.51	1790.13
688.70	2164.50
688.89	1902.77
689.08	1805.08
689.28	1880.85
689.47	2098.14
689.66	2110.02
689.85	2059.03
690.05	1848.91
690.24	1941.68
690.43	2138.90
690.62	1964.41
690.81	1884.95
691.01	2082.99
691.20	2037.73
691.39	1807.33
691.58	1981.41
691.77	2402.06
691.97	2113.09
692.16	2023.19
692.35	1939.22
692.54	2007.21
692.73	2145.25
692.93	1982.64
693.12	1997.59
693.31	2127.23
693.50	2096.30
693.69	2002.71
693.89	1899.08
694.08	2306.63
694.27	2313.59
694.46	1899.70
694.65	1903.18
694.85	2217.75
695.04	2157.94
695.23	1875.94
695.42	2071.73
695.61	2179.45
695.80	2294.34
696.00	2226.96
696.19	2244.16
696.38	2077.87
696.57	2241.50
696.76	2088.52
696.95	1946.80
697.15	2363.77
697.34	2371.96
697.53	1957.04
697.72	2039.37
697.91	2041.01
698.10	2365.40
698.30	1902.97
698.49	1947.41
698.68	2132.14
698.87	2025.03
699.06	1874.10
699.25	1971.78
699.45	2270.79
699.64	2128.45
699.83	2113.09
700.02	1919.36
700.21	2145.86
700.40	1996.16
700.59	1907.68
700.79	1972.60
700.98	2180.47
701.17	2005.99
701.36	1880.44
701.55	1889.05
701.74	2292.50
701.93	1874.30
702.12	1910.55
702.32	1835.18
702.51	2244.57
702.70	2195.01
702.89	1946.59
703.08	1922.84
703.27	2286.56
703.46	2188.87
703.65	1856.28
703.85	1805.90
704.04	1988.37
704.23	2269.15
704.42	1860.78
704.61	1880.85
704.80	2346.36
704.99	1990.42
705.18	2013.15
705.37	1946.80
705.57	2151.80
705.76	2308.47
705.95	1933.28
706.14	2254.40
706.33	2484.39
706.52	2644.34
706.71	2114.12
706.90	2008.44
707.09	2233.11
707.28	2164.70
707.47	1863.24
707.67	2077.46
707.86	1984.69
708.05	2265.46
708.24	1937.99
708.43	1985.30
708.62	2037.73
708.81	1981.41
709.00	1860.17
709.19	1913.01
709.38	2263.21
709.57	1913.42
709.76	1978.95
709.96	1855.46
710.15	2315.23
710.34	2084.63
710.53	2063.74
710.72	1935.94
710.91	2302.74
711.10	2186.21
711.29	2016.43
711.48	1892.53
711.67	1917.51
711.86	2139.10
712.05	1774.56
712.24	1815.93
712.43	2192.76
712.62	2314.00
712.81	1941.06
713.00	2111.05
713.19	1916.08
713.39	2153.23
713.58	1831.29
713.77	1974.65
713.96	2158.56
714.15	2036.30
714.34	1914.65
714.53	1730.74
714.72	2375.23
714.91	1905.43
715.10	1989.19
715.29	1815.32
715.48	2575.32
715.67	2196.86
715.86	1948.23
716.05	1914.03
716.24	2037.52
716.43	2003.12
716.62	1837.85
716.81	1822.49
717.00	2024.42
717.19	2385.88
717.38	1929.60
717.57	1930.82
717.76	1860.58
717.95	2285.94
718.14	1952.74
718.33	1976.29
718.52	1823.72
718.71	1860.37
718.90	1849.73
719.09	1878.40
719.28	2099.17
719.47	2256.25
719.66	2004.14
719.85	2023.60
720.04	2030.77
720.23	2096.51
720.42	1873.28
720.61	2045.10
720.80	1872.87
720.99	2121.90
721.18	1897.85
721.37	1818.80
721.56	1999.02
721.75	2237.00
721.94	1834.98
722.13	1901.54
722.32	1996.77
722.51	2231.47
722.70	1990.01
722.89	1990.42
723.08	2104.29
723.27	2263.21
723.46	1995.95
723.65	1972.60
723.84	2007.83
724.03	2314.82
724.22	1829.86
724.41	1934.51
724.60	2049.20
724.79	2242.94
724.98	1991.24
725.16	1907.68
725.35	2195.83
725.54	1885.97
725.73	1919.15
725.92	1978.95
726.11	2010.90
726.30	2225.73
726.49	1838.26
726.68	1909.94
726.87	2140.74
727.06	2295.77
727.25	1884.95
727.44	2008.03
727.63	2067.42
727.82	2008.03
728.01	1962.36
728.20	2000.87
728.38	2339.60
728.57	2042.64
728.76	1880.85
728.95	2047.56
729.14	1874.92
729.33	1917.31
729.52	1711.49
729.71	1847.88
729.90	1919.56
730.09	1997.79
730.28	1869.59
730.47	1870.41
730.66	2232.08
730.84	2066.61
731.03	1931.23
731.22	1951.71
731.41	2074.80
731.60	2146.07
731.79	1752.45
731.98	1823.92
732.17	2174.33
732.36	2144.43
732.55	1852.39
732.73	1786.24
732.92	2278.98
733.11	2155.69
733.30	1842.35
733.49	1796.89
733.68	2159.99
733.87	2129.48
734.06	1781.73
734.25	1813.89
734.43	1958.06
734.62	2104.90
734.81	1871.02
735.00	1859.15
735.19	2023.19
735.38	2138.28
735.57	1773.95
735.76	1983.25
735.94	2136.85
736.13	2428.07
736.32	1963.59
736.51	1920.99
736.70	2413.12
736.89	2387.32
737.08	2109.61
737.27	2227.37
737.45	2504.26
737.64	2365.20
737.83	2335.09
738.02	2297.82
738.21	2517.57
738.40	2528.01
738.59	2070.29
738.77	2111.05
738.96	2074.39
739.15	2190.51
739.34	2108.59
739.53	2009.26
739.72	2331.61
739.90	2284.51
740.09	1870.61
740.28	1958.88
740.47	2208.32
740.66	2196.45
740.85	1845.83
741.03	1896.42
741.22	1932.26
741.41	2003.94
741.60	1759.21
741.79	2006.60
741.98	2295.36
742.16	2407.80
742.35	1931.64
742.54	1963.39
742.73	2404.72
742.92	1990.42
743.10	1752.45
743.29	1874.92
743.48	2465.75
743.67	1947.82
743.86	1745.28
744.05	1813.27
744.23	1917.51
744.42	1898.88
744.61	1973.22
744.80	1771.90
744.99	1974.45
745.17	1783.78
745.36	1750.81
745.55	1998.41
745.74	2042.64
745.93	1940.66
746.11	1840.51
746.30	1788.08
746.49	2273.25
746.68	1912.80
746.86	1890.89
747.05	1865.49
747.24	2153.03
747.43	2179.04
747.62	1794.64
747.80	1853.41
747.99	2260.55
748.18	2188.46
748.37	1935.13
748.56	2000.25
748.74	2247.44
748.93	2090.36
749.12	2078.07
749.31	2385.27
749.49	2666.25
749.68	2871.46
749.87	2956.04
750.06	2783.19
750.24	2910.78
750.43	2854.66
750.62	2665.64
750.81	2779.91
750.99	2965.46
751.18	3012.15
751.37	2590.89
751.56	2658.47
751.74	3024.65
751.93	3143.63
752.12	2194.19
752.31	2182.73
752.49	2276.93
752.68	2573.68
752.87	2077.66
753.06	2036.91
753.24	2123.54
753.43	2353.73
753.62	1909.53
753.81	1906.25
753.99	2362.33
754.18	2171.05
754.37	1860.78
754.55	1945.78
754.74	2391.62
754.93	1800.98
755.12	1867.75
755.30	1791.15
755.49	2258.70
755.68	2128.25
755.86	2002.50
756.05	1801.39
756.24	2373.39
756.43	1848.70
756.61	1848.91
756.80	1962.98
756.99	2280.82
757.17	2064.97
757.36	1851.98
757.55	1893.76
757.74	2156.72
757.92	2083.60
758.11	1805.90
758.30	1760.23
758.48	2042.44
758.67	1855.87
758.86	1958.27
759.04	1815.93
759.23	1979.98
759.42	2060.05
759.60	1823.10
759.79	1923.66
759.98	2032.61
760.16	1954.79
760.35	1857.10
760.54	1817.16
760.73	2112.68
760.91	1844.40
761.10	1897.44
761.29	1958.27
761.47	2074.39
761.66	2443.84
761.85	1964.00
762.03	2089.95
762.22	2314.20
762.41	2625.70
762.59	2779.09
762.78	2923.68
762.97	3602.38
763.15	3525.78
763.34	3251.56
763.52	2799.37
763.71	2939.24
763.90	2990.03
764.08	2587.81
764.27	2579.42
764.46	2807.36
764.64	2459.00
764.83	2337.96
765.02	2261.98
765.20	2381.17
765.39	2365.81
765.58	1952.33
765.76	1992.67
765.95	2187.85
766.13	2115.35
766.32	1921.61
766.51	1880.85
766.69	2877.81
766.88	2142.99
767.07	1795.45
767.25	1702.27
767.44	2256.86
767.62	2285.94
767.81	1844.20
768.00	1902.77
768.18	2085.65
768.37	1990.83
768.56	1717.84
768.74	1842.15
768.93	1852.39
769.11	2147.91
769.30	1948.03
769.49	1861.81
769.67	2022.57
769.86	2006.60
770.04	1900.72
770.23	1850.75
770.42	2307.45
770.60	2083.40
770.79	1813.27
770.97	1859.35
771.16	2277.75
771.35	2148.32
771.53	2050.22
771.72	2105.11
771.90	2386.50
772.09	2616.28
772.27	2379.74
772.46	2137.67
772.65	2506.51
772.83	2355.37
773.02	2201.36
773.20	1978.54
773.39	2307.24
773.58	2309.49
773.76	1897.65
773.95	1897.03
774.13	2168.59
774.32	2041.01
774.50	1870.61
774.69	1993.29
774.87	2070.29
775.06	2496.68
775.25	1900.11
775.43	1945.98
775.62	2146.27
775.80	2207.10
775.99	1961.95
776.17	1880.24
776.36	2090.36
776.54	2269.97
776.73	1873.07
776.92	1972.40
777.10	2247.44
777.29	2139.31
777.47	1879.01
777.66	1868.36
777.84	2101.22
778.03	2066.61
778.21	1817.16
778.40	1983.05
778.58	2187.44
778.77	2221.84
778.95	1833.96
779.14	1875.94
779.32	2373.39
779.51	2225.94
779.70	1888.23
779.88	1788.70
780.07	2017.04
780.25	2533.54
780.44	1941.27
780.62	2041.01
780.81	2187.64
780.99	2172.08
781.18	1887.41
781.36	1850.75
781.55	2045.92
781.73	2352.91
781.92	1797.50
782.10	1815.11
782.29	2163.47
782.47	2343.08
782.66	1879.83
782.84	1786.44
783.03	1948.64
783.21	2289.22
783.40	1850.75
783.58	1820.85
783.77	1977.31
783.95	2058.41
784.14	1849.32
784.32	1915.47
784.51	2265.26
784.69	1940.66
784.88	1793.00
785.06	1900.52
785.24	1857.51
785.43	2223.27
785.61	1970.76
785.80	1827.81
785.98	2197.47
786.17	2084.83
786.35	1772.52
786.54	2007.83
786.72	2214.26
786.91	2240.07
787.09	1892.32
787.28	1776.00
787.46	2073.36
787.65	2216.52
787.83	1749.99
788.01	1896.42
788.20	1869.18
788.38	2048.17
788.57	1844.81
788.75	1847.47
788.94	2357.62
789.12	2291.47
789.31	1909.12
789.49	2043.46
789.67	1994.52
789.86	2123.13
790.04	1835.39
790.23	1731.76
790.41	2447.94
790.60	2002.91
790.78	1864.27
790.96	1911.16
791.15	2212.22
791.33	2026.67
791.52	1908.71
791.70	1799.35
791.89	2083.40
792.07	2221.02
792.25	1933.49
792.44	1779.28
792.62	2238.23
792.81	1983.05
792.99	1885.16
793.17	1853.21
793.36	1916.69
793.54	2362.74
793.73	2064.97
793.91	1974.45
794.10	2409.84
794.28	2505.69
794.46	2173.71
794.65	2193.78
794.83	2114.73
795.01	2251.74
795.20	2198.90
795.38	2110.02
795.57	2272.02
795.75	2236.79
795.93	1996.56
796.12	2022.57
796.30	2241.09
796.49	2229.62
796.67	1839.90
796.85	2009.26
797.04	2099.17
797.22	2202.39
797.40	1799.14
797.59	1946.80
797.77	2084.63
797.96	1912.80
798.14	1806.72
798.32	1863.45
798.51	2191.53
798.69	2404.11
798.87	1912.39
799.06	1897.85
799.24	1807.95
799.42	2204.23
799.61	1974.65
799.79	1972.81
799.98	2478.04
800.16	2137.87
800.34	2147.09
800.53	2259.32
800.71	2374.01
800.89	2855.07
801.08	2528.01
801.26	2518.80
801.44	2454.08
801.63	2281.85
801.81	2217.95
801.99	2130.71
802.18	2218.56
802.36	2306.22
802.54	2138.49
802.73	1941.88
802.91	2190.10
803.09	2216.72
803.28	2089.54
803.46	2009.26
803.64	2430.73
803.83	1933.28
804.01	1854.85
804.19	1802.83
804.38	2205.66
804.56	2158.97
804.74	1903.38
804.92	1933.69
805.11	1869.39
805.29	2226.14
805.47	1870.41
805.66	1767.60
805.84	1838.67
806.02	2203.00
806.21	1829.04
806.39	2084.83
806.57	2221.23
806.76	2205.46
806.94	1939.63
807.12	1863.65
807.30	1940.25
807.49	2065.79
807.67	1939.02
807.85	1996.77
808.04	2212.83
808.22	2492.38
808.40	1805.90
808.58	1744.87
808.77	2144.43
808.95	2318.30
809.13	1890.68
809.31	2208.94
809.50	2472.51
809.68	2554.23
809.86	2232.90
810.05	2397.35
810.23	2906.48
810.41	2937.40
810.59	3929.44
810.78	4551.41
810.96	5181.36
811.14	5514.77
811.32	4994.18
811.51	4338.01
811.69	4044.12
811.87	4201.41
812.05	3592.96
812.24	3462.30
812.42	3667.30
812.60	3556.71
812.78	2871.25
812.97	2706.80
813.15	3120.49
813.33	2740.18
813.51	2616.28
813.70	2240.27
813.88	2229.42
814.06	2295.36
814.24	2099.78
814.42	1900.92
814.61	2214.67
814.79	2425.00
814.97	1813.07
815.15	1859.76
815.34	2128.04
815.52	2230.24
815.70	1829.04
815.88	1917.72
816.06	1930.82
816.25	1978.75
816.43	1876.76
816.61	1998.61
816.79	2304.99
816.98	1810.61
817.16	1802.62
817.34	1816.55
817.52	2118.21
817.70	2302.74
817.89	1932.05
818.07	1792.59
818.25	2028.10
818.43	2090.77
818.61	1921.40
818.80	1887.61
818.98	2379.33
819.16	2122.72
819.34	1796.68
819.52	2183.95
819.70	1944.34
819.89	2075.62
820.07	1783.37
820.25	1771.70
820.43	2141.36
820.61	2243.34
820.80	1919.15
820.98	1782.55
821.16	1819.83
821.34	1858.12
821.52	1887.61
821.70	2025.85
821.89	2112.07
822.07	2029.95
822.25	1985.51
822.43	1841.74
822.61	2362.54
822.79	2130.30
822.98	1909.53
823.16	1770.67
823.34	2128.45
823.52	2307.04
823.70	1967.48
823.88	1738.73
824.06	2173.51
824.25	2065.58
824.43	2034.04
824.61	1799.75
824.79	2053.91
824.97	2105.93
825.15	1992.26
825.33	2139.51
825.52	2349.43
825.70	2174.94
825.88	2023.19
826.06	2064.15
826.24	2201.77
826.42	2313.80
826.60	2046.74
826.78	2097.12
826.97	2116.99
827.15	2364.18
827.33	1910.55
827.51	1963.80
827.69	1984.89
827.87	2128.86
828.05	1997.38
828.23	1846.86
828.41	2258.09
828.60	2203.20
828.78	1793.41
828.96	2009.26
829.14	1972.40
829.32	2031.18
829.50	1888.84
829.68	1890.07
829.86	1981.41
830.04	2171.26
830.22	1999.02
830.41	1832.11
830.59	2062.71
830.77	2193.37
830.95	1855.25
831.13	1858.12
831.31	1948.23
831.49	2225.94
831.67	2054.32
831.85	2033.63
832.03	2035.68
832.21	2164.70
832.39	1782.55
832.57	1838.26
832.76	2200.75
832.94	2043.87
833.12	1715.58
833.30	1872.87
833.48	2293.32
833.66	2103.67
833.84	1862.42
834.02	1918.54
834.20	2246.21
834.38	2220.20
834.56	1735.45
834.74	1824.54
834.92	1865.09
835.10	2388.14
835.28	1902.15
835.46	1937.38
835.64	2048.17
835.82	1967.89
836.01	2165.11
836.19	2103.06
836.37	1996.36
836.55	1933.49
836.73	1833.75
836.91	1779.89
837.09	2175.15
837.27	2339.60
837.45	1776.20
837.63	1804.67
837.81	1874.10
837.99	2051.04
838.17	1938.20
838.35	1824.33
838.53	2466.16
838.71	2153.44
838.89	1846.86
839.07	1823.92
839.25	2094.46
839.43	2220.20
839.61	1907.89
839.79	2148.11
839.97	2391.41
840.15	2472.92
840.33	2247.03
840.51	2436.67
840.69	2364.79
840.87	2320.14
841.05	2250.31
841.23	2162.25
841.41	2372.16
841.59	2778.89
841.77	2613.62
841.95	2737.52
842.13	3173.74
842.31	2833.36
842.49	2510.81
842.67	2520.23
842.85	2691.03
843.03	2369.09
843.21	2224.09
843.39	2397.15
843.57	2459.00
843.75	2421.31
843.93	2113.30
844.11	2173.10
844.29	2292.29
844.47	2207.71
844.65	2148.11
844.83	2001.89
845.01	2113.09
845.19	2301.92
845.36	1983.05
845.54	2021.55
845.72	2141.97
845.90	2217.54
846.08	1878.40
846.26	1986.73
846.44	2178.63
846.62	2199.31
846.80	1999.64
846.98	1874.10
847.16	2075.41
847.34	2136.44
847.52	1851.36
847.70	1793.20
847.88	2052.88
848.06	2348.82
848.24	2031.99
848.41	1786.44
848.59	2286.76
848.77	2146.07
848.95	1901.13
849.13	1869.80
849.31	2216.72
849.49	2158.56
849.67	1856.28
849.85	1802.83
850.03	2146.89
850.21	2150.57
850.39	1830.27
850.57	2020.73
850.74	2329.36
850.92	2301.10
851.10	2032.61
851.28	1939.22
851.46	2279.39
851.64	2599.49
851.82	2026.67
852.00	2125.18
852.18	2458.38
852.36	2353.53
852.53	2022.78
852.71	2065.79
852.89	2222.25
853.07	2252.15
853.25	1919.97
853.43	1858.33
853.61	2144.84
853.79	2203.41
853.97	1881.06
854.14	1894.37
854.32	2305.40
854.50	2214.06
854.68	1916.90
854.86	1897.03
855.04	1972.40
855.22	2238.02
855.40	1765.55
855.57	1874.51
855.75	2228.19
855.93	2139.51
856.11	1759.41
856.29	1878.19
856.47	1968.30
856.65	2145.45
856.82	1826.17
857.00	1758.18
857.18	2042.64
857.36	2001.68
857.54	1976.09
857.72	2029.54
857.89	2203.20
858.07	2101.01
858.25	2092.61
858.43	1822.28
858.61	2058.62
858.79	2080.74
858.97	1804.67
859.14	1980.59
859.32	2057.59
859.50	2003.12
859.68	1948.23
859.86	1837.44
860.03	2101.42
860.21	2153.03
860.39	1846.65
860.57	2022.78
860.75	2177.61
860.93	2415.17
861.10	2051.45
861.28	1838.05
861.46	2110.43
861.64	2135.83
861.82	1872.25
861.99	1979.77
862.17	2212.63
862.35	2231.88
862.53	1916.90
862.71	1895.19
862.88	2117.39
863.06	2195.01
863.24	1860.17
863.42	1852.39
863.60	2070.70
863.77	2191.12
863.95	1757.36
864.13	1885.16
864.31	2051.25
864.49	2216.52
864.66	1828.63
864.84	1830.88
865.02	2114.12
865.20	2571.84
865.37	1965.64
865.55	1830.88
865.73	1886.59
865.91	2200.34
866.09	2014.18
866.26	1896.62
866.44	2191.33
866.62	2010.29
866.80	1802.62
866.97	1889.46
867.15	2027.69
867.33	2109.41
867.51	1965.03
867.68	1904.00
867.86	1965.44
868.04	1962.36
868.22	1674.42
868.39	1886.18
868.57	2116.37
868.75	2361.92
868.93	1775.59
869.10	1869.39
869.28	2404.11
869.46	2299.46
869.64	1891.30
869.81	1869.80
869.99	2128.04
870.17	2092.82
870.35	1832.93
870.52	1868.98
870.70	2261.37
870.88	1968.71
871.05	1831.50
871.23	1715.99
871.41	2079.10
871.59	2075.62
871.76	1876.14
871.94	1803.44
872.12	2073.36
872.29	1861.60
872.47	1890.07
872.65	1827.20
872.83	2135.83
873.00	2317.28
873.18	1878.81
873.36	1851.36
873.53	2205.05
873.71	1871.64
873.89	1790.95
874.06	1870.61
874.24	2162.45
874.42	2309.29
874.60	1995.75
874.77	1952.33
874.95	1941.88
875.13	2237.00
875.30	1883.93
875.48	1825.35
875.66	2341.44
875.83	1944.75
876.01	1864.06
876.19	1968.30
876.36	1867.95
876.54	2078.28
876.72	1817.57
876.89	1961.75
877.07	2206.89
877.25	1793.61
877.42	1927.14
877.60	1871.84
877.78	2389.16
877.95	2034.86
878.13	1837.64
878.31	2012.74
878.48	2234.13
878.66	2212.22
878.84	1860.37
879.01	1879.63
879.19	2144.02
879.37	2208.53
879.54	1895.40
879.72	1757.98
879.90	1779.28
880.07	2224.09
880.25	1643.70
880.42	2029.33
880.60	2098.14
880.78	2216.72
880.95	1849.32
881.13	1953.15
881.31	2102.44
881.48	1990.63
881.66	1832.32
881.83	1983.05
882.01	1948.23
882.19	1855.66
882.36	1917.72
882.54	1838.05
882.72	2218.56
882.89	2106.95
883.07	1861.81
883.24	1859.35
883.42	2205.87
883.60	2105.93
883.77	1805.08
883.95	1906.04
884.12	2222.46
884.30	2108.18
884.48	2028.92
884.65	1885.77
884.83	2104.49
885.00	2115.14
885.18	1782.14
885.36	1872.25
885.53	2179.86
885.71	2300.69
885.88	1769.85
886.06	1876.35
886.23	2198.90
886.41	2005.17
886.59	1851.77
886.76	1791.36
886.94	2181.09
887.11	2592.93
887.29	1895.60
887.47	1808.97
887.64	2283.69
887.82	2329.15
887.99	1712.31
888.17	1904.20
888.34	2011.51
888.52	1894.17
888.69	1839.28
888.87	1798.32
889.05	2035.07
889.22	2033.22
889.40	1834.57
889.57	2105.72
889.75	2373.80
889.92	2027.90
890.10	1803.65
890.27	1947.21
890.45	1978.54
890.62	1812.66
890.80	1796.89
890.98	1715.79
891.15	2347.18
891.33	2264.03
891.50	1847.47
891.68	1737.50
891.85	2212.42
892.03	2203.41
892.20	1831.50
892.38	1786.65
892.55	2221.43
892.73	2203.00
892.90	1729.10
893.08	1857.71
893.25	1988.37
893.43	1982.02
893.60	1937.79
893.78	1691.21
893.95	2146.68
894.13	2064.35
894.30	1831.29
894.48	1884.54
894.65	2211.19
894.83	2123.54
895.00	1737.91
895.18	1728.28
895.35	2234.13
895.53	2198.70
895.70	1769.85
895.88	1978.34
896.05	2151.80
896.23	1872.05
896.40	1845.02
896.58	1919.15
896.75	2208.73
896.93	2319.94
897.10	1873.69
897.28	1754.90
897.45	2109.61
897.63	2185.18
897.80	1967.89
897.98	1826.38
898.15	2162.25
898.33	2003.53
898.50	1888.02
898.67	1867.34
898.85	2002.30
899.02	2122.31
899.20	2070.09
899.37	1875.53
899.55	2103.67
899.72	2280.41
899.90	1824.54
900.07	1816.96
900.25	2169.82
900.42	2282.26
900.59	1817.98
900.77	1996.56
900.94	2163.47
901.12	2134.60
901.29	1883.52
901.47	2001.89
901.64	2154.67
901.82	2081.56
901.99	1642.47
902.16	1814.71
902.34	2275.91
902.51	2083.19
902.69	1862.42
902.86	1892.53
903.03	2707.21
903.21	2088.31
903.38	1839.69
903.56	1808.15
903.73	2230.44
903.91	2035.27
904.08	1791.56
904.25	1700.63
904.43	1948.23
904.60	2222.25
904.78	1840.71
904.95	1791.36
905.12	2042.23
905.30	2386.91
905.47	1933.08
905.65	2003.94
905.82	2052.27
905.99	2162.45
906.17	1842.97
906.34	1828.22
906.52	1919.15
906.69	2186.21
906.86	1923.86
907.04	1897.85
907.21	2202.59
907.38	2235.36
907.56	1797.91
907.73	1796.89
907.91	2327.72
908.08	2288.61
908.25	1840.51
908.43	1743.64
908.60	2171.87
908.77	2096.51
908.95	1875.53
909.12	1774.36
909.30	2188.87
909.47	1827.81
909.64	1884.95
909.82	2064.35
909.99	2035.48
910.16	2097.53
910.34	1829.25
910.51	1847.47
910.68	2104.29
910.86	2080.94
911.03	1720.50
911.20	1812.45
911.38	2244.78
911.55	2516.75
911.72	2352.91
911.90	2264.23
912.07	2611.36
912.24	2805.10
912.42	2224.09
912.59	2066.61
912.76	2428.48
912.94	2243.14
913.11	1950.08
913.28	1868.16
913.46	1911.16
913.63	2144.22
913.80	2189.48
913.98	1806.31
914.15	2255.02
914.32	2269.15
914.49	1938.81
914.67	1768.83
914.84	2084.83
915.01	2138.28
915.19	1919.56
915.36	1812.66
915.53	2269.97
915.71	2149.14
915.88	1923.04
916.05	1837.03
916.22	2272.84
916.40	2116.37
916.57	1761.66
916.74	2003.32
916.92	2353.73
917.09	1899.49
917.26	1813.27
917.43	1746.30
917.61	2015.20
917.78	1836.00
917.95	1789.92
918.13	1781.73
918.30	2449.37
918.47	2082.37
918.64	1778.46
918.82	1770.88
918.99	2023.19
919.16	2298.03
919.33	1852.59
919.51	1864.06
919.68	2034.45
919.85	2255.84
920.02	1746.71
920.20	1892.73
920.37	2364.18
920.54	2219.18
920.71	1799.96
920.89	1826.79
921.06	2375.44
921.23	1918.54
921.40	1746.71
921.58	1895.60
921.75	2581.26
921.92	1950.08
922.09	1919.97
922.27	1885.97
922.44	2084.22
922.61	2159.79
922.78	1821.67
922.96	1813.48
923.13	2014.18
923.30	2217.54
923.47	1744.25
923.64	1779.28
923.82	2136.44
923.99	2095.28
924.16	1915.67
924.33	1746.10
924.50	2082.37
924.68	2341.03
924.85	1796.89
925.02	1867.75
925.19	2202.59
925.36	2096.71
925.54	1880.85
925.71	1891.09
925.88	2618.12
926.05	2021.96
926.22	1826.38
926.40	1944.34
926.57	2126.00
926.74	2148.52
926.91	1811.63
927.08	1999.23
927.26	2264.44
927.43	2120.88
927.60	1848.70
927.77	1872.05
927.94	2376.05
928.11	2273.25
928.29	1712.31
928.46	1895.60
928.63	1958.47
928.80	2051.04
928.97	1953.97
929.14	1804.26
929.32	2473.95
929.49	2085.86
929.66	1816.34
929.83	1737.29
930.00	2011.31
930.17	2154.26
930.35	1783.37
930.52	1857.10
930.69	2340.42
930.86	1905.84
931.03	1874.92
931.20	1690.60
931.37	2290.24
931.55	2085.45
931.72	1865.09
931.89	1751.01
932.06	1904.82
932.23	2350.45
932.40	1953.35
932.57	1968.51
932.74	2301.51
932.92	2288.61
933.09	2015.82
933.26	1603.15
933.43	1975.06
933.60	2122.51
933.77	1885.56
933.94	1967.89
934.11	2040.80
934.29	2146.27
934.46	1826.58
934.63	1897.03
934.80	1843.79
934.97	2026.87
935.14	1874.92
935.31	1699.81
935.48	1944.14
935.65	2136.65
935.82	1875.32
936.00	1771.29
936.17	2317.48
936.34	2059.23
936.51	1925.09
936.68	1771.70
936.85	2120.88
937.02	2055.55
937.19	1929.39
937.36	1885.16
937.53	2135.01
937.70	2203.41
937.87	1835.39
938.05	1989.60
938.22	2107.77
938.39	1925.50
938.56	1874.30
938.73	1760.84
938.90	2010.70
939.07	1957.24
939.24	1943.52
939.41	1700.84
939.58	2136.85
939.75	2170.44
939.92	1807.95
940.09	2119.65
940.26	2016.84
940.43	2267.10
940.60	1869.18
940.77	1860.99
940.95	2129.27
941.12	2170.64
941.29	1863.45
941.46	1887.82
941.63	2291.88
941.80	2353.12
941.97	1754.29
942.14	1715.38
942.31	2187.44
942.48	2056.57
942.65	1944.96
942.82	1896.42
942.99	2194.19
943.16	2104.70
943.33	1751.01
943.50	1826.79
943.67	2201.98
943.84	2295.16
944.01	1811.22
944.18	1828.02
944.35	2326.29
944.52	1942.09
944.69	1915.26
944.86	1785.83
945.03	2182.73
945.20	2489.72
945.37	1672.78
945.54	1883.11
945.71	2306.01
945.88	2366.43
946.05	1807.13
946.22	1765.96
946.39	2307.24
946.56	2103.47
946.73	1722.14
946.90	1793.61
947.07	1985.51
947.24	2048.17
947.41	1712.72
947.58	1933.90
947.75	2195.01
947.92	2146.48
948.09	1653.12
948.26	1718.86
948.43	2128.45
948.60	2408.41
948.77	1790.54
948.94	1829.66
949.11	2211.19
949.27	2159.17
949.44	1815.93
949.61	1756.13
949.78	2173.92
949.95	2276.73
950.12	1742.62
950.29	1705.34
950.46	1994.72
950.63	2282.46
950.80	1785.42
950.97	1843.79
951.14	2269.76
951.31	2052.88
951.48	1802.01
951.65	1748.56
951.82	2410.46
951.99	2109.00
952.15	1744.25
952.32	1811.84
952.49	1962.36
952.66	2001.89
952.83	1839.28
953.00	1775.38
953.17	2044.28
953.34	2238.63
953.51	1889.25
953.68	1888.64
953.85	2267.31
954.02	2282.46
954.18	1906.04
954.35	1832.11
954.52	1945.16
954.69	2150.57
954.86	1746.30
955.03	1909.12
955.20	2222.66
955.37	2049.40
955.54	1819.62
955.71	1787.47
955.87	2130.91
956.04	2413.12
956.21	1830.68
956.38	1772.52
956.55	2088.31
956.72	2514.29
956.89	1883.31
957.06	1779.07
957.23	1962.77
957.39	2311.54
957.56	1847.68
957.73	1766.78
957.90	1748.56
958.07	2397.15
958.24	1863.24
958.41	1845.42
958.57	2224.09
958.74	2055.96
958.91	1768.83
959.08	1763.51
959.25	2198.70
959.42	2070.70
959.59	1855.87
959.75	1874.30
959.92	2291.47
960.09	2252.56
960.26	1775.38
960.43	1869.39
960.60	2135.62
960.76	2043.26
960.93	1724.39
961.10	1906.86
961.27	2282.05
961.44	2048.38
961.61	1739.95
961.77	1710.46
961.94	2098.35
962.11	2247.65
962.28	1794.02
962.45	1721.73
962.62	2045.72
962.78	2250.51
962.95	1714.97
963.12	1794.84
963.29	2164.50
963.46	2596.01
963.62	1895.40
963.79	1832.93
963.96	2519.00
964.13	2038.55
964.30	1906.04
964.46	1828.63
964.63	1939.22
964.80	2543.37
964.97	1637.15
965.14	1937.38
965.30	2136.24
965.47	2217.13
965.64	1980.80
965.81	1911.98
965.98	2302.12
966.14	2121.90
966.31	1806.51
966.48	1784.60
966.65	2290.04
966.81	2143.40
966.98	1822.69
967.15	1829.45
967.32	2054.73
967.49	1944.14
967.65	1686.09
967.82	1659.06
967.99	2024.01
968.16	1810.20
968.32	1983.87
968.49	1796.07
968.66	2018.27
968.83	2357.83
968.99	1943.73
969.16	1754.29
969.33	2279.80
969.50	2182.52
969.66	1948.23
969.83	2093.02
970.00	2220.61
970.17	2185.39
970.33	1866.93
970.50	1758.80
970.67	2338.17
970.84	2326.70
971.00	1760.84
971.17	1721.32
971.34	2195.83
971.50	2076.44
971.67	1950.28
971.84	1863.24
972.01	1899.90
972.17	1733.81
972.34	1732.79
972.51	1977.52
972.67	2276.32
972.84	2139.10
973.01	1781.53
973.18	1840.10
973.34	2230.85
973.51	1935.74
973.68	1854.23
973.84	1874.71
974.01	1977.11
974.18	2393.67
974.34	1881.26
974.51	1937.38
974.68	1978.75
974.85	2415.78
975.01	1946.18
975.18	1822.90
975.35	2092.00
975.51	1991.65
975.68	1739.75
975.85	1998.61
976.01	1977.72
976.18	2354.55
976.35	1844.81
976.51	1872.87
976.68	2385.27
976.85	2295.36
977.01	1854.23
977.18	1931.03
977.35	2176.58
977.51	1895.80
977.68	1673.80
977.85	1724.59
978.01	2246.01
978.18	2202.18
978.35	1873.28
978.51	1874.71
978.68	2250.72
978.85	2352.50
979.01	1888.23
979.18	1867.95
979.34	2084.42
979.51	2107.56
979.68	1779.07
979.84	1885.16
980.01	2534.57
980.18	2122.51
980.34	1741.59
980.51	1898.67
980.67	2227.78
980.84	2211.19
981.01	1829.25
981.17	1920.18
981.34	1813.48
981.51	2192.96
981.67	1771.49
981.84	1896.42
982.00	2198.29
982.17	2081.35
982.34	1670.94
982.50	1582.67
982.67	2367.45
982.83	2000.05
983.00	1703.50
983.17	1617.69
983.33	2283.89
983.50	1825.15
983.66	1713.74
983.83	1618.10
984.00	2036.50
984.16	2097.32
984.33	1632.23
984.49	1622.81
984.66	1928.78
984.83	2253.58
984.99	1680.56
985.16	1611.34
985.32	2208.12
985.49	2198.49
985.65	1740.57
985.82	1617.49
985.99	2352.09
986.15	2135.21
986.32	1778.87
986.48	1672.99
986.65	2017.25
986.81	2229.62
986.98	1607.25
987.14	1711.69
987.31	2136.65
987.48	1825.56
987.64	1564.03
987.81	1600.08
987.97	2461.04
988.14	1924.48
988.30	1646.16
988.47	1502.59
988.63	2138.28
988.80	1899.70
988.96	1740.16
989.13	1765.76
989.30	2022.98
989.46	2236.79
989.63	1565.88
989.79	1607.04
989.96	2090.98
990.12	2349.43
990.29	1634.07
990.45	1710.05
990.62	2085.24
990.78	2282.26
990.95	1750.81
991.11	1671.35
991.28	1984.28
991.44	2137.67
991.61	1531.88
991.77	1735.04
991.94	2104.08
992.10	2263.01
992.27	1732.79
992.43	1703.71
992.60	2187.03
992.76	2020.12
992.93	1832.32
993.09	1594.96
993.26	2266.90
993.42	2426.02
993.59	1663.97
993.75	1564.85
993.92	1956.63
994.08	1957.04
994.25	1724.59
994.41	1617.28
994.58	2213.04
994.74	2364.38
994.91	1614.82
995.07	1754.49
995.24	2034.86
995.40	2072.13
995.56	1776.82
995.73	1754.29
995.89	2398.17
996.06	2062.92
996.22	1633.66
996.39	1590.86
996.55	2065.79
996.72	2160.81
996.88	1573.25
997.05	1616.26
997.21	2446.50
997.37	2177.61
997.54	1734.42
997.70	1682.00
997.87	2145.86
998.03	2079.51
998.20	1534.75
998.36	1574.48
998.52	2181.91
998.69	2237.61
998.85	1590.04
999.02	1665.82
999.18	2230.03
999.35	2211.60
999.51	1701.86
999.67	1657.42
999.84	1918.13
1000.00	2205.87
1000.17	1735.24
1000.33	1617.28
1000.49	1982.02
1000.66	2049.61
1000.82	1637.56
1000.99	1738.73
1001.15	2268.94
1001.31	2035.68
1001.48	1671.55
1001.64	1748.76
1001.81	2051.04
1001.97	2439.54
1002.13	1706.37
1002.30	1703.91
1002.46	2286.56
1002.63	2045.31
1002.79	1756.75
1002.95	1640.01
1003.12	2257.48
1003.28	2140.54
1003.45	1628.75
1003.61	1585.74
1003.77	2099.78
1003.94	1864.06
1004.10	1664.59
1004.26	1771.29
1004.43	2150.78
1004.59	2375.64
1004.75	1661.52
1004.92	1624.04
1005.08	2000.87
1005.25	2126.20
1005.41	1643.49
1005.57	1740.77
1005.74	2277.55
1005.90	2015.41
1006.06	1798.32
1006.23	1644.11
1006.39	2213.44
1006.55	2542.76
1006.72	1790.54
1006.88	1604.99
1007.04	1904.61
1007.21	2015.41
1007.37	1689.57
1007.53	1655.17
1007.70	2326.08
1007.86	2235.56
1008.02	1747.94
1008.19	1633.26
1008.35	2101.01
1008.51	1928.57
1008.68	1646.77
1008.84	1602.95
1009.00	1927.75
1009.17	2289.01
1009.33	1846.04
1009.49	1747.94
1009.65	1964.21
1009.82	2155.69
1009.98	1738.32
1010.14	1570.79
1010.31	2225.53
1010.47	2183.13
1010.63	1761.66
1010.80	1716.81
1010.96	2179.86
1011.12	2030.15
1011.28	1698.79
1011.45	1608.27
1011.61	2550.34
1011.77	1947.62
1011.94	1641.86
1012.10	1625.88
1012.26	1912.80
1012.42	2002.09
1012.59	1737.91
1012.75	1700.02
1012.91	2058.41
1013.07	2228.39
1013.24	1639.19
1013.40	1620.76
1013.56	2113.30
1013.72	2074.39
1013.89	1748.35
1014.05	1753.68
1014.21	2427.87
1014.37	2505.69
1014.54	1706.98
1014.70	1611.55
1014.86	2034.86
1015.02	1903.59
1015.19	1668.48
1015.35	1611.34
1015.51	2057.80
1015.67	2008.65
1015.84	1666.43
1016.00	1668.89
1016.16	2251.33
1016.32	2225.73
1016.49	1660.70
1016.65	1579.39
1016.81	2065.58
1016.97	2175.56
1017.14	1779.07
1017.30	1683.64
1017.46	2010.90
1017.62	2146.68
1017.78	1737.70
1017.95	1643.29
1018.11	2225.73
1018.27	2518.80
1018.43	1833.55
1018.59	1743.85
1018.76	2203.61
1018.92	2550.34
1019.08	1618.51
1019.24	1690.60
1019.40	2324.65
1019.57	2153.23
1019.73	1789.72
1019.89	1675.85
1020.05	2105.72
1020.21	2436.26
1020.38	1622.81
1020.54	1833.34
1020.70	2182.32
1020.86	2188.25
1021.02	1659.88
1021.18	1661.31
1021.35	2013.56
1021.51	2184.77
1021.67	1834.37
1021.83	1713.54
1021.99	2110.23
1022.15	2129.27
1022.32	1721.73
1022.48	1708.62
1022.64	2312.57
1022.80	2354.96
1022.96	1750.40
1023.12	1597.62
1023.29	2259.32
1023.45	2144.22
1023.61	1651.89
1023.77	1882.29
1023.93	2137.06
1024.09	1958.88
1024.25	1643.70
1024.42	1586.77
1024.58	2022.37
1024.74	2137.26
1024.90	1695.51
1025.06	1720.70
1025.22	2020.53
1025.38	2380.76
1025.54	1593.11
1025.71	1773.75
1025.87	2179.45
1026.03	2170.64
1026.19	1628.75
1026.35	1858.33
1026.51	2172.49
1026.67	2102.65
1026.83	1754.29
1026.99	1812.45
1027.16	2185.59
1027.32	2045.31
1027.48	1679.13
1027.64	1635.30
1027.80	2187.64
1027.96	2107.97
1028.12	1675.24
1028.28	1641.86
1028.44	2138.49
1028.60	2351.07
1028.77	1833.96
1028.93	1706.57
1029.09	2006.60
1029.25	1907.68
1029.41	1716.61
1029.57	1765.96
1029.73	2159.58
1029.89	2332.43
1030.05	1798.73
1030.21	1762.28
1030.37	2484.80
1030.53	2189.69
1030.69	1709.44
1030.85	1614.82
1031.02	1938.61
1031.18	2095.48
1031.34	1655.58
1031.50	1771.70
1031.66	1986.32
1031.82	2351.68
1031.98	1715.17
1032.14	1632.03
1032.30	1973.83
1032.46	2211.60
1032.62	1806.31
1032.78	1618.71
1032.94	1963.39
1033.10	2061.69
1033.26	1748.76
1033.42	1807.33
1033.58	2449.17
1033.74	2002.30
1033.90	1667.46
1034.06	1838.87
1034.22	2475.18
1034.38	2241.09
1034.54	1713.13
1034.70	1726.44
1034.86	2433.40
>>>>>End Processed Spectral Data<<<<<
