SpectraSuite Data File
++++++++++++++++++++++++++++++++++++
Date: Thu Mar 30 16:10:35 PDT 2017
User: UCSD _CER
Dark Spectrum Present: No
Reference Spectrum Present: No
Number of Sampled Component Spectra: 1
Spectrometers: USB4C00073
Integration Time (usec): 250000 (USB4C00073)
Spectra Averaged: 10 (USB4C00073)
Boxcar Smoothing: 0 (USB4C00073)
Correct for Electrical Dark: No (USB4C00073)
Strobe/Lamp Enabled: No (USB4C00073)
Correct for Detector Non-linearity: No (USB4C00073)
Correct for Stray Light: No (USB4C00073)
Number of Pixels in Processed Spectrum: 3648
>>>>>Begin Processed Spectral Data<<<<<
345.37	1269.54
345.58	1269.54
345.80	1269.54
346.01	1280.39
346.22	1287.35
346.43	1968.71
346.65	1786.03
346.86	2110.84
347.07	2078.48
347.28	1801.60
347.50	1791.77
347.71	1919.15
347.92	1733.61
348.13	1800.57
348.35	1708.42
348.56	1921.20
348.77	1772.11
348.98	1799.14
349.20	1650.25
349.41	1914.44
349.62	1993.49
349.83	1841.12
350.05	1723.57
350.26	1965.64
350.47	2065.79
350.68	1772.93
350.90	1727.26
351.11	2101.42
351.32	2077.46
351.53	1816.75
351.75	1719.88
351.96	1951.71
352.17	1906.66
352.38	1856.07
352.60	1874.30
352.81	1931.85
353.02	2127.63
353.23	1759.21
353.44	1776.20
353.66	1842.97
353.87	1845.83
354.08	1874.51
354.29	1800.98
354.51	1805.69
354.72	1862.83
354.93	1763.30
355.14	1689.57
355.35	1699.61
355.57	1988.58
355.78	1769.04
355.99	1867.75
356.20	1883.11
356.42	1871.23
356.63	1878.19
356.84	1816.75
357.05	1995.34
357.26	2195.01
357.48	1866.52
357.69	1831.29
357.90	1939.84
358.11	1834.98
358.32	1801.80
358.54	1845.02
358.75	1835.18
358.96	1959.50
359.17	1784.19
359.38	1782.96
359.60	2003.94
359.81	1891.09
360.02	1808.56
360.23	1740.36
360.44	1803.65
360.66	2030.36
360.87	1722.96
361.08	1718.66
361.29	1952.94
361.50	1923.25
361.72	1773.75
361.93	1844.20
362.14	1915.26
362.35	1736.68
362.56	1886.79
362.77	1702.27
362.99	1981.61
363.20	1892.12
363.41	1841.53
363.62	1685.89
363.83	1998.82
364.05	2040.80
364.26	1674.62
364.47	1771.29
364.68	2041.82
364.89	1799.55
365.10	1719.06
365.32	1802.83
365.53	1785.62
365.74	1830.47
365.95	1812.45
366.16	1679.54
366.37	1900.11
366.59	1858.33
366.80	1782.96
367.01	1663.36
367.22	2142.18
367.43	2268.94
367.64	1796.68
367.86	1783.99
368.07	1964.41
368.28	2038.96
368.49	1732.79
368.70	1868.16
368.91	1862.63
369.12	1857.51
369.34	1717.84
369.55	1731.35
369.76	1892.73
369.97	1843.17
370.18	1726.85
370.39	1753.88
370.60	1735.45
370.82	1781.94
371.03	1779.89
371.24	1748.56
371.45	1979.16
371.66	1973.01
371.87	1793.82
372.08	1769.04
372.30	1767.60
372.51	1991.85
372.72	1877.99
372.93	1745.89
373.14	2113.30
373.35	1829.45
373.56	1740.36
373.78	1789.31
373.99	2025.85
374.20	2245.39
374.41	1809.79
374.62	1826.17
374.83	2081.97
375.04	1870.61
375.25	1809.18
375.47	1752.86
375.68	1850.75
375.89	2009.88
376.10	1800.37
376.31	1869.80
376.52	1946.80
376.73	1927.34
376.94	1825.56
377.15	1764.94
377.37	1895.80
377.58	1842.35
377.79	1682.00
378.00	1726.85
378.21	1940.04
378.42	1971.17
378.63	1800.57
378.84	1862.42
379.05	2010.70
379.27	1909.32
379.48	1905.43
379.69	1758.59
379.90	2053.09
380.11	1670.32
380.32	1797.50
380.53	1883.31
380.74	2076.64
380.95	1920.59
381.16	1772.93
381.37	1792.38
381.59	2051.86
381.80	2001.48
382.01	1745.48
382.22	1693.87
382.43	1954.38
382.64	1884.75
382.85	1739.95
383.06	1801.39
383.27	1985.51
383.48	1867.34
383.69	1833.14
383.91	1727.46
384.12	1952.94
384.33	1944.55
384.54	1793.61
384.75	1685.27
384.96	2266.49
385.17	2011.72
385.38	1773.54
385.59	1778.05
385.80	2005.17
386.01	2091.39
386.22	1876.35
386.43	1792.18
386.64	2194.81
386.86	1871.84
387.07	1893.96
387.28	1724.59
387.49	1821.05
387.70	2042.44
387.91	1889.46
388.12	1739.14
388.33	1937.17
388.54	1829.25
388.75	1754.29
388.96	1841.12
389.17	1795.86
389.38	1870.41
389.59	1882.29
389.80	1806.51
390.01	1882.49
390.22	1832.32
390.43	1894.17
390.64	1682.20
390.86	1939.43
391.07	2008.24
391.28	1796.89
391.49	1829.66
391.70	1727.26
391.91	1797.91
392.12	1812.25
392.33	1770.88
392.54	1912.60
392.75	1851.16
392.96	1883.52
393.17	1726.03
393.38	2177.20
393.59	2025.44
393.80	1708.42
394.01	1791.97
394.22	1863.04
394.43	2134.80
394.64	1738.11
394.85	1925.09
395.06	1902.97
395.27	1921.81
395.48	1782.35
395.69	1720.29
395.90	1897.65
396.11	1888.84
396.32	1761.05
396.53	1891.71
396.74	1858.33
396.95	2031.99
397.16	1753.88
397.37	1690.39
397.58	2039.37
397.79	1905.63
398.00	1829.25
398.21	1789.31
398.42	1902.56
398.63	2140.95
398.84	1791.15
399.05	1754.70
399.26	2067.01
399.47	1964.21
399.68	1634.89
399.89	1741.80
400.10	1745.48
400.31	1865.49
400.52	1819.01
400.73	1797.50
400.94	1727.05
401.15	1935.94
401.36	1789.52
401.57	1838.26
401.78	2044.90
401.99	2039.37
402.20	1732.99
402.41	1891.71
402.62	2114.53
402.83	1870.82
403.04	1745.89
403.25	1908.30
403.46	1921.40
403.67	2060.87
403.88	1781.94
404.09	1774.77
404.30	1811.84
404.51	1812.04
404.72	1709.44
404.93	1891.30
405.14	1798.94
405.35	1890.89
405.56	1802.21
405.77	1769.85
405.98	1910.96
406.19	1873.89
406.40	1752.04
406.61	1767.40
406.82	1823.51
407.03	2181.91
407.24	1683.84
407.45	1806.72
407.66	1953.15
407.87	1975.68
408.08	1839.49
408.29	1873.48
408.49	1958.47
408.70	1882.90
408.91	1782.55
409.12	1877.99
409.33	1796.68
409.54	2044.90
409.75	1760.84
409.96	1780.71
410.17	2029.54
410.38	1875.12
410.59	1770.47
410.80	1889.87
411.01	1869.18
411.22	1880.65
411.43	1851.98
411.64	1751.22
411.85	1795.86
412.06	1779.07
412.27	1644.93
412.47	1745.48
412.68	1896.83
412.89	1913.01
413.10	1755.93
413.31	1698.59
413.52	2161.43
413.73	2148.52
413.94	1754.09
414.15	1886.18
414.36	1818.19
414.57	1784.60
414.78	1692.44
414.99	1748.35
415.19	2004.55
415.40	1958.68
415.61	1960.93
415.82	1867.75
416.03	2035.07
416.24	1978.54
416.45	1804.87
416.66	1778.46
416.87	1742.62
417.08	1999.02
417.29	1721.93
417.50	1847.68
417.70	1949.26
417.91	1972.60
418.12	1825.15
418.33	1814.91
418.54	1969.53
418.75	2065.17
418.96	1961.75
419.17	1890.89
419.38	2166.55
419.59	2071.52
419.79	1923.45
420.00	1902.56
420.21	2336.12
420.42	1938.81
420.63	1814.71
420.84	1865.90
421.05	1901.13
421.26	1917.51
421.47	1739.95
421.67	2061.28
421.88	1780.91
422.09	1740.77
422.30	1953.35
422.51	1791.36
422.72	2112.48
422.93	1960.52
423.14	1800.98
423.35	1676.67
423.55	1718.66
423.76	1807.95
423.97	1836.41
424.18	1669.91
424.39	1855.66
424.60	2012.95
424.81	1793.61
425.02	1882.49
425.22	1881.06
425.43	1880.44
425.64	1971.17
425.85	1850.34
426.06	2185.80
426.27	2036.30
426.48	1903.38
426.68	1867.54
426.89	2025.65
427.10	2135.01
427.31	1831.29
427.52	1761.66
427.73	1977.93
427.94	1943.93
428.14	1888.02
428.35	1819.42
428.56	2075.62
428.77	2001.28
428.98	1870.00
429.19	1833.34
429.40	1829.04
429.60	1906.86
429.81	1923.25
430.02	1826.17
430.23	1867.54
430.44	2016.23
430.65	1771.70
430.85	1829.45
431.06	1948.64
431.27	1698.38
431.48	1780.91
431.69	1828.43
431.90	1910.55
432.10	1906.45
432.31	1842.56
432.52	1712.72
432.73	2192.96
432.94	2079.10
433.15	1930.01
433.35	1800.57
433.56	2065.79
433.77	1904.82
433.98	1899.70
434.19	1787.47
434.40	1898.47
434.60	1891.50
434.81	1779.28
435.02	1833.34
435.23	1878.60
435.44	1826.17
435.64	1691.01
435.85	1740.57
436.06	1862.42
436.27	1843.79
436.48	1680.56
436.68	1775.38
436.89	2067.63
437.10	1945.57
437.31	1820.23
437.52	1894.99
437.73	1928.16
437.93	1894.37
438.14	1841.53
438.35	1653.33
438.56	1817.37
438.77	1851.16
438.97	1927.34
439.18	1772.93
439.39	2037.73
439.60	1733.20
439.80	1692.24
440.01	1787.26
440.22	1818.60
440.43	1965.03
440.64	1723.16
440.84	1828.84
441.05	1763.30
441.26	2243.75
441.47	1839.08
441.68	1764.73
441.88	1863.65
442.09	1862.42
442.30	1925.71
442.51	1830.47
442.71	1851.57
442.92	1940.86
443.13	1744.46
443.34	1734.22
443.55	1780.30
443.75	1965.03
443.96	1736.06
444.17	1726.85
444.38	2019.71
444.58	1782.14
444.79	1852.80
445.00	1822.28
445.21	1871.84
445.41	1882.08
445.62	1629.57
445.83	1856.89
446.04	1911.37
446.24	1738.32
446.45	1647.80
446.66	1794.64
446.87	1930.82
447.07	1817.16
447.28	1978.34
447.49	1803.24
447.70	1983.05
447.90	2021.14
448.11	1789.31
448.32	1856.89
448.53	2051.45
448.73	2057.39
448.94	1821.46
449.15	1900.11
449.36	1904.82
449.56	1955.81
449.77	1798.32
449.98	1700.22
450.19	1831.50
450.39	1848.29
450.60	1860.37
450.81	1831.09
451.02	1911.98
451.22	2092.82
451.43	1767.60
451.64	1773.13
451.84	1876.14
452.05	2025.85
452.26	1836.62
452.47	1817.57
452.67	1849.52
452.88	2068.65
453.09	1743.03
453.30	1710.87
453.50	1994.52
453.71	2061.69
453.92	1788.29
454.12	1871.23
454.33	1813.27
454.54	1849.52
454.75	1753.27
454.95	1743.23
455.16	1907.27
455.37	1927.55
455.57	1818.80
455.78	1787.88
455.99	1878.40
456.19	1910.96
456.40	1729.51
456.61	1813.27
456.82	1887.00
457.02	1984.48
457.23	1837.64
457.44	1951.10
457.64	1787.06
457.85	1951.30
458.06	1798.53
458.26	1953.35
458.47	1864.06
458.68	1979.77
458.89	1713.74
459.09	1911.57
459.30	2152.01
459.51	1923.45
459.71	1709.23
459.92	1774.16
460.13	1979.16
460.33	2146.07
460.54	1797.91
460.75	1772.31
460.95	1752.65
461.16	1945.37
461.37	1789.11
461.57	1831.91
461.78	1899.90
461.99	1755.11
462.19	1996.56
462.40	1767.40
462.61	2355.57
462.81	2017.25
463.02	1764.33
463.23	1772.52
463.43	1982.02
463.64	1848.29
463.85	2731.38
464.05	1778.46
464.26	2312.57
464.47	2073.77
464.67	1940.45
464.88	1856.28
465.09	1773.95
465.29	1894.58
465.50	1924.07
465.71	1836.41
465.91	1813.27
466.12	1868.98
466.33	1862.63
466.53	1783.17
466.74	2067.01
466.94	1864.68
467.15	1820.23
467.36	1970.35
467.56	1781.12
467.77	1944.14
467.98	1816.55
468.18	1783.99
468.39	1843.38
468.60	2138.49
468.80	1840.92
469.01	1767.40
469.21	1959.70
469.42	2023.39
469.63	1797.30
469.83	1763.10
470.04	2002.50
470.25	2081.56
470.45	1866.93
470.66	1777.84
470.86	1930.82
471.07	1865.49
471.28	1896.42
471.48	1913.01
471.69	1932.05
471.90	2316.46
472.10	1789.11
472.31	1788.29
472.51	1796.07
472.72	1778.46
472.93	1726.03
473.13	1924.07
473.34	1944.14
473.54	1885.56
473.75	1850.54
473.96	1958.06
474.16	1870.61
474.37	1935.94
474.57	1862.42
474.78	1752.04
474.99	1945.16
475.19	1905.63
475.40	1795.86
475.60	1724.39
475.81	2069.47
476.02	1824.54
476.22	1801.19
476.43	1943.52
476.63	1873.69
476.84	2048.38
477.05	1685.07
477.25	1761.05
477.46	2278.16
477.66	1879.83
477.87	1695.51
478.08	1791.77
478.28	2028.31
478.49	1861.81
478.69	1745.69
478.90	1811.63
479.10	1983.87
479.31	2113.09
479.52	1850.13
479.72	1917.92
479.93	1958.47
480.13	1831.29
480.34	1778.05
480.54	1882.90
480.75	1792.38
480.96	2033.02
481.16	1754.09
481.37	1899.08
481.57	1988.58
481.78	1988.78
481.98	1981.00
482.19	1860.37
482.40	2113.30
482.60	1964.41
482.81	1894.99
483.01	1775.79
483.22	2022.57
483.42	2010.08
483.63	1928.98
483.83	1857.30
484.04	1814.71
484.24	1978.54
484.45	1862.42
484.66	1701.25
484.86	1948.23
485.07	1796.07
485.27	1859.15
485.48	1768.22
485.68	2049.40
485.89	1780.50
486.09	1889.87
486.30	1814.30
486.50	1914.03
486.71	1892.53
486.91	1848.91
487.12	1894.99
487.33	2085.24
487.53	2088.72
487.74	1854.44
487.94	1817.98
488.15	1910.96
488.35	1945.57
488.56	1824.74
488.76	1802.21
488.97	1914.24
489.17	1947.62
489.38	1823.72
489.58	1803.44
489.79	1952.33
489.99	1926.11
490.20	1846.65
490.40	1898.26
490.61	1947.82
490.81	1840.30
491.02	1818.80
491.22	1917.31
491.43	1983.25
491.63	1874.51
491.84	1942.09
492.04	1724.59
492.25	1966.05
492.45	1870.82
492.66	1781.94
492.86	1700.63
493.07	1852.18
493.27	2165.52
493.48	1692.65
493.68	1833.75
493.89	1889.05
494.09	2007.62
494.30	1804.87
494.50	2029.33
494.71	1958.88
494.91	1720.29
495.12	1811.84
495.32	1904.20
495.53	1877.37
495.73	1693.06
495.94	1806.92
496.14	1677.90
496.35	2103.88
496.55	1851.98
496.76	1815.32
496.96	1854.85
497.17	1853.62
497.37	1955.20
497.58	1796.89
497.78	1738.32
497.98	1838.46
498.19	1850.34
498.39	1866.52
498.60	1887.61
498.80	1684.25
499.01	1968.71
499.21	1766.58
499.42	1848.09
499.62	1856.89
499.83	2161.43
500.03	1704.11
500.24	1876.35
500.44	2056.78
500.64	2018.07
500.85	1814.91
501.05	1918.74
501.26	1706.57
501.46	2065.58
501.67	1746.71
501.87	1755.11
502.08	1759.82
502.28	1839.08
502.48	1897.44
502.69	1934.10
502.89	1698.79
503.10	1833.96
503.30	1856.28
503.51	1842.76
503.71	1744.66
503.92	1963.39
504.12	1884.54
504.32	1827.61
504.53	1984.28
504.73	1988.99
504.94	1939.43
505.14	2014.18
505.35	1995.95
505.55	1981.20
505.75	1883.93
505.96	1964.21
506.16	2145.66
506.37	1846.04
506.57	1771.49
506.78	1868.16
506.98	2033.63
507.18	1720.50
507.39	1751.42
507.59	1826.58
507.80	1802.42
508.00	1880.65
508.20	1983.66
508.41	1862.63
508.61	2038.75
508.82	1997.18
509.02	1942.70
509.22	1746.71
509.43	1760.23
509.63	1816.14
509.84	1840.92
510.04	1711.49
510.24	2030.36
510.45	1991.24
510.65	1726.64
510.86	1864.68
511.06	1780.09
511.26	1990.83
511.47	1910.96
511.67	1777.02
511.88	1980.39
512.08	2021.55
512.28	1736.27
512.49	1919.36
512.69	1927.14
512.90	1919.77
513.10	1789.72
513.30	1851.16
513.51	1959.50
513.71	2076.44
513.91	1896.01
514.12	1894.99
514.32	1979.77
514.53	1819.01
514.73	1897.03
514.93	1813.68
515.14	1902.77
515.34	2057.80
515.54	1855.25
515.75	1899.29
515.95	2036.91
516.15	2042.64
516.36	1926.93
516.56	1920.38
516.77	1632.85
516.97	1958.88
517.17	1815.73
517.38	1909.94
517.58	2108.38
517.78	1841.12
517.99	1910.35
518.19	1873.28
518.39	2088.11
518.60	1895.19
518.80	1820.44
519.00	1946.18
519.21	1899.29
519.41	2136.65
519.61	1795.66
519.82	1912.19
520.02	1895.40
520.22	1887.61
520.43	1861.60
520.63	1909.53
520.83	1823.31
521.04	1714.56
521.24	1929.39
521.44	1845.22
521.65	1873.48
521.85	2019.30
522.05	1816.55
522.26	1874.30
522.46	2165.32
522.66	2003.32
522.87	1840.92
523.07	2008.65
523.27	1823.31
523.48	2079.10
523.68	1861.81
523.88	1906.04
524.09	2063.12
524.29	1942.91
524.49	1722.34
524.70	1961.34
524.90	2102.65
525.10	1984.07
525.31	1771.08
525.51	1766.37
525.71	1980.80
525.91	1966.46
526.12	1798.94
526.32	1749.58
526.52	1836.41
526.73	1832.93
526.93	1922.63
527.13	1705.96
527.34	1861.81
527.54	1894.37
527.74	1820.44
527.94	1744.25
528.15	1773.75
528.35	1920.99
528.55	1934.92
528.76	1925.30
528.96	1731.97
529.16	2020.32
529.36	1980.18
529.57	1759.61
529.77	2034.25
529.97	1799.14
530.18	1928.78
530.38	1832.73
530.58	1970.76
530.78	1911.57
530.99	1807.95
531.19	1932.87
531.39	1819.42
531.60	1881.67
531.80	1811.43
532.00	1963.80
532.20	1928.57
532.41	1810.61
532.61	1775.79
532.81	1830.68
533.01	1859.56
533.22	1927.55
533.42	1950.90
533.62	1684.04
533.82	2060.87
534.03	1878.60
534.23	1895.19
534.43	1773.34
534.63	1833.34
534.84	1916.69
535.04	1884.75
535.24	1876.55
535.44	2235.77
535.65	1865.49
535.85	1791.77
536.05	1817.57
536.25	1878.81
536.46	1780.50
536.66	1988.78
536.86	1873.48
537.06	1980.80
537.27	2051.25
537.47	1940.25
537.67	1836.00
537.87	2076.85
538.08	1870.61
538.28	1760.23
538.48	1751.01
538.68	1858.33
538.88	1977.93
539.09	1742.41
539.29	1835.18
539.49	2002.91
539.69	1977.93
539.90	1917.31
540.10	1768.42
540.30	2052.27
540.50	1848.70
540.70	1745.48
540.91	1842.97
541.11	1996.56
541.31	2102.65
541.51	1911.98
541.72	1952.94
541.92	1953.35
542.12	1834.37
542.32	1860.37
542.52	1815.11
542.73	1820.64
542.93	1960.73
543.13	1834.16
543.33	1924.48
543.53	1981.61
543.74	1986.94
543.94	1854.64
544.14	1955.40
544.34	2067.42
544.54	1921.40
544.75	1958.68
544.95	2086.06
545.15	2011.11
545.35	2132.14
545.55	1969.53
545.75	1826.58
545.96	2209.76
546.16	1785.21
546.36	1835.80
546.56	1874.92
546.76	1996.97
546.97	2121.70
547.17	1854.64
547.37	1928.78
547.57	1830.88
547.77	1988.78
547.97	1914.65
548.18	1906.86
548.38	1884.13
548.58	2089.95
548.78	1853.41
548.98	1955.20
549.18	2097.32
549.39	2209.14
549.59	1982.02
549.79	1925.50
549.99	2155.08
550.19	2063.94
550.39	2009.47
550.60	1889.05
550.80	1964.62
551.00	2015.41
551.20	1833.34
551.40	1821.05
551.60	1939.43
551.80	1911.37
552.01	1980.80
552.21	1854.03
552.41	1942.91
552.61	2118.01
552.81	1895.80
553.01	1795.66
553.21	1955.81
553.42	1781.12
553.62	1818.60
553.82	1769.24
554.02	2080.33
554.22	1986.73
554.42	1761.05
554.62	1916.28
554.83	2104.90
555.03	2102.44
555.23	1901.13
555.43	2171.26
555.63	2033.22
555.83	1981.20
556.03	1913.21
556.23	1773.34
556.44	1971.58
556.64	2082.99
556.84	1652.51
557.04	1845.63
557.24	1943.11
557.44	1944.55
557.64	1903.59
557.84	1794.64
558.04	1868.98
558.25	1984.69
558.45	1811.43
558.65	1883.31
558.85	1906.86
559.05	1704.73
559.25	1846.24
559.45	1971.78
559.65	2168.18
559.85	2580.85
560.05	1941.06
560.26	1976.29
560.46	1945.78
560.66	1898.06
560.86	1864.68
561.06	1834.37
561.26	2120.88
561.46	1991.04
561.66	1844.81
561.86	1946.80
562.06	1794.64
562.26	1899.08
562.47	1921.20
562.67	1762.89
562.87	1978.54
563.07	1753.27
563.27	1892.94
563.47	1891.09
563.67	1855.05
563.87	1987.14
564.07	1846.65
564.27	1882.08
564.47	1917.10
564.67	1961.34
564.87	1821.05
565.08	1948.03
565.28	1860.37
565.48	1948.44
565.68	1932.46
565.88	1951.51
566.08	2158.97
566.28	1906.66
566.48	1731.76
566.68	1854.23
566.88	1867.75
567.08	2002.09
567.28	1867.75
567.48	1848.70
567.68	1952.12
567.88	1767.19
568.08	1928.37
568.28	2025.03
568.48	1882.29
568.68	2028.51
568.89	1908.50
569.09	1723.16
569.29	2000.87
569.49	2007.21
569.69	1776.61
569.89	1789.31
570.09	1686.09
570.29	1790.74
570.49	1742.00
570.69	1773.54
570.89	1979.57
571.09	2169.82
571.29	1747.53
571.49	1995.75
571.69	1931.23
571.89	1956.01
572.09	1791.97
572.29	1796.27
572.49	2008.03
572.69	1968.51
572.89	1861.40
573.09	1616.46
573.29	1871.84
573.49	1939.63
573.69	1884.34
573.89	1967.69
574.09	1843.99
574.29	2044.49
574.49	1813.68
574.69	1839.69
574.89	1775.38
575.09	1797.50
575.29	1779.28
575.49	1879.22
575.69	1942.09
575.89	1752.45
576.09	1886.18
576.29	1893.55
576.49	1772.31
576.69	1881.47
576.89	1808.56
577.09	1866.11
577.29	1710.46
577.49	2127.23
577.69	1823.72
577.89	1948.85
578.09	1896.62
578.29	1699.61
578.49	1856.28
578.69	1772.11
578.89	1986.73
579.09	1891.91
579.29	1768.01
579.49	1981.61
579.69	1867.13
579.89	2109.61
580.09	1706.37
580.29	1720.70
580.49	1840.92
580.69	1795.66
580.89	1857.71
581.09	1835.59
581.29	1844.20
581.49	1866.31
581.69	1762.48
581.89	1784.80
582.09	1783.17
582.28	1797.09
582.48	1973.83
582.68	2023.60
582.88	2066.40
583.08	1889.05
583.28	1843.99
583.48	1876.96
583.68	1827.61
583.88	1893.35
584.08	1912.80
584.28	1868.16
584.48	2115.96
584.68	1970.15
584.88	1833.75
585.08	2024.21
585.28	2031.79
585.48	2044.28
585.68	1906.86
585.87	1970.76
586.07	1966.05
586.27	1894.58
586.47	1966.46
586.67	1881.67
586.87	1881.26
587.07	1856.28
587.27	1748.97
587.47	1872.05
587.67	2117.19
587.87	2241.09
588.07	1939.02
588.27	1874.30
588.46	2052.88
588.66	2063.12
588.86	1923.45
589.06	1958.06
589.26	2021.35
589.46	1996.16
589.66	1770.47
589.86	1794.43
590.06	1876.76
590.26	1972.81
590.46	1846.86
590.66	1945.37
590.85	1850.95
591.05	1965.44
591.25	1786.03
591.45	1866.93
591.65	1981.82
591.85	1947.21
592.05	1831.09
592.25	1974.24
592.45	2052.27
592.64	1889.46
592.84	1895.60
593.04	1790.74
593.24	2228.60
593.44	1846.04
593.64	1932.87
593.84	1960.11
594.04	1857.30
594.24	2086.06
594.43	1804.67
594.63	1880.65
594.83	1984.69
595.03	1984.69
595.23	1797.30
595.43	1734.42
595.63	1838.67
595.83	1984.48
596.02	1686.30
596.22	1844.20
596.42	1932.46
596.62	1888.02
596.82	1833.75
597.02	1976.29
597.22	2075.00
597.41	1928.98
597.61	1808.77
597.81	1942.70
598.01	1962.77
598.21	1823.10
598.41	1810.61
598.61	1780.30
598.80	1896.83
599.00	1926.32
599.20	2019.30
599.40	1835.80
599.60	1863.45
599.80	1995.75
599.99	2030.97
600.19	1849.52
600.39	1901.13
600.59	1974.04
600.79	1907.68
600.99	1887.61
601.19	2114.32
601.38	2164.70
601.58	1908.91
601.78	1674.83
601.98	1976.49
602.18	2036.30
602.37	2247.03
602.57	2106.34
602.77	2205.25
602.97	2162.86
603.17	2238.43
603.37	2140.13
603.56	2250.92
603.76	2186.82
603.96	2093.02
604.16	2122.51
604.36	2185.39
604.56	2120.67
604.75	1850.54
604.95	1935.54
605.15	2082.37
605.35	2061.89
605.55	1875.53
605.74	1821.87
605.94	2029.74
606.14	1938.20
606.34	1921.61
606.54	1864.88
606.73	1860.17
606.93	1985.71
607.13	1789.11
607.33	1868.77
607.53	2098.14
607.72	2071.52
607.92	1978.54
608.12	1988.78
608.32	1890.68
608.51	1994.31
608.71	1804.67
608.91	1904.20
609.11	1997.38
609.31	1886.38
609.50	1964.00
609.70	2079.51
609.90	2050.43
610.10	2029.54
610.29	1905.63
610.49	1826.58
610.69	2006.39
610.89	1901.13
611.09	1951.10
611.28	1999.43
611.48	2059.44
611.68	1885.16
611.88	1799.14
612.07	1789.52
612.27	1974.45
612.47	1819.83
612.67	1915.47
612.86	1992.47
613.06	1908.50
613.26	1704.52
613.46	1823.72
613.65	1895.19
613.85	2243.96
614.05	1991.65
614.25	1954.58
614.44	1871.43
614.64	1908.50
614.84	1848.91
615.04	1831.91
615.23	1839.08
615.43	1976.90
615.63	1987.14
615.83	1789.92
616.02	1746.30
616.22	2000.05
616.42	1783.99
616.62	1826.58
616.81	1897.65
617.01	1949.87
617.21	1911.37
617.41	1820.23
617.60	1878.19
617.80	1956.42
618.00	1969.53
618.19	1929.39
618.39	1941.47
618.59	1981.41
618.79	1900.51
618.98	1714.97
619.18	1879.63
619.38	2178.63
619.57	1888.02
619.77	1890.48
619.97	1851.98
620.17	1810.81
620.36	1747.94
620.56	2008.03
620.76	1784.60
620.95	1779.89
621.15	1852.80
621.35	1779.68
621.54	1853.00
621.74	1933.49
621.94	1821.05
622.14	1784.19
622.33	1752.86
622.53	1907.07
622.73	1860.78
622.92	1732.17
623.12	1895.40
623.32	2114.32
623.51	1955.61
623.71	1717.84
623.91	1999.64
624.10	1790.54
624.30	1922.63
624.50	1755.11
624.69	1738.11
624.89	2372.57
625.09	1837.44
625.29	1680.97
625.48	1739.14
625.68	1888.43
625.88	2012.54
626.07	1902.77
626.27	1769.45
626.47	1816.34
626.66	1696.33
626.86	1872.66
627.06	1844.61
627.25	1909.53
627.45	2073.77
627.64	1837.85
627.84	2039.78
628.04	1805.90
628.23	2177.61
628.43	1774.56
628.63	1794.43
628.82	1835.39
629.02	2159.99
629.22	1965.03
629.41	2024.62
629.61	1932.87
629.81	2124.77
630.00	1795.86
630.20	1771.29
630.40	1930.62
630.59	1939.22
630.79	1877.78
630.98	1850.75
631.18	1859.56
631.38	1894.99
631.57	2011.51
631.77	1758.39
631.97	1914.03
632.16	1944.34
632.36	1875.32
632.56	1902.77
632.75	1921.81
632.95	2011.31
633.14	1760.23
633.34	2054.32
633.54	1685.89
633.73	1861.40
633.93	1825.76
634.12	1702.48
634.32	2237.41
634.52	1860.58
634.71	1767.60
634.91	1939.43
635.11	1746.30
635.30	1787.06
635.50	1899.49
635.69	1764.12
635.89	2123.54
636.09	2019.50
636.28	1753.68
636.48	1789.31
636.67	1969.74
636.87	1981.20
637.07	1940.66
637.26	1808.15
637.46	1902.77
637.65	2010.49
637.85	1888.64
638.04	1797.30
638.24	1864.47
638.44	1957.24
638.63	1874.71
638.83	1853.82
639.02	1927.14
639.22	1941.06
639.42	1856.28
639.61	1868.77
639.81	1899.49
640.00	1874.71
640.20	1949.87
640.39	1896.62
640.59	2150.57
640.79	2008.44
640.98	1939.02
641.18	1900.92
641.37	1890.68
641.57	1855.87
641.76	1892.53
641.96	1713.33
642.15	1905.43
642.35	1852.39
642.55	1895.60
642.74	1767.81
642.94	1989.81
643.13	2041.01
643.33	1844.61
643.52	1790.74
643.72	1808.77
643.91	1879.42
644.11	1815.93
644.31	1797.71
644.50	1813.68
644.70	2030.97
644.89	1853.62
645.09	1944.55
645.28	1885.16
645.48	1947.21
645.67	1768.22
645.87	1680.56
646.06	1864.27
646.26	1917.51
646.45	1656.40
646.65	1655.78
646.84	2122.31
647.04	1837.44
647.24	1729.51
647.43	1853.00
647.63	1900.92
647.82	2068.65
648.02	1703.71
648.21	1797.91
648.41	2060.87
648.60	1808.97
648.80	1983.05
648.99	1895.19
649.19	1801.19
649.38	1695.10
649.58	1852.80
649.77	1897.44
649.97	2016.63
650.16	1959.70
650.36	1663.77
650.55	1974.86
650.75	1912.39
650.94	2077.87
651.14	1858.33
651.33	1901.13
651.53	2112.89
651.72	1784.80
651.92	1857.51
652.11	1685.89
652.31	1929.80
652.50	1895.80
652.70	1916.69
652.89	1746.71
653.09	2066.20
653.28	1851.36
653.48	1680.36
653.67	1693.26
653.87	2282.26
654.06	1904.61
654.25	2022.37
654.45	1806.31
654.64	1829.25
654.84	1857.10
655.03	1647.80
655.23	1966.87
655.42	1980.18
655.62	2077.66
655.81	1889.25
656.01	1738.93
656.20	1987.14
656.40	2068.86
656.59	1887.41
656.79	2018.89
656.98	1901.95
657.17	2009.88
657.37	1867.13
657.56	1765.96
657.76	1928.16
657.95	1984.89
658.15	1572.84
658.34	1860.17
658.54	1911.16
658.73	1743.44
658.92	1817.37
659.12	1888.23
659.31	1931.85
659.51	1760.02
659.70	1914.03
659.90	1840.92
660.09	2016.02
660.29	1891.30
660.48	1790.13
660.67	2020.53
660.87	1833.75
661.06	1934.51
661.26	1975.88
661.45	1947.82
661.65	1929.80
661.84	1831.70
662.03	1815.93
662.23	1840.51
662.42	2148.93
662.62	1767.81
662.81	1770.67
663.00	1808.36
663.20	1904.61
663.39	1953.15
663.59	1931.03
663.78	1836.82
663.97	1831.09
664.17	1978.75
664.36	1687.73
664.56	1767.40
664.75	1969.33
664.94	1951.71
665.14	1874.71
665.33	1841.53
665.53	1884.13
665.72	1855.25
665.91	1958.06
666.11	1866.52
666.30	1908.91
666.50	1827.61
666.69	1911.78
666.88	1823.10
667.08	1869.80
667.27	1835.18
667.47	1863.65
667.66	1834.57
667.85	1980.80
668.05	1881.06
668.24	1801.80
668.43	1954.17
668.63	1825.97
668.82	2008.03
669.02	1921.61
669.21	1865.09
669.40	1730.74
669.60	2098.76
669.79	1717.84
669.98	2318.92
670.18	1774.16
670.37	1749.17
670.56	1832.52
670.76	1891.71
670.95	1869.39
671.15	1973.22
671.34	1905.23
671.53	1851.57
671.73	1828.43
671.92	1799.75
672.11	1753.47
672.31	1812.86
672.50	1931.44
672.69	1749.58
672.89	1650.05
673.08	1823.92
673.27	1975.68
673.47	1910.96
673.66	1899.29
673.85	1781.94
674.05	1908.30
674.24	1918.74
674.43	1830.27
674.63	2040.39
674.82	2253.99
675.01	1757.77
675.21	2046.94
675.40	1925.30
675.59	1888.43
675.79	2137.26
675.98	1872.05
676.17	1998.41
676.37	1948.44
676.56	1863.45
676.75	1898.47
676.95	1866.72
677.14	1862.01
677.33	2000.46
677.52	1752.65
677.72	1803.65
677.91	1929.39
678.10	1717.43
678.30	1736.47
678.49	1745.28
678.68	2155.28
678.88	1668.28
679.07	2010.70
679.26	1847.88
679.45	2117.80
679.65	2027.28
679.84	1680.77
680.03	1713.33
680.23	1878.40
680.42	2192.35
680.61	1745.48
680.81	1778.25
681.00	1866.93
681.19	1936.56
681.38	1958.68
681.58	1931.44
681.77	1837.64
681.96	1984.48
682.15	1797.91
682.35	1904.00
682.54	1928.98
682.73	1748.15
682.93	1784.60
683.12	1799.96
683.31	1949.67
683.50	2213.85
683.70	1767.40
683.89	1882.49
684.08	1749.37
684.27	2010.90
684.47	1703.71
684.66	1886.59
684.85	2116.99
685.04	2006.80
685.24	1776.61
685.43	1842.76
685.62	1660.49
685.81	1898.06
686.01	1870.61
686.20	1808.36
686.39	1784.80
686.58	2169.82
686.78	1946.59
686.97	1956.63
687.16	2066.40
687.35	1979.16
687.55	1853.21
687.74	1882.29
687.93	1812.04
688.12	1899.90
688.32	1900.11
688.51	1713.54
688.70	1957.24
688.89	1763.71
689.08	1729.71
689.28	1781.73
689.47	1894.17
689.66	1889.66
689.85	1939.84
690.05	1784.19
690.24	1790.74
690.43	1911.16
690.62	1913.42
690.81	1803.03
691.01	1875.32
691.20	1826.99
691.39	1778.05
691.58	1932.26
691.77	2102.44
691.97	1892.73
692.16	1918.33
692.35	1835.59
692.54	1789.92
692.73	1937.58
692.93	1892.12
693.12	1918.54
693.31	1945.37
693.50	1912.80
693.69	1958.68
693.89	1838.05
694.08	2058.41
694.27	2044.08
694.46	1803.65
694.65	1867.75
694.85	1948.03
695.04	1957.24
695.23	1829.86
695.42	2048.58
695.61	2093.43
695.80	2173.92
696.00	2311.34
696.19	2340.83
696.38	2074.59
696.57	2145.04
696.76	2119.65
696.95	2004.35
697.15	2190.30
697.34	2164.70
697.53	1915.06
697.72	1962.16
697.91	1900.52
698.10	2105.72
698.30	1855.25
698.49	1856.28
698.68	1909.73
698.87	1851.36
699.06	1759.21
699.25	1856.07
699.45	2021.75
699.64	1884.75
699.83	1960.73
700.02	1729.10
700.21	1955.40
700.40	1793.82
700.59	1841.33
700.79	1810.61
700.98	1966.25
701.17	1817.98
701.36	1804.06
701.55	1790.33
701.74	2034.04
701.93	1787.06
702.12	1911.98
702.32	1862.22
702.51	2048.38
702.70	2044.49
702.89	1933.28
703.08	1847.88
703.27	2080.74
703.46	1986.12
703.65	1861.81
703.85	1780.30
704.04	1824.54
704.23	2014.59
704.42	1793.41
704.61	1831.70
704.80	2078.48
704.99	1821.46
705.18	1912.19
705.37	1841.33
705.57	1976.90
705.76	2154.67
705.95	2002.71
706.14	2323.42
706.33	2387.32
706.52	2604.61
706.71	2180.47
706.90	2040.80
707.09	2148.93
707.28	2086.27
707.47	1897.85
707.67	2038.34
707.86	1859.15
708.05	2095.07
708.24	1904.20
708.43	1921.61
708.62	1880.04
708.81	1809.18
709.00	1754.90
709.19	1772.93
709.38	2012.54
709.57	1791.36
709.76	1903.18
709.96	1810.20
710.15	2045.31
710.34	1879.42
710.53	1967.69
710.72	1874.10
710.91	2024.42
711.10	1947.21
711.29	1911.37
711.48	1814.30
711.67	1765.96
711.86	1924.07
712.05	1733.81
712.24	1807.33
712.43	1985.51
712.62	2039.57
712.81	1909.73
713.00	2006.19
713.19	1747.74
713.39	1935.54
713.58	1743.23
713.77	1868.57
713.96	1947.00
714.15	1835.59
714.34	1831.29
714.53	1738.11
714.72	2133.98
714.91	1784.60
715.10	1866.72
715.29	1731.15
715.48	2256.45
715.67	1974.45
715.86	1904.41
716.05	1857.30
716.24	1826.79
716.43	1803.65
716.62	1747.12
716.81	1701.04
717.00	1852.18
717.19	2074.39
717.38	1891.30
717.57	1869.18
717.76	1707.19
717.95	1996.77
718.14	1875.73
718.33	1834.78
718.52	1701.45
718.71	1710.67
718.90	1735.04
719.09	1841.12
719.28	1878.40
719.47	1981.00
719.66	1943.73
719.85	1933.69
720.04	1843.38
720.23	1906.86
720.42	1783.17
720.61	1922.84
720.80	1728.69
720.99	1918.13
721.18	1815.93
721.37	1784.80
721.56	1845.83
721.75	1956.42
721.94	1779.48
722.13	1828.22
722.32	1843.79
722.51	1952.94
722.70	1838.05
722.89	1919.15
723.08	1882.29
723.27	1988.17
723.46	1896.62
723.65	1819.21
723.84	1796.07
724.03	2042.03
724.22	1723.16
724.41	1893.96
724.60	1857.10
724.79	1964.41
724.98	1918.74
725.16	1815.32
725.35	1977.31
725.54	1772.11
725.73	1849.93
725.92	1861.81
726.11	1859.97
726.30	1972.19
726.49	1802.21
726.68	1881.88
726.87	1949.67
727.06	2074.39
727.25	1846.45
727.44	1970.15
727.63	1901.33
727.82	1845.02
728.01	1904.20
728.20	1947.00
728.38	2069.06
728.57	1842.15
728.76	1880.24
728.95	1934.72
729.14	1748.76
729.33	1776.41
729.52	1625.06
729.71	1773.75
729.90	1760.84
730.09	1828.63
730.28	1851.16
730.47	1788.49
730.66	2029.54
730.84	1897.44
731.03	1866.31
731.22	1909.53
731.41	1912.19
731.60	1931.85
731.79	1706.37
731.98	1784.60
732.17	1948.23
732.36	1910.96
732.55	1804.87
732.73	1741.18
732.92	2000.05
733.11	1906.04
733.30	1807.13
733.49	1722.34
733.68	1934.10
733.87	1901.13
734.06	1795.66
734.25	1770.88
734.43	1831.29
734.62	1938.81
734.81	1866.31
735.00	1875.73
735.19	1872.25
735.38	1958.88
735.57	1732.38
735.76	1919.36
735.94	1966.25
736.13	2187.85
736.32	2045.72
736.51	1985.71
736.70	2245.39
736.89	2279.59
737.08	2123.33
737.27	2214.47
737.45	2459.20
737.64	2420.08
737.83	2567.13
738.02	2527.60
738.21	2577.16
738.40	2514.91
738.59	2221.43
738.77	2272.84
738.96	2082.37
739.15	2121.08
739.34	2177.81
739.53	2079.30
739.72	2186.62
739.90	2107.36
740.09	1866.72
740.28	1916.90
740.47	2011.51
740.66	1993.08
740.85	1796.07
741.03	1868.36
741.22	1769.45
741.41	1880.04
741.60	1710.46
741.79	1897.85
741.98	2026.47
742.16	2115.55
742.35	1924.07
742.54	1862.22
742.73	2167.98
742.92	1873.48
743.10	1734.22
743.29	1826.38
743.48	2197.88
743.67	1818.80
743.86	1711.69
744.05	1753.06
744.23	1780.09
744.42	1758.18
744.61	1840.51
744.80	1730.53
744.99	1788.70
745.17	1677.90
745.36	1694.49
745.55	1897.03
745.74	1856.89
745.93	1786.85
746.11	1809.59
746.30	1740.77
746.49	1994.11
746.68	1769.04
746.86	1826.58
747.05	1809.38
747.24	1932.87
747.43	1930.62
747.62	1725.21
747.80	1801.39
747.99	2005.37
748.18	1951.10
748.37	1917.92
748.56	1930.82
748.74	1996.36
748.93	1901.74
749.12	2023.60
749.31	2440.36
749.49	2729.74
749.68	2947.44
749.87	3193.40
750.06	3125.20
750.24	3106.56
750.43	3073.80
750.62	3113.32
750.81	3185.21
750.99	3327.95
751.18	3316.48
751.37	2967.30
751.56	2875.96
751.74	3048.20
751.93	3027.10
752.12	2408.82
752.31	2294.34
752.49	2247.44
752.68	2429.51
752.87	2168.39
753.06	2028.92
753.24	2022.98
753.43	2144.84
753.62	1867.34
753.81	1868.36
753.99	2090.36
754.18	1948.44
754.37	1789.11
754.55	1903.79
754.74	2092.82
754.93	1671.76
755.12	1802.01
755.30	1766.17
755.49	2012.95
755.68	1910.35
755.86	1880.65
756.05	1747.33
756.24	2058.21
756.43	1717.43
756.61	1743.85
756.80	1910.75
756.99	2019.91
757.17	1861.19
757.36	1741.18
757.55	1880.65
757.74	1928.16
757.92	1842.76
758.11	1726.44
758.30	1669.50
758.48	1806.72
758.67	1712.10
758.86	1858.53
759.04	1740.36
759.23	1826.58
759.42	1826.58
759.60	1771.49
759.79	1838.87
759.98	1831.91
760.16	1761.25
760.35	1756.54
760.54	1719.47
760.73	1860.17
760.91	1703.91
761.10	1855.66
761.29	1902.97
761.47	1863.86
761.66	2154.05
761.85	1864.27
762.03	1940.25
762.22	2115.14
762.41	2702.91
762.59	3251.15
762.78	3536.84
762.97	4152.26
763.15	4213.08
763.34	3931.69
763.52	3327.95
763.71	3224.73
763.90	3233.54
764.08	2938.63
764.27	2879.03
764.46	2922.86
764.64	2611.36
764.83	2493.61
765.02	2425.00
765.20	2369.70
765.39	2297.62
765.58	1981.82
765.76	2008.03
765.95	2011.31
766.13	1931.23
766.32	1880.24
766.51	1902.77
766.69	2417.83
766.88	1866.11
767.07	1743.44
767.25	1660.08
767.44	1986.73
767.62	2021.55
767.81	1790.13
768.00	1839.90
768.18	1860.78
768.37	1788.70
768.56	1700.84
768.74	1769.44
768.93	1717.02
769.11	1912.19
769.30	1855.05
769.49	1783.99
769.67	1856.28
769.86	1808.77
770.04	1833.55
770.23	1818.60
770.42	2041.82
770.60	1880.04
770.79	1763.92
770.97	1796.48
771.16	2048.17
771.35	2077.87
771.53	2145.04
771.72	2226.35
771.90	2432.17
772.09	2621.81
772.27	2496.47
772.46	2210.99
772.65	2364.79
772.83	2274.88
773.02	2212.22
773.20	2047.97
773.39	2182.11
773.58	2148.93
773.76	1900.92
773.95	1945.16
774.13	2025.85
774.32	1921.61
774.50	1820.64
774.69	1892.94
774.87	1871.64
775.06	2164.50
775.25	1802.62
775.43	1845.02
775.62	1894.58
775.80	1961.54
775.99	1891.50
776.17	1786.44
776.36	1860.99
776.54	1948.44
776.73	1757.98
776.92	1839.90
777.10	1936.35
777.29	1890.07
777.47	1726.85
777.66	1779.68
777.84	1865.29
778.03	1844.20
778.21	1740.16
778.40	1846.24
778.58	1928.16
778.77	1987.96
778.95	1710.46
779.14	1782.14
779.32	2071.52
779.51	1967.69
779.70	1824.13
779.88	1708.01
780.07	1833.55
780.25	2217.54
780.44	1804.47
780.62	1982.43
780.81	1945.57
780.99	1914.65
781.18	1802.01
781.36	1824.13
781.55	1861.81
781.73	2059.23
781.92	1743.85
782.10	1720.91
782.29	1914.24
782.47	2047.35
782.66	1876.55
782.84	1735.65
783.03	1791.97
783.21	2017.25
783.40	1823.51
783.58	1792.79
783.77	1801.19
783.95	1848.29
784.14	1772.93
784.32	1859.15
784.51	2000.05
784.69	1813.27
784.88	1709.44
785.06	1815.32
785.24	1701.66
785.43	1947.00
785.61	1901.13
785.80	1769.65
785.98	1910.75
786.17	1907.68
786.35	1757.98
786.54	1873.48
786.72	2002.91
786.91	1986.94
787.09	1822.08
787.28	1760.02
787.46	1877.78
787.65	1989.40
787.83	1729.10
788.01	1850.54
788.20	1716.61
788.38	1874.51
788.57	1781.53
788.75	1798.53
788.94	2105.11
789.12	2041.21
789.31	1850.13
789.49	1932.87
789.67	1824.13
789.86	1906.25
790.04	1749.37
790.23	1656.81
790.41	2119.44
790.60	1845.42
790.78	1816.55
790.96	1826.79
791.15	1934.51
791.33	1839.49
791.52	1819.21
791.70	1762.07
791.89	1881.26
792.07	1961.13
792.25	1857.92
792.44	1713.33
792.62	1994.93
792.81	1811.63
792.99	1840.30
793.17	1752.04
793.36	1761.25
793.54	2138.28
793.73	2064.35
793.91	2043.67
794.10	2324.44
794.28	2462.27
794.46	2269.76
794.65	2341.65
794.83	2087.70
795.01	2170.44
795.20	2250.51
795.38	2112.27
795.57	2158.15
795.75	2151.19
795.93	2018.68
796.12	2015.00
796.30	2064.76
796.49	2056.57
796.67	1836.82
796.85	2000.25
797.04	1901.33
797.22	1969.33
797.40	1706.37
797.59	1880.24
797.77	1897.03
797.96	1799.55
798.14	1780.71
798.32	1775.38
798.51	1956.01
798.69	2108.18
798.87	1853.21
799.06	1804.47
799.24	1679.54
799.42	2011.51
799.61	1973.01
799.79	1986.12
799.98	2339.19
800.16	2091.80
800.34	2273.65
800.53	2471.69
800.71	2489.92
800.89	2906.07
801.08	2774.79
801.26	2737.32
801.44	2527.19
801.63	2320.14
801.81	2336.12
801.99	2296.18
802.18	2253.18
802.36	2258.30
802.54	2222.46
802.73	1993.90
802.91	2067.42
803.09	2068.04
803.28	2071.52
803.46	2040.80
803.64	2164.50
803.83	1814.30
804.01	1815.11
804.19	1754.90
804.38	1973.63
804.56	1929.60
804.74	1832.32
804.92	1876.35
805.11	1774.36
805.29	2001.48
805.47	1818.39
805.66	1725.00
805.84	1724.59
806.02	1983.25
806.21	1807.13
806.39	1943.52
806.57	1978.75
806.76	1977.72
806.94	1841.12
807.12	1788.70
807.30	1776.20
807.49	1864.68
807.67	1842.15
807.85	1936.56
808.04	1969.94
808.22	2169.62
808.40	1722.34
808.58	1743.03
808.77	1939.43
808.95	2043.05
809.13	1903.18
809.31	2272.43
809.50	2493.61
809.68	2692.67
809.86	2597.03
810.05	2708.03
810.23	3105.13
810.41	3420.72
810.59	4900.17
810.78	5703.18
810.96	6455.40
811.14	6918.04
811.32	6541.62
811.51	5624.95
811.69	4903.45
811.87	4914.31
812.05	4421.97
812.24	4247.08
812.42	4144.47
812.60	3929.44
812.78	3355.39
812.97	3105.95
813.15	3214.70
813.33	2891.53
813.51	2717.04
813.70	2354.14
813.88	2209.55
814.06	2199.52
814.24	2078.07
814.42	1876.76
814.61	1986.94
814.79	2164.50
814.97	1731.97
815.15	1812.04
815.34	1894.17
815.52	2007.62
815.70	1763.71
815.88	1825.56
816.06	1738.93
816.25	1820.03
816.43	1748.15
816.61	1925.30
816.79	2064.35
816.98	1680.97
817.16	1772.11
817.34	1749.78
817.52	1888.02
817.70	2077.46
817.89	1823.10
818.07	1750.40
818.25	1837.64
818.43	1903.59
818.61	1831.91
818.80	1782.76
818.98	2108.38
819.16	1892.53
819.34	1755.93
819.52	2030.77
819.70	1772.31
819.89	1858.74
820.07	1741.59
820.25	1689.98
820.43	1898.47
820.61	1981.61
820.80	1854.03
820.98	1737.29
821.16	1689.78
821.34	1723.37
821.52	1805.49
821.70	1876.55
821.89	1866.93
822.07	1827.61
822.25	1824.33
822.43	1754.49
822.61	2052.06
822.79	1926.52
822.98	1822.08
823.16	1677.08
823.34	1917.51
823.52	2030.36
823.70	1914.65
823.88	1688.14
824.06	1935.33
824.25	1850.75
824.43	1950.08
824.61	1717.84
824.79	1870.00
824.97	1899.08
825.15	1971.58
825.33	2092.82
825.52	2136.03
825.70	2075.82
825.88	2080.94
826.06	2191.12
826.24	2170.03
826.42	2204.02
826.60	2099.78
826.78	2098.76
826.97	1993.08
827.15	2154.26
827.33	1857.51
827.51	2002.71
827.69	1872.05
827.87	1949.26
828.05	1949.67
828.23	1810.20
828.41	2013.97
828.60	1991.04
828.78	1712.31
828.96	1891.91
829.14	1813.89
829.32	1857.51
829.50	1813.07
829.68	1829.25
829.86	1823.92
830.04	1956.22
830.22	1893.76
830.41	1738.11
830.59	1827.61
830.77	1960.52
830.95	1786.44
831.13	1766.17
831.31	1778.05
831.49	1987.35
831.67	1957.45
831.85	1946.59
832.03	1824.94
832.21	1977.52
832.39	1723.98
832.57	1727.67
832.76	1987.14
832.94	1835.80
833.12	1680.36
833.30	1852.59
833.48	2012.95
833.66	1904.61
833.84	1762.89
834.02	1830.88
834.20	1962.36
834.38	1962.16
834.56	1669.50
834.74	1722.34
834.92	1739.34
835.10	2081.56
835.28	1890.89
835.46	1826.99
835.64	1850.54
835.82	1796.07
836.01	2066.40
836.19	1947.21
836.37	1825.76
836.55	1743.23
836.73	1762.28
836.91	1713.74
837.09	1943.73
837.27	2039.98
837.45	1683.84
837.63	1738.52
837.81	1735.65
837.99	1847.27
838.17	1797.30
838.35	1745.69
838.53	2167.37
838.71	1957.65
838.89	1803.03
839.07	1751.63
839.25	1922.84
839.43	1996.16
839.61	1815.11
839.79	2167.98
839.97	2300.07
840.15	2431.55
840.33	2368.27
840.51	2669.12
840.69	2443.02
840.87	2315.84
841.05	2346.36
841.23	2238.23
841.41	2469.85
841.59	2933.10
841.77	3010.72
841.95	3129.71
842.13	3436.29
842.31	3190.53
842.49	2818.41
842.67	2794.25
842.85	2795.89
843.03	2468.62
843.21	2436.88
843.39	2513.06
843.57	2429.91
843.75	2355.98
843.93	2198.70
844.11	2154.26
844.29	2150.98
844.47	2055.96
844.65	2139.51
844.83	1944.34
845.01	1959.70
845.19	2071.11
845.36	1880.04
845.54	1969.53
845.72	1931.23
845.90	1965.64
846.08	1734.02
846.26	1821.26
846.44	1931.85
846.62	1940.66
846.80	1871.02
846.98	1743.64
847.16	1839.28
847.34	1914.85
847.52	1720.29
847.70	1765.14
847.88	1849.73
848.06	2052.47
848.24	1904.61
848.41	1684.86
848.59	1981.82
848.77	1889.46
848.95	1785.83
849.13	1797.71
849.31	1963.59
849.49	1906.25
849.67	1761.05
849.85	1729.30
850.03	1910.55
850.21	1872.25
850.39	1767.60
850.57	1928.16
850.74	2056.37
850.92	2036.09
851.10	1964.21
851.28	1949.05
851.46	2086.68
851.64	2402.47
851.82	2073.57
852.00	2119.03
852.18	2270.58
852.36	2140.13
852.53	1971.17
852.71	2038.75
852.89	2039.57
853.07	2065.38
853.25	1885.36
853.43	1793.20
853.61	1962.16
853.79	1975.88
853.97	1799.75
854.14	1820.44
854.32	2073.36
854.50	1987.76
854.68	1820.44
854.86	1814.30
855.04	1813.27
855.22	1978.13
855.40	1728.49
855.57	1786.44
855.75	1970.76
855.93	1952.53
856.11	1669.71
856.29	1769.65
856.47	1786.85
856.65	1917.31
856.82	1756.34
857.00	1685.68
857.18	1831.70
857.36	1817.16
857.54	1870.00
857.72	1927.55
857.89	1944.34
858.07	1856.07
858.25	1983.25
858.43	1692.85
858.61	1849.73
858.79	1892.73
858.97	1753.06
859.14	1893.76
859.32	1885.56
859.50	1829.45
859.68	1892.12
859.86	1763.30
860.03	1888.23
860.21	1934.31
860.39	1779.07
860.57	1893.76
860.75	1916.08
860.93	2069.27
861.10	1992.67
861.28	1793.41
861.46	1909.32
861.64	1927.75
861.82	1814.91
861.99	1884.54
862.17	1992.26
862.35	1989.40
862.53	1827.40
862.71	1841.33
862.88	1894.78
863.06	1960.32
863.24	1798.53
863.42	1762.48
863.60	1859.97
863.77	1953.35
863.95	1638.17
864.13	1834.57
864.31	1800.57
864.49	1957.86
864.66	1703.09
864.84	1804.47
865.02	1885.97
865.20	2233.31
865.37	1874.51
865.55	1778.87
865.73	1732.58
865.91	1966.25
866.09	1910.96
866.26	1877.78
866.44	1959.09
866.62	1868.98
866.80	1734.42
866.97	1860.58
867.15	1865.09
867.33	1904.82
867.51	1922.63
867.68	1845.42
867.86	1823.31
868.04	1799.14
868.22	1676.26
868.39	1776.00
868.57	1914.03
868.75	2033.22
868.93	1679.33
869.10	1765.76
869.28	2114.12
869.46	1997.79
869.64	1818.80
869.81	1840.10
869.99	1904.20
870.17	1879.42
870.35	1791.36
870.52	1762.69
870.70	2007.01
870.88	1777.64
871.05	1745.48
871.23	1627.52
871.41	1854.64
871.59	1883.31
871.76	1813.68
871.94	1759.00
872.12	1876.55
872.29	1699.61
872.47	1784.40
872.65	1741.18
872.83	1898.88
873.00	2060.26
873.18	1812.86
873.36	1777.64
873.53	1957.65
873.71	1703.09
873.89	1763.92
874.06	1840.30
874.24	1916.49
874.42	2036.50
874.60	1920.79
874.77	1879.22
874.95	1770.88
875.13	1975.68
875.30	1734.42
875.48	1792.79
875.66	2058.21
875.83	1761.05
876.01	1816.34
876.19	1954.38
876.36	1747.74
876.54	1887.61
876.72	1734.42
876.89	1883.11
877.07	1963.18
877.25	1683.43
877.42	1871.02
877.60	1833.96
877.78	2086.06
877.95	1817.16
878.13	1791.36
878.31	1894.58
878.48	1963.18
878.66	1970.76
878.84	1772.52
879.01	1839.49
879.19	1904.00
879.37	1934.10
879.54	1797.09
879.72	1730.94
879.90	1657.83
880.07	1937.79
880.25	1586.77
880.42	1925.30
880.60	1909.12
880.78	1958.88
880.95	1808.36
881.13	1833.55
881.31	1862.22
881.48	1768.63
881.66	1789.31
881.83	1854.85
882.01	1767.19
882.19	1713.33
882.36	1831.70
882.54	1825.35
882.72	1933.49
882.89	1883.11
883.07	1725.62
883.24	1793.20
883.42	1957.45
883.60	1877.58
883.77	1749.17
883.95	1785.21
884.12	1959.70
884.30	1880.65
884.48	1961.75
884.65	1815.11
884.83	1878.81
885.00	1912.19
885.18	1679.95
885.36	1789.31
885.53	1928.16
885.71	2031.58
885.88	1712.31
886.06	1792.18
886.23	1938.20
886.41	1833.55
886.59	1797.91
886.76	1789.72
886.94	1931.23
887.11	2246.83
887.29	1841.74
887.47	1710.46
887.64	2012.33
887.82	2017.04
887.99	1648.61
888.17	1852.39
888.34	1835.59
888.52	1742.62
888.69	1845.42
888.87	1749.58
889.05	1809.18
889.22	1831.50
889.40	1760.84
889.57	1961.54
889.75	2069.47
889.92	1832.73
890.10	1729.51
890.27	1822.28
890.45	1786.65
890.62	1685.27
890.80	1751.83
890.98	1675.65
891.15	2048.58
891.33	1997.38
891.50	1761.66
891.68	1695.72
891.85	1963.18
892.03	1949.05
892.20	1782.96
892.38	1722.75
892.55	1956.22
892.73	1954.79
892.90	1743.23
893.08	1792.59
893.25	1793.61
893.43	1798.73
893.60	1915.87
893.78	1662.95
893.95	1921.81
894.13	1868.77
894.30	1733.20
894.48	1819.01
894.65	1967.89
894.83	1883.31
895.00	1653.12
895.18	1659.26
895.35	1992.06
895.53	1927.75
895.70	1728.08
895.88	1921.20
896.05	1917.72
896.23	1733.81
896.40	1770.06
896.58	1861.81
896.75	1963.80
896.93	2033.43
897.10	1771.08
897.28	1705.14
897.45	1905.63
897.63	1953.76
897.80	1930.01
897.98	1834.78
898.15	1875.32
898.33	1769.24
898.50	1864.47
898.67	1822.08
898.85	1863.65
899.02	1921.61
899.20	1956.22
899.37	1815.93
899.55	1873.89
899.72	2031.59
899.90	1756.54
900.07	1757.57
900.25	1936.76
900.42	2019.30
900.59	1803.44
900.77	1892.94
900.94	1932.05
901.12	1890.28
901.29	1793.00
901.47	1911.98
901.64	1943.52
901.82	1872.87
901.99	1609.29
902.16	1740.98
902.34	2022.78
902.51	1894.17
902.69	1777.23
902.86	1824.94
903.03	2301.30
903.21	1862.83
903.38	1838.05
903.56	1769.85
903.73	1992.47
903.91	1824.94
904.08	1718.04
904.25	1657.01
904.43	1800.16
904.60	1976.90
904.78	1817.37
904.95	1736.27
905.12	1803.85
905.30	2068.65
905.47	1880.44
905.65	1917.10
905.82	1857.51
905.99	1913.21
906.17	1864.27
906.34	1738.73
906.52	1792.79
906.69	1950.49
906.86	1906.45
907.04	1847.88
907.21	1967.89
907.38	1986.73
907.56	1761.87
907.73	1763.10
907.91	2076.85
908.08	2010.29
908.25	1764.73
908.43	1755.72
908.60	1904.00
908.77	1893.35
908.95	1755.11
909.12	1734.42
909.30	1929.39
909.47	1690.39
909.64	1828.22
909.82	1931.23
909.99	1858.74
910.16	1882.49
910.34	1765.76
910.51	1787.88
910.68	1887.41
910.86	1859.35
911.03	1720.70
911.20	1797.71
911.38	2097.53
911.55	2423.36
911.72	2495.65
911.90	2411.48
912.07	2640.65
912.24	2764.76
912.42	2302.53
912.59	2113.30
912.76	2244.98
912.94	2120.88
913.11	1978.13
913.28	1896.62
913.46	1829.86
913.63	1960.93
913.80	2130.30
913.98	1857.51
914.15	2043.67
914.32	2064.15
914.49	1907.48
914.67	1786.65
914.84	1908.71
915.01	1960.93
915.19	1882.08
915.36	1803.85
915.53	2009.67
915.71	1937.99
915.88	1884.75
916.05	1787.47
916.22	2019.91
916.40	1886.79
916.57	1752.86
916.74	1856.28
916.92	2054.73
917.09	1766.78
917.26	1730.12
917.43	1720.50
917.61	1805.28
917.78	1691.62
917.95	1604.38
918.13	1713.13
918.30	2160.20
918.47	1887.41
918.64	1737.50
918.82	1745.07
918.99	1847.27
919.16	2079.51
919.33	1807.54
919.51	1754.09
919.68	1863.24
919.85	2020.53
920.02	1688.76
920.20	1803.44
920.37	2085.86
920.54	2000.87
920.71	1732.38
920.89	1803.85
921.06	2086.06
921.23	1753.06
921.40	1716.40
921.58	1893.14
921.75	2308.27
921.92	1862.01
922.09	1930.42
922.27	1922.02
922.44	1928.57
922.61	1957.65
922.78	1837.03
922.96	1805.08
923.13	1837.85
923.30	1990.63
923.47	1697.56
923.64	1754.70
923.82	1920.79
923.99	1886.59
924.16	1864.06
924.33	1676.88
924.50	1868.36
924.68	2064.35
924.85	1727.46
925.02	1767.40
925.19	1966.46
925.36	1894.37
925.54	1860.17
925.71	1808.15
925.88	2257.48
926.05	1835.18
926.22	1752.65
926.40	1834.37
926.57	1906.25
926.74	1992.06
926.91	1787.47
927.08	1945.98
927.26	1992.06
927.43	1858.53
927.60	1766.37
927.77	1814.71
927.94	2080.53
928.11	2008.85
928.29	1695.72
928.46	1838.87
928.63	1773.75
928.80	1828.22
928.97	1891.91
929.14	1725.62
929.32	2148.11
929.49	1886.38
929.66	1749.37
929.83	1701.66
930.00	1797.30
930.17	1919.56
930.35	1709.85
930.52	1803.85
930.69	2041.62
930.86	1731.35
931.03	1838.26
931.20	1638.99
931.37	2003.94
931.55	1871.84
931.72	1854.44
931.89	1701.66
932.06	1740.36
932.23	2048.38
932.40	1884.75
932.57	1862.42
932.74	2030.77
932.92	2040.60
933.09	1916.69
933.26	1574.07
933.43	1824.74
933.60	1909.94
933.77	1839.69
933.94	1848.50
934.11	1827.40
934.29	1908.71
934.46	1700.22
934.63	1855.66
934.80	1713.13
934.97	1819.01
935.14	1784.60
935.31	1680.97
935.48	1772.93
935.65	1902.77
935.82	1847.68
936.00	1720.09
936.17	2053.09
936.34	1851.57
936.51	1910.96
936.68	1708.83
936.85	1903.59
937.02	1888.64
937.19	1874.92
937.36	1790.95
937.53	1903.79
937.70	1999.23
937.87	1832.32
938.05	1887.41
938.22	1898.26
938.39	1739.34
938.56	1799.35
938.73	1742.21
938.90	1839.90
939.07	1822.90
939.24	1826.79
939.41	1665.82
939.58	1911.78
939.75	1913.01
939.92	1743.03
940.09	1934.72
940.26	1825.56
940.43	1997.38
940.60	1773.13
940.77	1798.94
940.95	1898.67
941.12	1956.01
941.29	1769.65
941.46	1808.56
941.63	2018.68
941.80	2069.68
941.97	1660.29
942.14	1690.19
942.31	1945.57
942.48	1862.22
942.65	1884.75
942.82	1824.33
942.99	1927.96
943.16	1883.31
943.33	1705.14
943.50	1772.11
943.67	1970.15
943.84	2030.97
944.01	1806.51
944.18	1733.81
944.35	2048.99
944.52	1788.29
944.69	1865.09
944.86	1711.08
945.03	1958.06
945.20	2193.37
945.37	1620.97
945.54	1792.59
945.71	2034.86
945.88	2070.50
946.05	1713.33
946.22	1710.26
946.39	2042.85
946.56	1871.84
946.73	1695.92
946.90	1728.49
947.07	1807.95
947.24	1834.16
947.41	1648.21
947.58	1890.28
947.75	1961.54
947.92	1915.47
948.09	1584.72
948.26	1664.38
948.43	1882.29
948.60	2106.34
948.77	1735.65
948.94	1782.14
949.11	1946.18
949.27	1927.14
949.44	1733.81
949.61	1769.65
949.78	1903.79
949.95	1993.90
950.12	1732.38
950.29	1706.16
950.46	1796.27
950.63	1984.48
950.80	1788.29
950.97	1805.08
951.14	1998.41
951.31	1831.09
951.48	1738.93
951.65	1699.81
951.82	2125.38
951.99	1889.46
952.15	1681.38
952.32	1771.70
952.49	1837.85
952.66	1816.34
952.83	1752.04
953.00	1723.78
953.17	1876.14
953.34	1957.65
953.51	1836.21
953.68	1782.55
953.85	1986.12
954.02	2006.80
954.18	1807.33
954.35	1824.94
954.52	1745.07
954.69	1897.03
954.86	1649.84
955.03	1814.71
955.20	1962.36
955.37	1823.72
955.54	1759.00
955.71	1749.99
955.87	1920.99
956.04	2098.96
956.21	1782.35
956.38	1731.76
956.55	1878.19
956.72	2191.94
956.89	1842.76
957.06	1760.43
957.23	1801.80
957.39	2035.89
957.56	1765.55
957.73	1730.94
957.90	1633.87
958.07	2090.77
958.24	1816.96
958.41	1769.65
958.57	1959.91
958.74	1882.29
958.91	1709.64
959.08	1786.44
959.25	1961.75
959.42	1855.66
959.59	1860.99
959.75	1780.09
959.92	2032.61
960.09	1990.83
960.26	1760.84
960.43	1821.67
960.60	1910.55
960.76	1845.22
960.93	1673.19
961.10	1816.75
961.27	1992.88
961.44	1815.52
961.61	1703.30
961.77	1724.39
961.94	1889.46
962.11	1972.60
962.28	1775.38
962.45	1693.47
962.62	1843.99
962.78	1997.79
962.95	1716.40
963.12	1769.65
963.29	1942.09
963.46	2232.29
963.62	1852.39
963.79	1752.65
963.96	2176.79
964.13	1860.78
964.30	1847.06
964.46	1773.34
964.63	1752.65
964.80	2208.12
964.97	1610.93
965.14	1846.65
965.30	1928.78
965.47	1978.13
965.64	1919.56
965.81	1859.56
965.98	2092.61
966.14	1874.10
966.31	1798.53
966.48	1784.40
966.65	2058.21
966.81	1927.55
966.98	1787.26
967.15	1813.68
967.32	1902.97
967.49	1783.58
967.65	1638.58
967.82	1621.99
967.99	1826.79
968.16	1686.30
968.32	1921.81
968.49	1777.23
968.66	1842.35
968.83	2071.52
968.99	1811.84
969.16	1711.08
969.33	2022.16
969.50	1934.72
969.66	1870.21
969.83	1975.88
970.00	1981.61
970.17	1929.19
970.33	1770.26
970.50	1702.68
970.67	2073.57
970.84	2038.96
971.00	1721.32
971.17	1704.93
971.34	1949.87
971.50	1873.89
971.67	1880.65
971.84	1825.35
972.01	1741.59
972.17	1628.95
972.34	1724.80
972.51	1871.23
972.67	1996.77
972.84	1904.61
973.01	1731.35
973.18	1745.69
973.34	1990.63
973.51	1756.34
973.68	1780.71
973.84	1802.21
974.01	1841.74
974.18	2078.48
974.34	1828.02
974.51	1854.44
974.68	1791.56
974.85	2126.00
975.01	1904.82
975.18	1811.63
975.35	1882.70
975.51	1757.36
975.68	1658.65
975.85	1919.56
976.01	1813.48
976.18	2064.35
976.35	1774.77
976.51	1754.09
976.68	2073.77
976.85	2010.90
977.01	1824.54
977.18	1879.63
977.35	1943.93
977.51	1740.36
977.68	1614.00
977.85	1681.38
978.01	1963.80
978.18	1934.51
978.35	1807.13
978.51	1816.55
978.68	1985.71
978.85	2067.83
979.01	1747.94
979.18	1808.56
979.34	1832.11
979.51	1862.01
979.68	1730.53
979.84	1833.75
980.01	2192.56
980.18	1884.75
980.34	1744.25
980.51	1844.20
980.67	1958.47
980.84	1982.23
981.01	1804.87
981.17	1873.89
981.34	1674.62
981.51	1966.66
981.67	1706.98
981.84	1873.48
982.00	1939.63
982.17	1862.01
982.34	1679.54
982.50	1581.85
982.67	2074.80
982.83	1823.92
983.00	1707.39
983.17	1598.64
983.33	2009.06
983.50	1693.26
983.66	1672.17
983.83	1587.38
984.00	1838.87
984.16	1873.28
984.33	1615.64
984.49	1606.84
984.66	1764.33
984.83	1972.19
984.99	1646.57
985.16	1582.26
985.32	1930.62
985.49	1958.88
985.65	1730.74
985.82	1610.52
985.99	2048.17
986.15	1888.64
986.32	1696.74
986.48	1662.75
986.65	1837.85
986.81	1969.12
986.98	1626.09
987.14	1673.40
987.31	1872.66
987.48	1702.07
987.64	1542.53
987.81	1580.42
987.97	2127.63
988.14	1782.96
988.30	1621.99
988.47	1501.98
988.63	1908.30
988.80	1751.83
988.96	1687.53
989.13	1710.87
989.30	1833.75
989.46	1975.88
989.63	1578.78
989.79	1579.80
989.96	1853.41
990.12	2058.62
990.29	1646.36
990.45	1682.82
990.62	1893.14
990.78	2030.36
990.95	1736.88
991.11	1640.01
991.28	1827.61
991.44	1904.61
991.61	1557.89
991.77	1685.89
991.94	1889.66
992.10	2013.36
992.27	1698.38
992.43	1693.06
992.60	1926.11
992.76	1814.91
992.93	1774.97
993.09	1611.96
993.26	1999.23
993.42	2093.02
993.59	1647.80
993.75	1574.68
993.92	1768.42
994.08	1771.29
994.25	1708.62
994.41	1614.62
994.58	1942.09
994.74	2041.21
994.91	1642.06
995.07	1699.40
995.24	1814.50
995.40	1863.24
995.56	1763.51
995.73	1718.04
995.89	2086.68
996.06	1845.63
996.22	1621.79
996.39	1581.85
996.55	1836.62
996.72	1908.30
996.88	1550.31
997.05	1625.06
997.21	2130.71
997.37	1936.35
997.54	1708.62
997.70	1680.36
997.87	1916.49
998.03	1851.36
998.20	1548.88
998.36	1585.33
998.52	1953.56
998.69	1970.56
998.85	1573.04
999.02	1672.99
999.18	1992.06
999.35	1966.25
999.51	1686.91
999.67	1655.58
999.84	1737.70
1000.00	1936.56
1000.17	1714.76
1000.33	1616.26
1000.49	1774.36
1000.66	1854.03
1000.82	1639.60
1000.99	1701.86
1001.15	2026.67
1001.31	1816.96
1001.48	1671.55
1001.64	1722.55
1001.81	1841.53
1001.97	2126.82
1002.13	1655.99
1002.30	1654.76
1002.46	2050.22
1002.63	1816.14
1002.79	1711.08
1002.95	1661.72
1003.12	1995.95
1003.28	1924.48
1003.45	1621.17
1003.61	1590.25
1003.77	1890.89
1003.94	1725.82
1004.10	1672.58
1004.26	1720.09
1004.43	1952.33
1004.59	2069.47
1004.75	1658.85
1004.92	1623.42
1005.08	1819.42
1005.25	1887.41
1005.41	1633.66
1005.57	1717.84
1005.74	2008.85
1005.90	1841.74
1006.06	1728.28
1006.23	1633.87
1006.39	1951.92
1006.55	2196.45
1006.72	1803.44
1006.88	1607.66
1007.04	1744.66
1007.21	1860.99
1007.37	1677.29
1007.53	1661.31
1007.70	2045.51
1007.86	1953.56
1008.02	1710.46
1008.19	1609.29
1008.35	1872.87
1008.51	1757.57
1008.68	1670.73
1008.84	1572.02
1009.00	1763.30
1009.17	1998.82
1009.33	1795.86
1009.49	1714.35
1009.65	1791.56
1009.82	1915.26
1009.98	1731.97
1010.14	1561.17
1010.31	1943.93
1010.47	1965.64
1010.63	1726.03
1010.80	1701.86
1010.96	1945.16
1011.12	1842.15
1011.28	1661.31
1011.45	1640.63
1011.61	2181.50
1011.77	1758.18
1011.94	1635.92
1012.10	1612.37
1012.26	1755.52
1012.42	1808.56
1012.59	1705.75
1012.75	1706.98
1012.91	1854.23
1013.07	1984.69
1013.24	1596.19
1013.40	1642.68
1013.56	1868.98
1013.72	1845.63
1013.89	1722.34
1014.05	1753.88
1014.21	2108.79
1014.37	2165.73
1014.54	1677.90
1014.70	1627.52
1014.86	1838.67
1015.02	1729.51
1015.19	1673.19
1015.35	1593.93
1015.51	1845.02
1015.67	1837.23
1015.84	1638.38
1016.00	1642.88
1016.16	2012.54
1016.32	1968.51
1016.49	1632.85
1016.65	1606.43
1016.81	1863.04
1016.97	1921.81
1017.14	1745.28
1017.30	1659.88
1017.46	1808.56
1017.62	1890.07
1017.78	1716.40
1017.95	1609.50
1018.11	1981.20
1018.27	2178.42
1018.43	1752.04
1018.59	1683.43
1018.76	1978.95
1018.92	2194.60
1019.08	1611.55
1019.24	1635.10
1019.40	2036.91
1019.57	1893.96
1019.73	1703.91
1019.89	1648.61
1020.05	1904.61
1020.21	2146.27
1020.38	1630.59
1020.54	1800.16
1020.70	1960.52
1020.86	1955.81
1021.02	1651.48
1021.18	1646.16
1021.35	1800.98
1021.51	1936.15
1021.67	1794.02
1021.83	1661.52
1021.99	1881.26
1022.15	1901.13
1022.32	1714.76
1022.48	1713.74
1022.64	2059.23
1022.80	2058.21
1022.96	1681.38
1023.12	1592.71
1023.29	1976.09
1023.45	1937.99
1023.61	1628.75
1023.77	1814.91
1023.93	1935.13
1024.09	1769.65
1024.25	1627.32
1024.42	1594.34
1024.58	1815.11
1024.74	1913.01
1024.90	1634.89
1025.06	1709.64
1025.22	1785.62
1025.38	2072.13
1025.54	1589.84
1025.71	1732.79
1025.87	1957.65
1026.03	1925.71
1026.19	1634.48
1026.35	1758.80
1026.51	1965.23
1026.67	1857.10
1026.83	1696.95
1026.99	1746.10
1027.16	1928.78
1027.32	1853.62
1027.48	1671.55
1027.64	1610.93
1027.80	1969.53
1027.96	1886.79
1028.12	1653.33
1028.28	1631.62
1028.44	1898.67
1028.60	2055.75
1028.77	1778.25
1028.93	1678.52
1029.09	1846.86
1029.25	1738.93
1029.41	1698.18
1029.57	1746.30
1029.73	1900.31
1029.89	2043.46
1030.05	1769.44
1030.21	1707.60
1030.37	2159.99
1030.53	1954.17
1030.69	1662.95
1030.85	1589.63
1031.02	1770.26
1031.18	1863.04
1031.34	1665.61
1031.50	1727.67
1031.66	1780.50
1031.82	2053.09
1031.98	1700.84
1032.14	1621.79
1032.30	1761.05
1032.46	1993.70
1032.62	1782.76
1032.78	1606.02
1032.94	1796.07
1033.10	1845.22
1033.26	1731.56
1033.42	1778.87
1033.58	2126.82
1033.74	1795.66
1033.90	1636.94
1034.06	1824.94
1034.22	2135.83
1034.38	2029.13
1034.54	1687.94
1034.70	1702.68
1034.86	2102.85
>>>>>End Processed Spectral Data<<<<<
