SpectraSuite Data File
++++++++++++++++++++++++++++++++++++
Date: Thu Mar 30 14:15:27 PDT 2017
User: UCSD _CER
Dark Spectrum Present: No
Reference Spectrum Present: No
Number of Sampled Component Spectra: 1
Spectrometers: USB4C00073
Integration Time (usec): 380000 (USB4C00073)
Spectra Averaged: 10 (USB4C00073)
Boxcar Smoothing: 0 (USB4C00073)
Correct for Electrical Dark: No (USB4C00073)
Strobe/Lamp Enabled: No (USB4C00073)
Correct for Detector Non-linearity: No (USB4C00073)
Correct for Stray Light: No (USB4C00073)
Number of Pixels in Processed Spectrum: 3648
>>>>>Begin Processed Spectral Data<<<<<
345.37	1229.19
345.58	1229.19
345.80	1229.19
346.01	1210.76
346.22	1232.88
346.43	2013.15
346.65	1859.97
346.86	2376.67
347.07	2309.70
347.28	1815.73
347.50	1802.21
347.71	2090.36
347.92	1820.64
348.13	1786.03
348.35	1754.70
348.56	2094.66
348.77	1889.25
348.98	1826.17
349.20	1657.01
349.41	2086.06
349.62	2210.37
349.83	1882.49
350.05	1796.89
350.26	2148.73
350.47	2297.62
350.68	1791.97
350.90	1718.04
351.11	2359.26
351.32	2285.94
351.53	1840.10
351.75	1752.86
351.96	2118.42
352.17	2066.20
352.38	1862.42
352.60	1877.99
352.81	2069.68
353.02	2373.19
353.23	1787.26
353.44	1808.15
353.66	2015.00
353.87	2018.07
354.08	1875.12
354.29	1776.00
354.51	1969.12
354.72	2026.67
354.93	1749.58
355.14	1769.04
355.35	1801.80
355.57	2200.54
355.78	1807.13
355.99	1878.81
356.20	2051.25
356.42	2030.77
356.63	1882.29
356.84	1788.29
357.05	2221.23
357.26	2454.29
357.48	1926.93
357.69	1864.27
357.90	2159.99
358.11	2033.02
358.32	1812.04
358.54	1857.51
358.75	2034.45
358.96	2198.29
359.17	1822.08
359.38	1834.16
359.60	2169.00
359.81	2032.40
360.02	1832.11
360.23	1732.79
360.44	1963.80
360.66	2198.70
360.87	1790.33
361.08	1765.76
361.29	2158.56
361.50	2078.69
361.72	1782.76
361.93	1908.91
362.14	2073.98
362.35	1829.86
362.56	1968.92
362.77	1704.52
362.99	2168.18
363.20	2070.09
363.41	1902.36
363.62	1688.96
363.83	2156.31
364.05	2215.90
364.26	1732.99
364.47	1763.51
364.68	2257.48
364.89	1946.18
365.10	1717.43
365.32	1851.16
365.53	1935.94
365.74	1956.22
365.95	1805.69
366.16	1683.23
366.37	2058.21
366.59	2023.60
366.80	1805.90
367.01	1673.80
367.22	2393.26
367.43	2541.12
367.64	1850.13
367.86	1804.26
368.07	2146.07
368.28	2264.64
368.49	1710.05
368.70	1808.77
368.91	1999.23
369.12	2081.56
369.34	1737.91
369.55	1717.02
369.76	2061.08
369.97	1997.59
370.18	1718.45
370.39	1776.61
370.60	1844.81
370.82	1904.20
371.03	1818.19
371.24	1770.67
371.45	2183.95
371.66	2176.17
371.87	1798.12
372.08	1815.73
372.30	1931.03
372.51	2249.49
372.72	1962.36
372.93	1813.68
373.14	2371.55
373.35	1980.59
373.56	1732.79
373.78	1808.15
373.99	2191.12
374.20	2561.19
374.41	1809.18
374.62	1791.15
374.83	2289.22
375.04	2011.11
375.25	1830.68
375.47	1829.04
375.68	1994.31
375.89	2223.48
376.10	1835.80
376.31	1898.47
376.52	2152.42
376.73	2117.19
376.94	1863.65
377.15	1767.81
377.37	2065.79
377.58	2054.73
377.79	1710.46
378.00	1746.30
378.21	2119.24
378.42	2179.04
378.63	1855.87
378.84	1920.79
379.05	2246.83
379.27	2109.61
379.48	1899.29
379.69	1774.16
379.90	2291.68
380.11	1759.21
380.32	1812.25
380.53	1942.50
380.74	2306.83
380.95	2065.58
381.16	1863.04
381.37	1838.26
381.59	2353.12
381.80	2227.78
382.01	1771.29
382.22	1723.78
382.43	2134.39
382.64	2093.64
382.85	1742.21
383.06	1884.34
383.27	2156.72
383.48	2026.87
383.69	1837.23
383.91	1738.52
384.12	2170.44
384.33	2187.85
384.54	1882.90
384.75	1793.20
384.96	2632.66
385.17	2280.62
385.38	1825.97
385.59	1795.45
385.80	2203.82
386.01	2309.90
386.22	1927.55
386.43	1825.97
386.64	2500.57
386.86	2024.83
387.07	1915.06
387.28	1749.99
387.49	2005.58
387.70	2273.04
387.91	1941.06
388.12	1826.79
388.33	2139.51
388.54	2008.24
388.75	1771.49
388.96	1902.15
389.17	1978.95
389.38	2059.23
389.59	1874.10
389.80	1907.07
390.01	2046.33
390.22	2010.90
390.43	1904.82
390.64	1693.67
390.86	2163.06
391.07	2269.76
391.28	1811.22
391.49	1860.58
391.70	1872.66
391.91	1950.90
392.12	1806.92
392.33	1888.84
392.54	2106.13
392.75	2054.11
392.96	1927.34
393.17	1792.18
393.38	2469.03
393.59	2269.35
393.80	1733.61
394.01	1819.42
394.22	2034.86
394.43	2364.58
394.64	1741.80
394.85	1900.31
395.06	2063.33
395.27	2062.51
395.48	1822.08
395.69	1693.87
395.90	2034.86
396.11	2039.37
396.32	1801.80
396.53	1918.95
396.74	2047.56
396.95	2246.62
397.16	1787.88
397.37	1700.02
397.58	2198.49
397.79	2057.80
398.00	1890.07
398.21	1843.38
398.42	2111.46
398.63	2424.79
398.84	1800.78
399.05	1777.02
399.26	2283.69
399.47	2138.49
399.68	1676.47
399.89	1751.42
400.10	1897.24
400.31	2006.80
400.52	1818.60
400.73	1791.36
400.94	1858.33
401.15	2150.98
401.36	1828.02
401.57	1867.34
401.78	2284.71
401.99	2249.69
402.20	1761.05
402.41	1954.38
402.62	2306.42
402.83	2032.20
403.04	1768.42
403.25	2015.41
403.46	2133.78
403.67	2284.51
403.88	1817.98
404.09	1760.23
404.30	1958.27
404.51	1928.57
404.72	1740.36
404.93	1973.83
405.14	1938.20
405.35	2081.76
405.56	1867.95
405.77	1786.03
405.98	2091.59
406.19	2050.43
406.40	1757.36
406.61	1801.39
406.82	2003.32
407.03	2499.75
407.24	1770.26
407.45	1841.94
407.66	2152.82
407.87	2228.39
408.08	1898.67
408.29	1899.90
408.49	2187.44
408.70	2056.98
408.91	1800.37
409.12	1952.94
409.33	1926.73
409.54	2308.68
409.75	1772.31
409.96	1831.29
410.17	2189.48
410.38	2038.96
410.59	1807.74
410.80	1925.09
411.01	2065.99
411.22	2035.48
411.43	1915.26
411.64	1785.01
411.85	1906.25
412.06	1916.49
412.27	1625.88
412.47	1773.34
412.68	2032.20
412.89	2133.37
413.10	1813.68
413.31	1719.06
413.52	2389.77
413.73	2376.67
413.94	1762.48
414.15	1931.03
414.36	1984.89
414.57	1913.01
414.78	1745.28
414.99	1731.35
415.19	2137.26
415.40	2064.35
415.61	1986.73
415.82	1870.41
416.03	2179.86
416.24	2121.70
416.45	1855.46
416.66	1741.59
416.87	1833.96
417.08	2163.47
417.29	1757.77
417.50	1855.25
417.70	2137.06
417.91	2103.67
418.12	1858.12
418.33	1802.62
418.54	2121.70
418.75	2229.21
418.96	1929.39
419.17	1891.71
419.38	2254.20
419.59	2147.50
419.79	1893.96
420.00	1831.70
420.21	2560.37
420.42	2074.80
420.63	1794.84
420.84	1893.55
421.05	2049.61
421.26	2098.55
421.47	1755.93
421.67	2173.92
421.88	1917.51
422.09	1884.13
422.30	2035.89
422.51	1835.18
422.72	2409.44
422.93	2233.51
423.14	1887.82
423.35	1710.87
423.55	1825.56
423.76	1956.83
423.97	1831.29
424.18	1713.13
424.39	2003.73
424.60	2241.50
424.81	1832.11
425.02	1915.47
425.22	2026.87
425.43	1990.01
425.64	2011.11
425.85	1868.57
426.06	2435.85
426.27	2211.81
426.48	1956.22
426.68	1900.31
426.89	2235.15
427.10	2397.35
427.31	1860.99
427.52	1809.38
427.73	2201.57
427.94	2151.19
428.14	1995.54
428.35	1875.32
428.56	2302.74
428.77	2235.36
428.98	1881.67
429.19	1867.95
429.40	1997.18
429.60	2029.33
429.81	1942.29
430.02	1881.06
430.23	2033.43
430.44	2196.45
430.65	1808.15
430.85	1837.64
431.06	2140.95
431.27	1834.78
431.48	1850.13
431.69	1857.10
431.90	2080.74
432.10	2086.47
432.31	1920.18
432.52	1841.12
432.73	2498.52
432.94	2335.09
433.15	2014.38
433.35	1805.08
433.56	2275.50
433.77	2079.71
433.98	2083.40
434.19	1954.38
434.40	2243.34
434.60	2259.11
434.81	2104.49
435.02	2010.08
435.23	2139.51
435.44	2055.34
435.64	1787.67
435.85	1782.14
436.06	2029.33
436.27	2006.39
436.48	1757.77
436.68	1803.03
436.89	2427.05
437.10	2252.97
437.31	1930.42
437.52	2015.00
437.73	2182.93
437.93	2170.23
438.14	1924.48
438.35	1728.08
438.56	2006.19
438.77	2022.57
438.97	2024.83
439.18	1812.25
439.39	2262.19
439.60	1918.74
439.80	1791.56
440.01	1837.64
440.22	2011.51
440.43	2190.10
440.64	1794.23
440.84	1895.19
441.05	1907.27
441.26	2529.24
441.47	1924.07
441.68	1867.54
441.88	2193.99
442.09	2199.72
442.30	2177.20
442.51	2192.96
442.71	2227.17
442.92	2261.98
443.13	1931.03
443.34	1886.79
443.55	1952.12
443.75	2182.52
443.96	1829.86
444.17	1771.29
444.38	2262.39
444.58	1917.92
444.79	1941.27
445.00	1897.85
445.21	2022.78
445.41	2018.07
445.62	1666.02
445.83	1966.05
446.04	2088.72
446.24	1862.42
446.45	1666.43
446.66	1832.52
446.87	2118.83
447.07	1999.84
447.28	2078.89
447.49	1858.94
447.70	2218.97
447.90	2242.73
448.11	1903.79
448.32	1965.03
448.53	2292.70
448.73	2326.08
448.94	1836.62
449.15	1999.02
449.36	2051.04
449.56	2142.79
449.77	1837.85
449.98	1749.37
450.19	1985.10
450.39	1996.16
450.60	1924.27
450.81	1912.19
451.02	2047.76
451.22	2322.81
451.43	1771.70
451.64	1828.22
451.84	1984.69
452.05	2244.98
452.26	1870.00
452.47	1869.80
452.67	2003.53
452.88	2308.06
453.09	1753.68
453.30	1780.09
453.50	2210.17
453.71	2419.47
453.92	1964.21
454.12	2130.50
454.33	2125.38
454.54	2168.39
454.75	1869.59
454.95	1862.22
455.16	2138.69
455.37	2156.10
455.57	1959.29
455.78	1896.01
455.99	2066.81
456.19	2070.91
456.40	1791.36
456.61	1902.15
456.82	2076.44
457.02	2277.55
457.23	2028.31
457.44	2165.93
457.64	2153.03
457.85	2310.72
458.06	1977.11
458.26	2061.89
458.47	2108.18
458.68	2243.55
458.89	1817.16
459.09	2039.98
459.30	2442.82
459.51	2054.11
459.71	1721.73
459.92	1814.91
460.13	2214.67
460.33	2490.94
460.54	1918.13
460.75	1929.80
460.95	1923.25
461.16	2161.02
461.37	1892.12
461.57	1869.39
461.78	2126.00
461.99	1869.80
462.19	2114.53
462.40	1791.36
462.61	2407.80
462.81	2253.79
463.02	1809.79
463.23	1858.33
463.43	2195.22
463.64	1976.70
463.85	3071.75
464.05	1818.19
464.26	2584.54
464.47	2296.39
464.67	2047.76
464.88	2001.28
465.09	2052.47
465.29	2231.06
465.50	2120.88
465.71	2020.32
465.91	2088.11
466.12	2096.51
466.33	1954.38
466.53	1830.88
466.74	2325.47
466.94	2067.83
467.15	1924.48
467.36	2068.24
467.56	1918.54
467.77	2119.85
467.98	1888.64
468.18	1864.27
468.39	2001.89
468.60	2391.21
468.80	1872.05
469.01	1798.32
469.21	2174.74
469.42	2258.30
469.63	1884.13
469.83	1783.17
470.04	2179.24
470.25	2324.03
470.45	1988.78
470.66	1830.27
470.86	2097.12
471.07	2022.37
471.28	1959.29
471.48	1957.86
471.69	2120.26
471.90	2790.97
472.10	2076.44
472.31	2045.31
472.51	2182.52
472.72	2171.05
472.93	1962.57
473.13	2075.82
473.34	2236.18
473.54	2150.78
473.75	1984.48
473.96	2121.08
474.16	2074.59
474.37	2146.48
474.57	1955.81
474.78	1812.45
474.99	2123.74
475.19	2095.89
475.40	1895.80
475.60	1891.50
475.81	2487.87
476.02	2276.11
476.22	2168.18
476.43	2214.26
476.63	2154.26
476.84	2309.70
477.05	1821.87
477.25	1876.96
477.46	2619.97
477.66	2119.65
477.87	1812.04
478.08	1865.49
478.28	2227.37
478.49	2023.39
478.69	1834.57
478.90	1858.33
479.10	2169.00
479.31	2349.84
479.52	1958.27
479.72	2010.70
479.93	2205.05
480.13	2047.15
480.34	1950.69
480.54	2014.38
480.75	1985.10
480.96	2325.47
481.16	1862.83
481.37	1964.00
481.57	2204.84
481.78	2190.51
481.98	2092.41
482.19	2008.24
482.40	2417.63
482.60	2157.74
482.81	2013.77
483.01	1784.19
483.22	2198.29
483.42	2197.68
483.63	1968.30
483.83	1927.14
484.04	2022.78
484.24	2250.51
484.45	2012.13
484.66	1829.45
484.86	2148.11
485.07	1976.90
485.27	1937.79
485.48	1856.28
485.68	2293.11
485.89	1972.40
486.09	1999.64
486.30	1856.48
486.50	2112.48
486.71	2048.38
486.91	1955.61
487.12	2186.21
487.33	2738.95
487.53	2820.05
487.74	2531.70
487.94	2392.44
488.15	2430.73
488.35	2336.53
488.56	2031.99
488.76	1949.26
488.97	2119.44
489.17	2213.04
489.38	2005.58
489.58	1928.78
489.79	2193.37
489.99	2158.56
490.20	1898.06
490.40	2007.62
490.61	2158.15
490.81	1983.46
491.02	1980.59
491.22	1963.80
491.43	2192.15
491.63	2037.73
491.84	2027.49
492.04	1790.95
492.25	2167.77
492.45	2020.12
492.66	1878.60
492.86	1802.83
493.07	2048.99
493.27	2449.58
493.48	1780.30
493.68	1845.02
493.89	2030.56
494.09	2196.45
494.30	1888.43
494.50	2127.23
494.71	2151.60
494.91	1837.44
495.12	1901.13
495.32	1958.88
495.53	2100.60
495.73	1894.17
495.94	2109.41
496.14	1937.79
496.35	2572.45
496.55	2196.86
496.76	1951.30
496.96	1976.09
497.17	2070.91
497.37	2175.15
497.58	1913.21
497.78	1832.32
497.98	2024.21
498.19	2026.67
498.39	1874.30
498.60	1908.09
498.80	1789.11
499.01	2183.54
499.21	1812.66
499.42	1947.41
499.62	2028.92
499.83	2450.80
500.03	1774.77
500.24	2000.87
500.44	2315.23
500.64	2252.56
500.85	1878.40
501.05	2006.19
501.26	1835.80
501.46	2288.40
501.67	1826.99
501.87	1790.74
502.08	1965.44
502.28	2019.09
502.48	1960.93
502.69	1988.58
502.89	1823.92
503.10	1946.59
503.30	1973.42
503.51	1932.87
503.71	1849.11
503.92	2150.16
504.12	1937.17
504.32	1847.47
504.53	2176.79
504.73	2150.98
504.94	2013.15
505.14	2109.41
505.35	2163.06
505.55	2132.96
505.75	1923.25
505.96	2067.42
506.16	2403.29
506.37	1978.54
506.57	1833.14
506.78	1992.06
506.98	2233.92
507.18	1836.82
507.39	1823.10
507.59	1907.68
507.80	1961.54
508.00	2052.88
508.20	2101.42
508.41	1901.33
508.61	2271.81
508.82	2223.48
509.02	2031.38
509.22	1811.43
509.43	1897.03
509.63	1972.40
509.84	1922.63
510.04	1762.48
510.24	2315.23
510.45	2192.76
510.65	1825.97
510.86	1914.65
511.06	1910.75
511.26	2170.44
511.47	2063.94
511.67	1843.17
511.88	2153.23
512.08	2219.38
512.28	1809.99
512.49	1987.14
512.69	2080.33
512.90	2126.82
513.10	1881.67
513.30	1935.33
513.51	2135.83
513.71	2342.88
513.91	1963.39
514.12	1984.48
514.32	2173.71
514.53	1967.89
514.73	1971.58
514.93	1915.26
515.14	2067.01
515.34	2244.57
515.54	1858.94
515.75	1946.18
515.95	2146.68
516.15	2282.67
516.36	1908.50
516.56	1990.42
516.77	1719.06
516.97	2147.50
517.17	1902.56
517.38	2012.33
517.58	2295.36
517.78	2004.55
517.99	1964.00
518.19	1902.15
518.39	2245.19
518.60	1960.52
518.80	1795.66
519.00	1967.69
519.21	2042.23
519.41	2376.46
519.61	1836.62
519.82	1981.41
520.02	2076.23
520.22	2066.81
520.43	1878.19
520.63	1947.21
520.83	1949.67
521.04	1802.42
521.24	2005.99
521.44	1892.12
521.65	1927.96
521.85	2173.51
522.05	1838.05
522.26	1863.65
522.46	2383.22
522.66	2221.23
522.87	1920.18
523.07	2084.01
523.27	1982.84
523.48	2295.16
523.68	1936.76
523.88	1976.29
524.09	2234.33
524.29	2095.28
524.49	1762.89
524.70	1990.01
524.90	2268.53
525.10	2121.70
525.31	1780.09
525.51	1812.04
525.71	2186.62
525.91	2135.01
526.12	1892.73
526.32	1830.88
526.52	1984.07
526.73	1905.84
526.93	1965.85
527.13	1805.69
527.34	2065.17
527.54	2054.93
527.74	1904.61
527.94	1816.96
528.15	1883.11
528.35	2069.88
528.55	2015.00
528.76	1935.74
528.96	1798.53
529.16	2226.76
529.36	2007.21
529.57	1811.43
529.77	2249.28
529.97	1910.35
530.18	1996.77
530.38	1886.79
530.58	2147.91
530.78	2068.86
530.99	1900.72
531.19	1992.47
531.39	1919.56
531.60	2073.57
531.80	1953.97
532.00	2058.00
532.20	2094.25
532.41	1940.66
532.61	1856.07
532.81	1896.62
533.01	1998.61
533.22	2113.30
533.42	2057.39
533.62	1767.40
533.82	2274.88
534.03	2017.45
534.23	2037.11
534.43	1863.45
534.63	1979.98
534.84	2105.93
535.04	1998.20
535.24	1926.52
535.44	2498.11
535.65	2004.55
535.85	1883.52
536.05	1861.40
536.25	2063.33
536.46	1910.75
536.66	2065.99
536.86	1970.76
537.06	2133.78
537.27	2267.92
537.47	1966.87
537.67	1883.93
537.87	2280.62
538.08	2059.64
538.28	1822.49
538.48	1827.61
538.68	2027.28
538.88	2170.23
539.09	1779.07
539.29	1920.18
539.49	2205.46
539.69	2101.63
539.90	1985.92
540.10	1824.13
540.30	2257.89
540.50	1987.35
540.70	1773.54
540.91	1885.36
541.11	2184.57
541.31	2327.72
541.51	1961.34
541.72	2003.32
541.92	2096.10
542.12	1948.44
542.32	1927.34
542.52	1882.90
542.73	1931.64
542.93	2157.54
543.13	1896.01
543.33	1992.26
543.53	2182.52
543.74	2149.75
543.94	1875.12
544.14	1972.60
544.34	2259.93
544.54	2046.13
544.75	1983.05
544.95	2078.89
545.15	2189.48
545.35	2311.13
545.55	2037.52
545.75	1934.72
545.96	2422.75
546.16	1939.02
546.36	1909.53
546.56	1939.02
546.76	2245.60
546.97	2353.94
547.17	1962.57
547.37	2010.90
547.57	2010.70
547.77	2178.42
547.97	2004.76
548.18	2016.02
548.38	2051.86
548.58	2268.94
548.78	1849.73
548.98	1911.37
549.18	2173.10
549.39	2245.19
549.59	1966.87
549.79	1947.41
549.99	2300.28
550.19	2192.76
550.39	2106.34
550.60	1948.44
550.80	2114.73
551.00	2184.98
551.20	1891.30
551.40	1909.73
551.60	2136.03
551.80	2121.29
552.01	2019.30
552.21	1969.12
552.41	2103.06
552.61	2371.14
552.81	2044.08
553.01	1844.81
553.21	2141.77
553.42	1931.85
553.62	1919.77
553.82	1846.04
554.02	2303.76
554.22	2222.05
554.42	1819.21
554.62	2025.85
554.83	2338.17
555.03	2272.22
555.23	1905.02
555.43	2165.11
555.63	2058.21
555.83	2057.18
556.03	1984.69
556.23	1821.67
556.44	2055.14
556.64	2244.37
556.84	1668.07
557.04	1901.74
557.24	2079.10
557.44	2064.97
557.64	1997.38
557.84	1866.31
558.04	1984.07
558.25	2197.27
558.45	1856.89
558.65	1963.18
558.85	2057.80
559.05	1779.68
559.25	1930.62
559.45	2018.68
559.65	2381.58
559.85	2842.58
560.05	1935.94
560.26	2009.67
560.46	2023.39
560.66	1931.03
560.86	1906.45
561.06	1853.00
561.26	2304.99
561.46	2138.90
561.66	1904.20
561.86	2043.26
562.06	1931.85
562.26	2034.45
562.47	1978.75
562.67	1814.30
562.87	2132.14
563.07	1836.62
563.27	1980.39
563.47	1958.06
563.67	2003.94
563.87	2171.05
564.07	1863.45
564.27	1924.68
564.47	2049.61
564.67	2077.46
564.87	1868.36
565.08	1990.22
565.28	1952.33
565.48	2124.97
565.68	1981.41
565.88	2049.20
566.08	2412.10
566.28	2079.10
566.48	1822.28
566.68	1939.43
566.88	2011.11
567.08	2226.76
567.28	1969.74
567.48	1913.62
567.68	2131.12
567.88	1851.36
568.08	1934.92
568.28	2098.14
568.48	2039.98
568.68	2245.80
568.89	1988.78
569.09	1785.83
569.29	2208.12
569.49	2185.59
569.69	1871.02
569.89	1830.88
570.09	1780.30
570.29	1931.44
570.49	1827.20
570.69	1889.66
570.89	2214.26
571.09	2407.39
571.29	1848.70
571.49	2117.39
571.69	2143.81
571.89	2136.24
572.09	1935.54
572.29	1975.68
572.49	2198.70
572.69	2195.01
572.89	1983.87
573.09	1679.74
573.29	2036.09
573.49	2055.96
573.69	1922.02
573.89	1984.69
574.09	1994.72
574.29	2249.69
574.49	1954.99
574.69	1865.90
574.89	1882.90
575.09	1901.33
575.29	1822.69
575.49	1946.80
575.69	2121.08
575.89	1881.26
576.09	1970.35
576.29	1965.03
576.49	1898.67
576.69	2004.14
576.89	1878.60
577.09	1946.39
577.29	1805.69
577.49	2374.21
577.69	1882.90
577.89	2055.96
578.09	2039.98
578.29	1800.16
578.49	1966.05
578.69	1856.89
578.89	2249.90
579.09	2030.15
579.29	1833.34
579.49	2057.80
579.69	1965.85
579.89	2358.65
580.09	1742.41
580.29	1751.22
580.49	1987.96
580.69	1883.11
580.89	1883.11
581.09	1906.86
581.29	1996.16
581.49	2041.42
581.69	1843.58
581.89	1861.60
582.09	1943.73
582.28	1933.49
582.48	2026.06
582.68	2042.85
582.88	2289.63
583.08	1994.72
583.28	1926.52
583.48	1942.29
583.68	1935.33
583.88	2040.60
584.08	1949.46
584.28	1986.94
584.48	2397.35
584.68	2141.15
584.88	1912.19
585.08	2134.80
585.28	2181.91
585.48	2229.83
585.68	2015.41
585.87	2089.75
586.07	2123.54
586.27	2057.18
586.47	2006.19
586.67	1929.19
586.87	2049.81
587.07	2011.72
587.27	1843.99
587.47	2002.91
587.67	2321.58
587.87	2484.19
588.07	1980.59
588.27	1864.47
588.46	2182.93
588.66	2174.53
588.86	1897.85
589.06	2003.53
589.26	2184.16
589.46	2165.32
589.66	1848.50
589.86	1832.32
590.06	2027.69
590.26	2121.08
590.46	1885.97
590.66	2022.98
590.85	1929.39
591.05	2070.09
591.25	1837.85
591.45	1897.85
591.65	2136.03
591.85	2054.73
592.05	1856.28
592.25	1981.82
592.45	2221.64
592.64	2002.30
592.84	1955.40
593.04	1853.00
593.24	2474.56
593.44	1983.25
593.64	1937.79
593.84	1988.58
594.04	1994.93
594.24	2304.37
594.43	1935.54
594.63	1937.58
594.83	2244.16
595.03	2213.65
595.23	1888.23
595.43	1821.87
595.63	1961.34
595.83	2215.29
596.02	1716.81
596.22	1930.42
596.42	2103.26
596.62	2057.59
596.82	1910.96
597.02	1970.56
597.22	2287.58
597.41	2083.81
597.61	1873.89
597.81	2034.45
598.01	2150.16
598.21	1962.57
598.41	1829.25
598.61	1831.50
598.80	2060.26
599.00	2091.80
599.20	2094.66
599.40	1901.54
599.60	1988.17
599.80	2167.98
599.99	2062.71
600.19	1937.58
600.39	2050.63
600.59	2152.01
600.79	1996.97
600.99	1950.49
601.19	2348.00
601.38	2407.59
601.58	2009.47
601.78	1720.91
601.98	2117.39
602.18	2101.42
602.37	2151.80
602.57	1958.47
602.77	2136.65
602.97	2073.77
603.17	2085.86
603.37	1993.49
603.56	2210.58
603.76	2153.23
603.96	1948.03
604.16	1996.56
604.36	2263.62
604.56	2191.94
604.75	1832.52
604.95	1974.45
605.15	2287.79
605.35	2172.69
605.55	1898.06
605.74	1870.82
605.94	2255.02
606.14	2066.20
606.34	1938.81
606.54	2002.91
606.73	1988.78
606.93	2198.90
607.13	1883.31
607.33	1994.11
607.53	2330.59
607.72	2261.57
607.92	2027.08
608.12	2100.19
608.32	2056.57
608.51	2173.92
608.71	1832.11
608.91	1992.26
609.11	2156.51
609.31	2000.87
609.50	1932.26
609.70	2152.21
609.90	2183.54
610.10	2214.67
610.29	1887.82
610.49	1838.87
610.69	2189.28
610.89	2051.45
611.09	1930.42
611.28	2094.66
611.48	2254.20
611.68	2018.89
611.88	1918.13
612.07	1850.95
612.27	2194.81
612.47	1944.96
612.67	1996.77
612.86	2076.85
613.06	2087.29
613.26	1832.73
613.46	1892.53
613.65	2013.36
613.85	2524.94
614.05	2174.53
614.25	2030.15
614.44	1961.34
614.64	2034.04
614.84	1970.15
615.04	1879.01
615.23	1889.05
615.43	2139.51
615.63	2136.24
615.83	1884.13
616.02	1780.30
616.22	2147.30
616.42	1826.79
616.62	1802.83
616.81	1942.50
617.01	2103.67
617.21	2042.03
617.41	1798.73
617.60	1951.92
617.80	2130.30
618.00	2178.42
618.19	2030.36
618.39	1944.14
618.59	2148.11
618.79	2057.18
618.98	1793.61
619.18	1943.73
619.38	2456.13
619.57	2052.27
619.77	1977.93
619.97	1904.00
620.17	1960.11
620.36	1855.46
620.56	2104.90
620.76	1805.90
620.95	1871.43
621.15	1971.99
621.35	1816.34
621.54	1919.15
621.74	2055.96
621.94	1964.62
622.14	1825.56
622.33	1822.49
622.53	2013.56
622.73	2007.83
622.92	1779.89
623.12	1918.74
623.32	2374.62
623.51	2199.52
623.71	1838.67
623.91	2105.52
624.10	1911.37
624.30	2113.50
624.50	1808.36
624.69	1794.43
624.89	2726.26
625.09	2013.77
625.29	1714.35
625.48	1830.06
625.68	2103.26
625.88	2239.45
626.07	1996.56
626.27	1866.93
626.47	1984.48
626.66	1816.14
626.86	1931.64
627.06	1908.91
627.25	2062.10
627.45	2308.88
627.64	1935.74
627.84	2112.89
628.04	1927.96
628.23	2400.01
628.43	1815.93
628.63	1831.91
628.82	1972.19
629.02	2360.08
629.22	1966.66
629.41	2088.31
629.61	2048.17
629.81	2349.84
630.00	1864.68
630.20	1818.39
630.40	2084.63
630.59	2093.43
630.79	1917.92
630.98	1869.59
631.18	2002.30
631.38	2046.13
631.57	2044.90
631.77	1797.91
631.97	2071.32
632.16	2095.89
632.36	1952.94
632.56	1975.68
632.75	2095.28
632.95	2233.51
633.14	1846.24
633.34	2110.23
633.54	1786.85
633.73	1993.49
633.93	1896.83
634.12	1765.96
634.32	2512.65
634.52	2071.93
634.71	1772.52
634.91	1974.86
635.11	1871.23
635.30	1947.82
635.50	1951.51
635.69	1831.50
635.89	2375.64
636.09	2193.58
636.28	1828.22
636.48	1825.15
636.67	2152.21
636.87	2159.99
637.07	1982.02
637.26	1866.93
637.46	2063.33
637.65	2189.07
637.85	1970.15
638.04	1879.22
638.24	1954.99
638.44	2110.84
638.63	1953.76
638.83	1882.90
639.02	2132.55
639.22	2138.28
639.42	1904.20
639.61	1944.75
639.81	2064.56
640.00	2037.11
640.20	2063.12
640.39	1982.43
640.59	2326.49
640.79	2197.88
640.98	1956.83
641.18	1866.52
641.37	1992.47
641.57	1932.05
641.76	1944.34
641.96	1700.63
642.15	2051.86
642.35	1934.92
642.55	1957.45
642.74	1794.43
642.94	2172.08
643.13	2286.35
643.33	1899.90
643.52	1869.59
643.72	1987.14
643.91	2065.79
644.11	1826.99
644.31	1866.93
644.50	1932.67
644.70	2258.91
644.89	1959.29
645.09	2002.50
645.28	2060.26
645.48	2156.92
645.67	1839.90
645.87	1759.82
646.06	1991.04
646.26	2124.56
646.45	1721.32
646.65	1720.70
646.84	2363.15
647.04	1994.72
647.24	1796.89
647.43	1903.18
647.63	2052.88
647.82	2313.80
648.02	1826.17
648.21	1903.59
648.41	2273.04
648.60	1980.18
648.80	2041.21
648.99	1944.75
649.19	1962.36
649.38	1791.97
649.58	1941.27
649.77	1994.11
649.97	2248.46
650.16	2138.69
650.36	1708.83
650.55	2084.22
650.75	2112.07
650.94	2310.72
651.14	1960.93
651.33	2005.58
651.53	2307.86
651.72	1930.62
651.92	1914.44
652.11	1758.18
652.31	2124.36
652.50	2100.60
652.70	1942.09
652.89	1793.00
653.09	2318.30
653.28	1978.95
653.48	1751.42
653.67	1766.17
653.87	2547.06
654.06	2050.22
654.25	2139.31
654.45	1894.37
654.64	1979.36
654.84	2009.06
655.03	1733.20
655.23	2078.89
655.42	2221.84
655.62	2391.00
655.81	2075.21
656.01	1907.27
656.20	2249.69
656.40	2376.87
656.59	1978.34
656.79	2096.10
656.98	2098.76
657.17	2205.46
657.37	1935.94
657.56	1883.52
657.76	2127.63
657.95	2213.65
658.15	1594.14
658.34	1950.08
658.54	2070.29
658.73	1863.45
658.92	1897.85
659.12	1957.65
659.31	2133.16
659.51	1876.76
659.70	1958.47
659.90	1860.99
660.09	2180.68
660.29	2004.96
660.48	1833.96
660.67	2075.00
660.87	1966.46
661.06	2112.68
661.26	1982.84
661.45	2008.03
661.65	2130.30
661.84	1961.54
662.03	1836.41
662.23	1890.48
662.42	2372.37
662.62	1857.51
662.81	1810.61
663.00	1879.63
663.20	2089.75
663.39	2151.19
663.59	2048.99
663.78	1893.55
663.97	2030.15
664.17	2230.24
664.36	1812.66
664.56	1866.11
664.75	2206.07
664.94	2154.46
665.14	1995.13
665.33	1902.15
665.53	2031.58
665.72	2025.65
665.91	2027.49
666.11	1948.23
666.30	2041.01
666.50	2059.03
666.69	1942.29
666.88	1868.98
667.08	2071.73
667.27	1996.77
667.47	1924.48
667.66	1857.10
667.85	2220.00
668.05	2061.49
668.24	1856.28
668.43	2114.12
668.63	1985.51
668.82	2217.95
669.02	2015.20
669.21	1881.67
669.40	1851.77
669.60	2353.53
669.79	1777.64
669.98	2541.73
670.18	1892.73
670.37	1863.24
670.56	1911.78
670.76	1977.11
670.95	2007.62
671.15	2182.52
671.34	1964.00
671.53	1954.17
671.73	1956.83
671.92	1888.84
672.11	1814.30
672.31	1862.83
672.50	2097.53
672.69	1856.07
672.89	1692.65
673.08	1877.37
673.27	2177.20
673.47	2082.37
673.66	1936.56
673.85	1797.50
674.05	2064.97
674.24	2053.50
674.43	1785.01
674.63	1975.88
674.82	2408.00
675.01	1721.11
675.21	2017.45
675.40	1900.92
675.59	1940.45
675.79	2275.91
675.98	1907.48
676.17	2062.71
676.37	2041.82
676.56	1934.92
676.75	1911.37
676.95	1930.42
677.14	1971.58
677.33	2244.16
677.52	1801.80
677.72	1882.08
677.91	2114.73
678.10	1834.57
678.30	1816.14
678.49	1824.54
678.68	2402.06
678.88	1776.41
679.07	2075.21
679.26	1903.79
679.45	2402.47
679.65	2256.66
679.84	1730.74
680.03	1762.69
680.23	1992.47
680.42	2470.46
680.61	1805.49
680.81	1841.53
681.00	2029.74
681.19	2102.85
681.38	2013.56
681.58	1962.36
681.77	1965.03
681.96	2165.32
682.15	1847.68
682.35	1987.55
682.54	2122.72
682.73	1827.61
682.93	1822.28
683.12	1830.68
683.31	2171.67
683.50	2490.94
683.70	1813.48
683.89	1937.38
684.08	1883.11
684.27	2195.42
684.47	1771.90
684.66	1921.20
684.85	2404.11
685.04	2253.99
685.24	1816.96
685.43	1893.76
685.62	1785.21
685.81	2106.75
686.01	1987.96
686.20	1802.42
686.39	1802.01
686.58	2358.85
686.78	1931.23
686.97	1916.69
687.16	2196.24
687.35	2071.11
687.55	1873.69
687.74	1947.82
687.93	1828.22
688.12	1974.24
688.32	1916.69
688.51	1750.81
688.70	2073.16
688.89	1876.55
689.08	1737.09
689.28	1821.46
689.47	2079.51
689.66	2052.27
689.85	2022.57
690.05	1828.63
690.24	1930.82
690.43	2102.24
690.62	1926.73
690.81	1873.28
691.01	2055.96
691.20	1965.85
691.39	1783.37
691.58	1930.42
691.77	2339.60
691.97	2048.38
692.16	1953.15
692.35	1880.65
692.54	1952.74
692.73	2108.79
692.93	1904.41
693.12	1935.74
693.31	2088.31
693.50	2051.45
693.69	1983.66
693.89	1847.27
694.08	2242.94
694.27	2254.40
694.46	1851.16
694.65	1884.54
694.85	2097.53
695.04	2089.54
695.23	1846.65
695.42	2085.86
695.61	2182.93
695.80	2320.96
696.00	2280.82
696.19	2314.82
696.38	2105.11
696.57	2257.27
696.76	2146.48
696.95	1987.76
697.15	2350.04
697.34	2327.11
697.53	1921.61
697.72	2029.74
697.91	2005.78
698.10	2324.03
698.30	1892.73
698.49	1901.33
698.68	2108.18
698.87	1995.75
699.06	1831.09
699.25	1905.02
699.45	2183.54
699.64	2046.13
699.83	2080.94
700.02	1871.43
700.21	2108.59
700.40	1942.91
700.59	1867.34
700.79	1916.28
700.98	2141.15
701.17	1951.51
701.36	1815.32
701.55	1846.24
701.74	2207.30
701.93	1840.51
702.12	1866.93
702.32	1813.27
702.51	2143.40
702.70	2117.19
702.89	1910.75
703.08	1884.54
703.27	2186.00
703.46	2096.30
703.65	1810.20
703.85	1786.44
704.04	1911.37
704.23	2226.76
704.42	1838.87
704.61	1813.68
704.80	2280.00
704.99	1903.18
705.18	1953.15
705.37	1907.68
705.57	2117.80
705.76	2304.37
705.95	1952.12
706.14	2303.56
706.33	2486.85
706.52	2670.55
706.71	2153.64
706.90	2032.40
707.09	2204.43
707.28	2146.68
707.47	1883.11
707.67	2028.31
707.86	1950.49
708.05	2226.35
708.24	1902.77
708.43	1982.02
708.62	1979.16
708.81	1924.68
709.00	1845.83
709.19	1846.86
709.38	2184.98
709.57	1862.01
709.76	1898.67
709.96	1833.96
710.15	2262.19
710.34	2012.95
710.53	2021.96
710.72	1904.82
710.91	2244.16
711.10	2128.45
711.29	1980.39
711.48	1877.17
711.67	1853.82
711.86	2066.20
712.05	1760.23
712.24	1787.67
712.43	2163.27
712.62	2276.73
712.81	1918.74
713.00	2056.57
713.19	1848.91
713.39	2118.01
713.58	1783.17
713.77	1935.94
713.96	2096.10
714.15	1979.98
714.34	1896.21
714.53	1740.36
714.72	2366.22
714.91	1874.51
715.10	1940.45
715.29	1787.67
715.48	2499.34
715.67	2143.40
715.86	1911.16
716.05	1846.65
716.24	1966.87
716.43	1939.22
716.62	1791.36
716.81	1758.59
717.00	1996.77
717.19	2293.11
717.38	1891.09
717.57	1895.60
717.76	1798.53
717.95	2196.24
718.14	1922.43
718.33	1929.80
718.52	1783.78
718.71	1799.14
718.90	1802.01
719.09	1826.38
719.28	2041.21
719.47	2176.58
719.66	1970.97
719.85	2004.96
720.04	1982.23
720.23	2008.85
720.42	1812.45
720.61	1972.81
720.80	1799.35
720.99	2039.78
721.18	1879.01
721.37	1813.27
721.56	1949.26
721.75	2172.08
721.94	1812.25
722.13	1846.04
722.32	1982.23
722.51	2152.21
722.70	1960.11
722.89	1984.89
723.08	2020.12
723.27	2210.17
723.46	1956.42
723.65	1925.09
723.84	1948.03
724.03	2267.51
724.22	1772.11
724.41	1918.95
724.60	1985.51
724.79	2184.57
724.98	1951.10
725.16	1874.92
725.35	2142.99
725.54	1854.23
725.73	1922.84
725.92	1937.17
726.11	1961.95
726.30	2140.95
726.49	1821.05
726.68	1868.36
726.87	2092.00
727.06	2255.63
727.25	1862.42
727.44	1998.41
727.63	2013.15
727.82	1939.22
728.01	1934.51
728.20	1964.82
728.38	2268.53
728.57	2000.66
728.76	1858.74
728.95	2040.60
729.14	1839.49
729.33	1855.46
729.52	1669.30
729.71	1817.78
729.90	1848.91
730.09	1942.50
730.28	1843.38
730.47	1850.75
730.66	2188.66
730.84	2013.36
731.03	1919.97
731.22	1923.66
731.41	2027.28
731.60	2107.36
731.79	1726.64
731.98	1775.18
732.17	2118.62
732.36	2115.96
732.55	1845.22
732.73	1750.19
732.92	2243.75
733.11	2115.35
733.30	1824.33
733.49	1761.05
733.68	2091.39
733.87	2051.25
734.06	1756.75
734.25	1769.44
734.43	1905.43
734.62	2023.19
734.81	1842.76
735.00	1823.51
735.19	1945.98
735.38	2095.69
735.57	1736.88
735.76	1935.13
735.94	2058.21
736.13	2375.23
736.32	1952.74
736.51	1898.06
736.70	2341.85
736.89	2305.19
737.08	2036.91
737.27	2209.76
737.45	2553.00
737.64	2394.08
737.83	2421.72
738.02	2406.16
738.21	2551.56
738.40	2587.61
738.59	2141.36
738.77	2168.80
738.96	2099.99
739.15	2180.06
739.34	2124.15
739.53	2039.16
739.72	2320.35
739.90	2258.30
740.09	1896.21
740.28	1937.38
740.47	2169.62
740.66	2127.02
740.85	1807.13
741.03	1890.68
741.22	1847.27
741.41	1969.74
741.60	1732.38
741.79	1947.00
741.98	2225.32
742.16	2328.54
742.35	1893.55
742.54	1916.90
742.73	2321.17
742.92	1926.32
743.10	1746.10
743.29	1832.11
743.48	2432.78
743.67	1916.28
743.86	1725.00
744.05	1784.80
744.23	1842.15
744.42	1888.43
744.61	1904.41
744.80	1748.15
744.99	1939.63
745.17	1737.09
745.36	1708.62
745.55	1959.50
745.74	2010.70
745.93	1913.62
746.11	1784.19
746.30	1776.00
746.49	2173.30
746.68	1880.24
746.86	1867.95
747.05	1862.63
747.24	2098.76
747.43	2116.37
747.62	1773.95
747.80	1810.40
747.99	2201.77
748.18	2134.60
748.37	1915.26
748.56	1930.42
748.74	2190.71
748.93	2044.49
749.12	2082.99
749.31	2496.68
749.49	2831.32
749.68	3040.21
749.87	3213.47
750.06	3063.35
750.24	3157.35
750.43	3114.55
750.62	2942.32
750.81	3092.64
750.99	3258.32
751.18	3266.71
751.37	2837.87
751.56	2834.18
751.74	3189.71
751.93	3252.99
752.12	2335.91
752.31	2280.00
752.49	2324.85
752.68	2554.02
752.87	2120.06
753.06	2041.21
753.24	2095.48
753.43	2285.94
753.62	1868.77
753.81	1897.24
753.99	2314.00
754.18	2109.61
754.37	1851.77
754.55	1887.82
754.74	2299.66
754.93	1739.95
755.12	1832.73
755.30	1780.71
755.49	2204.23
755.68	2032.61
755.86	1977.31
756.05	1767.60
756.24	2291.06
756.43	1849.32
756.61	1823.51
756.80	1929.60
756.99	2247.65
757.17	1981.20
757.36	1812.66
757.55	1877.78
757.74	2103.06
757.92	2003.94
758.11	1784.80
758.30	1725.82
758.48	1995.75
758.67	1817.98
758.86	1897.85
759.04	1786.65
759.23	1920.59
759.42	2012.74
759.60	1821.46
759.79	1900.31
759.98	1973.42
760.16	1857.92
760.35	1844.20
760.54	1771.29
760.73	2068.04
760.91	1805.28
761.10	1874.92
761.29	1949.67
761.47	2011.72
761.66	2391.41
761.85	1933.08
762.03	2027.49
762.22	2329.77
762.41	2830.09
762.59	3197.70
762.78	3443.25
762.97	4178.68
763.15	4144.68
763.34	3781.37
763.52	3188.89
763.71	3276.55
763.90	3323.03
764.08	2881.29
764.27	2860.81
764.46	3027.31
764.64	2637.58
764.83	2523.51
765.02	2411.69
765.20	2455.31
765.39	2420.29
765.58	1975.68
765.76	2024.01
765.95	2138.28
766.13	2087.29
766.32	1904.41
766.51	1879.22
766.69	2767.62
766.88	2108.59
767.07	1779.28
767.25	1691.01
767.44	2182.93
767.62	2219.18
767.81	1783.17
768.00	1857.71
768.18	2022.37
768.37	1892.32
768.56	1691.21
768.74	1820.44
768.93	1820.85
769.11	2077.05
769.30	1937.99
769.49	1839.90
769.67	1983.25
769.86	1916.49
770.04	1851.57
770.23	1811.22
770.42	2241.30
770.60	2016.63
770.79	1777.64
770.97	1834.16
771.16	2244.57
771.35	2164.09
771.53	2156.51
771.72	2193.17
771.90	2466.16
772.09	2731.79
772.27	2490.33
772.46	2177.81
772.65	2506.10
772.83	2402.47
773.02	2276.11
773.20	2010.90
773.39	2299.87
773.58	2343.29
773.76	1918.13
773.95	1925.30
774.13	2166.14
774.32	2045.51
774.50	1835.18
774.69	1933.69
774.87	1995.75
775.06	2427.87
775.25	1878.81
775.43	1915.87
775.62	2090.77
775.80	2139.10
775.99	1946.18
776.17	1854.85
776.36	2056.16
776.54	2216.52
776.73	1879.42
776.92	1968.92
777.10	2232.90
777.29	2140.33
777.47	1854.03
777.66	1904.61
777.84	2060.26
778.03	2019.71
778.21	1838.05
778.40	1956.01
778.58	2139.92
778.77	2202.59
778.95	1806.51
779.14	1839.28
779.32	2336.94
779.51	2173.51
779.70	1849.52
779.88	1737.50
780.07	1971.99
780.25	2453.88
780.44	1896.83
780.62	1976.09
780.81	2122.11
780.99	2075.00
781.18	1827.81
781.36	1811.63
781.55	2006.60
781.73	2289.63
781.92	1785.21
782.10	1769.24
782.29	2108.18
782.47	2282.05
782.66	1851.57
782.84	1738.73
783.03	1897.03
783.21	2232.90
783.40	1828.43
783.58	1808.36
783.77	1943.93
783.95	1973.83
784.14	1812.25
784.32	1903.18
784.51	2240.68
784.69	1908.09
784.88	1739.75
785.06	1858.33
785.24	1789.11
785.43	2166.75
785.61	1954.17
785.80	1793.41
785.98	2086.27
786.17	1995.13
786.35	1761.25
786.54	1964.00
786.72	2163.47
786.91	2176.17
787.09	1857.71
787.28	1745.28
787.46	2011.51
787.65	2155.90
787.83	1726.64
788.01	1859.15
788.20	1793.82
788.38	1993.08
788.57	1795.66
788.75	1819.83
788.94	2324.03
789.12	2215.08
789.31	1914.03
789.49	1979.98
789.67	1905.23
789.86	2078.28
790.04	1787.06
790.23	1694.08
790.41	2372.78
790.60	1952.12
790.78	1848.50
790.96	1842.76
791.15	2122.51
791.33	1973.42
791.52	1882.29
791.70	1761.05
791.89	2024.01
792.07	2148.93
792.25	1907.07
792.44	1746.51
792.62	2201.36
792.81	1955.61
792.99	1888.84
793.17	1813.89
793.36	1879.83
793.54	2318.51
793.73	2081.56
793.91	2035.89
794.10	2439.13
794.28	2551.56
794.46	2234.13
794.65	2251.33
794.83	2146.48
795.01	2282.67
795.20	2265.46
795.38	2136.03
795.57	2259.93
795.75	2251.54
795.93	2027.90
796.12	2010.49
796.30	2216.11
796.49	2217.95
796.67	1851.16
796.85	1988.99
797.04	2063.74
797.22	2187.44
797.40	1796.27
797.59	1915.47
797.77	2039.98
797.96	1902.15
798.14	1795.04
798.32	1820.23
798.51	2135.62
798.69	2324.03
798.87	1899.29
799.06	1853.62
799.24	1763.10
799.42	2152.21
799.61	1992.67
799.79	2010.70
799.98	2487.26
800.16	2148.93
800.34	2246.42
800.53	2417.42
800.71	2512.65
800.89	3030.58
801.08	2681.20
801.26	2703.93
801.44	2522.07
801.63	2388.55
801.81	2311.75
801.99	2221.43
802.18	2276.52
802.36	2320.55
802.54	2220.00
802.73	1976.49
802.91	2183.95
803.09	2173.30
803.28	2082.78
803.46	2043.26
803.64	2371.75
803.83	1868.57
804.01	1824.94
804.19	1779.28
804.38	2143.20
804.56	2083.81
804.74	1875.94
804.92	1905.63
805.11	1829.04
805.29	2193.37
805.47	1830.47
805.66	1742.82
805.84	1818.19
806.02	2140.74
806.21	1805.69
806.39	2051.04
806.57	2188.05
806.76	2146.68
806.94	1912.19
807.12	1792.38
807.30	1885.36
807.49	2026.87
807.67	1890.07
807.85	1985.30
808.04	2113.91
808.22	2420.29
808.40	1779.28
808.58	1718.25
808.77	2083.81
808.95	2250.10
809.13	1890.28
809.31	2276.11
809.50	2549.11
809.68	2741.82
809.86	2451.83
810.05	2586.58
810.23	3138.92
810.41	3367.27
810.59	4782.42
810.78	5583.38
810.96	6405.84
811.14	6876.87
811.32	6293.00
811.51	5317.35
811.69	4847.34
811.87	4954.04
812.05	4280.05
812.24	4059.69
812.42	4167.21
812.60	4012.79
812.78	3313.82
812.97	3089.98
813.15	3351.71
813.33	2984.50
813.51	2745.30
813.70	2359.06
813.88	2309.08
814.06	2342.06
814.24	2112.68
814.42	1857.51
814.61	2153.44
814.79	2350.86
814.97	1775.79
815.15	1829.45
815.34	2060.26
815.52	2169.00
815.70	1809.59
815.88	1878.81
816.06	1883.31
816.25	1927.75
816.43	1829.45
816.61	1957.24
816.79	2264.23
816.98	1750.40
817.16	1751.83
817.34	1780.71
817.52	2037.93
817.70	2242.12
817.89	1905.23
818.07	1790.54
818.25	1951.71
818.43	2024.01
818.61	1868.77
818.80	1838.46
818.98	2313.80
819.16	2049.81
819.34	1770.06
819.52	2119.24
819.70	1897.85
819.89	2012.33
820.07	1722.55
820.25	1732.38
820.43	2048.79
820.61	2187.23
820.80	1885.97
820.98	1777.84
821.16	1778.05
821.34	1823.10
821.52	1847.68
821.70	2001.48
821.89	1997.59
822.07	1973.83
822.25	1925.91
822.43	1813.27
822.61	2283.49
822.79	2073.57
822.98	1883.93
823.16	1703.30
823.34	2078.48
823.52	2224.91
823.70	1939.63
823.88	1730.53
824.06	2101.42
824.25	1988.17
824.43	1973.01
824.61	1762.28
824.79	1998.00
824.97	2069.06
825.15	1974.24
825.33	2098.14
825.52	2287.38
825.70	2161.22
825.88	2046.94
826.06	2115.55
826.24	2236.38
826.42	2321.17
826.60	2082.37
826.78	2099.78
826.97	2077.46
827.15	2327.11
827.33	1900.92
827.51	1976.70
827.69	1957.45
827.87	2092.41
828.05	1985.92
828.23	1833.96
828.41	2180.27
828.60	2160.20
828.78	1769.24
828.96	1982.64
829.14	1931.85
829.32	1987.35
829.50	1863.04
829.68	1869.18
829.86	1937.17
830.04	2114.12
830.22	1946.39
830.41	1787.06
830.59	1985.71
830.77	2107.77
830.95	1827.61
831.13	1798.32
831.31	1918.33
831.49	2165.52
831.67	1997.59
831.85	1991.65
832.03	1979.57
832.21	2137.26
832.39	1753.68
832.57	1767.81
832.76	2181.09
832.94	1970.76
833.12	1693.67
833.30	1862.63
833.48	2192.96
833.66	2047.35
833.84	1838.67
834.02	1895.19
834.20	2187.85
834.38	2125.59
834.56	1703.71
834.74	1800.57
834.92	1777.64
835.10	2330.38
835.28	1879.22
835.46	1886.18
835.64	1996.56
835.82	1922.43
836.01	2146.27
836.19	2043.67
836.37	1928.37
836.55	1845.02
836.73	1811.63
836.91	1753.06
837.09	2117.80
837.27	2271.81
837.45	1714.15
837.63	1738.73
837.81	1816.96
837.99	2015.00
838.17	1857.10
838.35	1763.10
838.53	2378.72
838.71	2089.54
838.89	1786.24
839.07	1790.13
839.25	1990.42
839.43	2137.46
839.61	1854.23
839.79	2157.94
839.97	2406.36
840.15	2496.27
840.33	2337.96
840.51	2587.61
840.69	2448.35
840.87	2381.79
841.05	2308.88
841.23	2236.79
841.41	2475.79
841.59	2931.87
841.77	2872.28
841.95	2992.08
842.13	3426.25
842.31	3126.02
842.49	2758.41
842.67	2676.29
842.85	2840.33
843.03	2441.79
843.21	2372.16
843.39	2507.94
843.57	2525.76
843.75	2462.89
843.93	2185.59
844.11	2210.17
844.29	2334.07
844.47	2155.90
844.65	2165.11
844.83	2022.57
845.01	2047.56
845.19	2223.89
845.36	1963.59
845.54	1990.22
845.72	2077.05
845.90	2165.11
846.08	1826.38
846.26	1945.37
846.44	2103.26
846.62	2115.96
846.80	1961.75
846.98	1824.74
847.16	1978.34
847.34	2069.68
847.52	1804.06
847.70	1763.71
847.88	1999.84
848.06	2261.37
848.24	1939.22
848.41	1780.71
848.59	2184.16
848.77	2117.19
848.95	1839.49
849.13	1834.78
849.31	2183.13
849.49	2068.45
849.67	1834.16
849.85	1778.25
850.03	2063.94
850.21	2065.79
850.39	1784.19
850.57	1990.22
850.74	2251.54
850.92	2251.13
851.10	2012.95
851.28	1937.17
851.46	2277.75
851.64	2620.38
851.82	2077.05
852.00	2124.97
852.18	2462.07
852.36	2309.70
852.53	1987.96
852.71	2066.20
852.89	2199.31
853.07	2220.20
853.25	1907.48
853.43	1814.50
853.61	2087.90
853.79	2136.24
853.97	1840.92
854.14	1877.78
854.32	2257.27
854.50	2153.23
854.68	1866.31
854.86	1855.66
855.04	1900.51
855.22	2147.50
855.40	1741.80
855.57	1836.00
855.75	2161.84
855.93	2089.13
856.11	1689.57
856.29	1844.81
856.47	1906.25
856.65	2071.52
856.82	1779.89
857.00	1742.82
857.18	1998.41
857.36	1924.68
857.54	1908.91
857.72	2034.66
857.89	2166.96
858.07	2034.04
858.25	2032.61
858.43	1779.89
858.61	1977.11
858.79	2019.91
858.97	1816.55
859.14	1947.21
859.32	2003.53
859.50	1964.00
859.68	1907.27
859.86	1780.71
860.03	2029.13
860.21	2097.94
860.39	1829.04
860.57	1999.64
860.75	2057.18
860.93	2331.00
861.10	2044.49
861.28	1793.82
861.46	2047.35
861.64	2082.58
861.82	1853.82
861.99	1956.42
862.17	2195.22
862.35	2166.75
862.53	1884.95
862.71	1875.94
862.88	2073.57
863.06	2125.59
863.24	1858.53
863.42	1793.41
863.60	1987.96
863.77	2124.56
863.95	1729.51
864.13	1858.53
864.31	1992.67
864.49	2126.41
864.66	1788.49
864.84	1796.48
865.02	2087.29
865.20	2494.63
865.37	1939.63
865.55	1800.78
865.73	1837.44
865.91	2118.62
866.09	1968.51
866.26	1893.76
866.44	2134.60
866.62	1978.75
866.80	1771.29
866.97	1827.20
867.15	1955.40
867.33	2036.70
867.51	1943.93
867.68	1882.90
867.86	1954.58
868.04	1899.08
868.22	1670.12
868.39	1829.04
868.57	2053.91
868.75	2258.09
868.93	1738.73
869.10	1825.56
869.28	2349.63
869.46	2234.54
869.64	1878.60
869.81	1830.06
869.99	2067.22
870.17	2029.54
870.35	1803.24
870.52	1848.70
870.70	2182.93
870.88	1907.89
871.05	1785.42
871.23	1680.36
871.41	1987.14
871.59	2041.42
871.76	1853.00
871.94	1783.37
872.12	2017.66
872.29	1794.02
872.47	1848.50
872.65	1756.75
872.83	2074.59
873.00	2261.16
873.18	1838.67
873.36	1800.98
873.53	2167.37
873.71	1796.48
873.89	1749.58
874.06	1839.49
874.24	2097.32
874.42	2246.01
874.60	1960.11
874.77	1947.41
874.95	1911.78
875.13	2197.06
875.30	1833.96
875.48	1812.45
875.66	2268.33
875.83	1900.72
876.01	1794.43
876.19	1928.37
876.36	1817.98
876.54	2026.87
876.72	1774.77
876.89	1940.45
877.07	2125.18
877.25	1760.43
877.42	1862.01
877.60	1835.80
877.78	2351.48
877.95	1927.14
878.13	1786.85
878.31	1966.46
878.48	2146.48
878.66	2140.54
878.84	1842.56
879.01	1852.80
879.19	2104.49
879.37	2133.57
879.54	1846.86
879.72	1721.93
879.90	1740.98
880.07	2170.03
880.25	1599.05
880.42	1976.90
880.60	2024.42
880.78	2157.54
880.95	1837.85
881.13	1907.48
881.31	2022.78
881.48	1936.76
881.66	1806.72
881.83	1967.28
882.01	1903.59
882.19	1801.60
882.36	1863.04
882.54	1853.82
882.72	2125.59
882.89	2043.46
883.07	1809.79
883.24	1815.73
883.42	2156.72
883.60	2037.73
883.77	1761.05
883.95	1842.56
884.12	2144.43
884.30	2053.91
884.48	1971.17
884.65	1869.80
884.83	2046.74
885.00	2063.33
885.18	1744.25
885.36	1825.15
885.53	2120.67
885.71	2208.32
885.88	1756.75
886.06	1812.04
886.23	2123.13
886.41	1964.21
886.59	1807.95
886.76	1773.13
886.94	2116.58
887.11	2501.39
887.29	1858.74
887.47	1762.89
887.64	2228.39
887.82	2260.34
887.99	1687.32
888.17	1876.55
888.34	1973.63
888.52	1854.23
888.69	1865.70
888.87	1747.12
889.05	1956.83
889.22	1973.22
889.40	1814.09
889.57	2053.29
889.75	2330.38
889.92	1978.54
890.10	1768.01
890.27	1897.85
890.45	1903.18
890.62	1742.41
890.80	1773.95
890.98	1696.13
891.15	2288.81
891.33	2162.86
891.50	1797.30
891.68	1736.06
891.85	2156.10
892.03	2123.13
892.20	1796.68
892.38	1769.04
892.55	2120.47
892.73	2146.07
892.90	1703.71
893.08	1799.14
893.25	1917.92
893.43	1925.71
893.60	1904.41
893.78	1672.78
893.95	2071.32
894.13	2004.96
894.30	1773.34
894.48	1846.86
894.65	2181.70
894.83	2059.64
895.00	1677.08
895.18	1655.99
895.35	2159.79
895.53	2155.08
895.70	1750.19
895.88	1925.30
896.05	2069.06
896.23	1813.27
896.40	1806.10
896.58	1869.80
896.75	2159.58
896.93	2238.84
897.10	1812.86
897.28	1714.15
897.45	2035.68
897.63	2111.87
897.80	1933.08
897.98	1796.07
898.15	2072.54
898.33	1901.74
898.50	1854.23
898.67	1848.29
898.85	1969.53
899.02	2097.12
899.20	2026.67
899.37	1856.28
899.55	2044.49
899.72	2239.25
899.90	1777.43
900.07	1782.96
900.25	2082.99
900.42	2210.58
900.59	1815.52
900.77	1920.99
900.94	2095.07
901.12	2073.98
901.29	1812.86
901.47	1972.81
901.64	2122.51
901.82	2009.47
901.99	1628.14
902.16	1783.99
902.34	2194.81
902.51	2034.25
902.69	1823.51
902.86	1853.41
903.03	2596.41
903.21	2025.65
903.38	1809.99
903.56	1790.95
903.73	2186.21
903.91	1958.68
904.08	1781.53
904.25	1673.80
904.43	1888.84
904.60	2143.40
904.78	1812.04
904.95	1743.03
905.12	1952.74
905.30	2298.23
905.47	1929.19
905.65	1985.10
905.82	2000.25
905.99	2106.54
906.17	1818.19
906.34	1785.21
906.52	1849.32
906.69	2082.37
906.86	1882.70
907.04	1869.80
907.21	2149.96
907.38	2157.74
907.56	1767.40
907.73	1770.26
907.91	2259.73
908.08	2208.73
908.25	1811.43
908.43	1719.27
908.60	2111.05
908.77	2010.70
908.95	1834.57
909.12	1740.57
909.30	2114.94
909.47	1774.77
909.64	1836.82
909.82	2015.82
909.99	1978.95
910.16	2037.11
910.34	1798.32
910.51	1803.65
910.68	2072.75
910.86	2031.79
911.03	1710.26
911.20	1773.75
911.38	2273.45
911.55	2613.00
911.72	2515.32
911.90	2432.78
912.07	2799.98
912.24	2953.58
912.42	2357.01
912.59	2147.09
912.76	2446.71
912.94	2250.10
913.11	1979.36
913.28	1879.63
913.46	1889.66
913.63	2140.13
913.80	2195.63
913.98	1845.63
914.15	2207.10
914.32	2240.89
914.49	1936.15
914.67	1756.13
914.84	2045.92
915.01	2174.12
915.19	1895.40
915.36	1815.11
915.53	2154.26
915.71	2086.06
915.88	1904.20
916.05	1822.08
916.22	2186.62
916.40	2050.63
916.57	1718.86
916.74	1946.18
916.92	2278.98
917.09	1897.24
917.26	1773.54
917.43	1734.02
917.61	1954.17
917.78	1758.59
917.95	1739.14
918.13	1734.63
918.30	2394.49
918.47	2018.07
918.64	1757.57
918.82	1736.47
918.99	1976.70
919.16	2257.89
919.33	1829.45
919.51	1801.80
919.68	1974.04
919.85	2191.53
920.02	1712.92
920.20	1842.35
920.37	2274.47
920.54	2163.68
920.71	1770.06
920.89	1801.39
921.06	2300.89
921.23	1847.47
921.40	1725.41
921.58	1903.79
921.75	2513.68
921.92	1950.49
922.09	1922.43
922.27	1891.30
922.44	2060.46
922.61	2068.45
922.78	1822.90
922.96	1834.16
923.13	1967.69
923.30	2149.14
923.47	1691.42
923.64	1755.93
923.82	2094.25
923.99	2050.63
924.16	1904.82
924.33	1737.91
924.50	2055.14
924.68	2286.97
924.85	1772.11
925.02	1800.57
925.19	2125.38
925.36	2036.09
925.54	1850.95
925.71	1863.04
925.88	2525.96
926.05	1960.52
926.22	1757.16
926.40	1920.79
926.57	2048.17
926.74	2143.20
926.91	1803.85
927.08	1972.40
927.26	2188.46
927.43	2047.35
927.60	1811.84
927.77	1828.43
927.94	2300.28
928.11	2213.04
928.29	1692.65
928.46	1879.22
928.63	1866.52
928.80	1967.89
928.97	1878.40
929.14	1758.80
929.32	2405.75
929.49	2019.50
929.66	1784.40
929.83	1710.26
930.00	1941.88
930.17	2081.97
930.35	1733.40
930.52	1774.36
930.69	2284.51
930.86	1864.06
931.03	1858.33
931.20	1636.33
931.37	2200.75
931.55	2023.39
931.72	1877.37
931.89	1732.79
932.06	1861.81
932.23	2291.47
932.40	1908.71
932.57	1923.45
932.74	2223.89
932.92	2196.86
933.09	1990.83
933.26	1568.54
933.43	1936.97
933.60	2055.55
933.77	1863.86
933.94	1909.12
934.11	1985.92
934.29	2040.60
934.46	1751.63
934.63	1891.09
934.80	1806.51
934.97	1990.63
935.14	1825.35
935.31	1689.16
935.48	1886.18
935.65	2072.75
935.82	1862.01
936.00	1727.26
936.17	2278.37
936.34	1999.64
936.51	1901.95
936.68	1698.18
936.85	2061.08
937.02	2031.18
937.19	1907.27
937.36	1825.76
937.53	2070.70
937.70	2165.32
937.87	1808.56
938.05	1943.93
938.22	2065.17
938.39	1855.25
938.56	1816.14
938.73	1745.89
938.90	1988.99
939.07	1899.70
939.24	1882.49
939.41	1664.18
939.58	2068.65
939.75	2093.84
939.92	1780.30
940.09	2068.86
940.26	1981.82
940.43	2163.06
940.60	1840.10
940.77	1822.69
940.95	2061.69
941.12	2141.56
941.29	1825.35
941.46	1843.58
941.63	2214.67
941.80	2265.26
941.97	1743.85
942.14	1680.15
942.31	2108.59
942.48	1986.73
942.65	1910.75
942.82	1868.36
942.99	2132.35
943.16	2042.64
943.33	1723.16
943.50	1791.36
943.67	2136.03
943.84	2193.78
944.01	1806.51
944.18	1768.01
944.35	2250.51
944.52	1890.89
944.69	1879.22
944.86	1742.41
945.03	2158.15
945.20	2389.77
945.37	1670.32
945.54	1870.61
945.71	2228.60
945.88	2276.93
946.05	1777.02
946.22	1779.28
946.39	2238.02
946.56	2019.09
946.73	1679.74
946.90	1727.67
947.07	1938.40
947.24	1973.63
947.41	1656.19
947.58	1911.98
947.75	2131.32
947.92	2065.99
948.09	1613.80
948.26	1673.80
948.43	2053.70
948.60	2333.46
948.77	1756.75
948.94	1803.03
949.11	2163.06
949.27	2065.58
949.44	1773.13
949.61	1724.39
949.78	2096.10
949.95	2210.78
950.12	1708.83
950.29	1664.38
950.46	1931.23
950.63	2186.41
950.80	1757.16
950.97	1797.50
951.14	2213.85
951.31	1978.13
951.48	1750.19
951.65	1730.33
951.82	2361.92
951.99	2059.44
952.15	1715.58
952.32	1802.21
952.49	1913.01
952.66	1953.76
952.83	1782.14
953.00	1746.71
953.17	2007.62
953.34	2178.42
953.51	1841.94
953.68	1848.50
953.85	2191.53
954.02	2196.24
954.18	1872.05
954.35	1801.60
954.52	1896.01
954.69	2045.31
954.86	1703.09
955.03	1856.28
955.20	2131.32
955.37	1979.98
955.54	1799.14
955.71	1759.21
955.87	2105.31
956.04	2312.57
956.21	1800.16
956.38	1734.02
956.55	2032.20
956.72	2435.24
956.89	1853.41
957.06	1764.94
957.23	1916.49
957.39	2225.73
957.56	1814.30
957.73	1693.47
957.90	1697.15
958.07	2327.52
958.24	1848.50
958.41	1808.77
958.57	2165.93
958.74	2023.60
958.91	1746.10
959.08	1762.28
959.25	2129.07
959.42	1990.63
959.59	1830.27
959.75	1828.02
959.92	2211.81
960.09	2220.20
960.26	1771.08
960.43	1868.36
960.60	2060.87
960.76	1999.43
960.93	1696.74
961.10	1841.33
961.27	2182.11
961.44	1987.76
961.61	1716.20
961.77	1685.68
961.94	2064.56
962.11	2179.65
962.28	1799.96
962.45	1697.15
962.62	1987.55
962.78	2192.96
962.95	1696.13
963.12	1759.61
963.29	2153.23
963.46	2492.99
963.62	1867.13
963.79	1791.97
963.96	2453.67
964.13	1994.72
964.30	1890.07
964.46	1789.72
964.63	1849.52
964.80	2456.33
964.97	1597.42
965.14	1928.16
965.30	2088.31
965.47	2150.98
965.64	1959.29
965.81	1875.53
965.98	2263.42
966.14	2071.11
966.31	1773.54
966.48	1770.06
966.65	2214.26
966.81	2074.59
966.98	1817.78
967.15	1784.80
967.32	2010.70
967.49	1902.77
967.65	1642.27
967.82	1620.35
967.99	1974.45
968.16	1754.29
968.32	1949.46
968.49	1762.28
968.66	1994.93
968.83	2289.22
968.99	1875.12
969.16	1730.74
969.33	2230.03
969.50	2101.01
969.66	1902.97
969.83	2015.61
970.00	2177.20
970.17	2132.14
970.33	1806.72
970.50	1708.62
970.67	2286.97
970.84	2260.75
971.00	1745.28
971.17	1692.65
971.34	2145.45
971.50	2042.23
971.67	1916.90
971.84	1805.49
972.01	1870.61
972.17	1719.06
972.34	1716.61
972.51	1956.22
972.67	2197.68
972.84	2071.93
973.01	1742.41
973.18	1781.94
973.34	2169.82
973.51	1876.14
973.68	1817.16
973.84	1829.45
974.01	1967.48
974.18	2310.52
974.34	1866.93
974.51	1887.41
974.68	1923.25
974.85	2375.03
975.01	1902.97
975.18	1790.13
975.35	2037.11
975.51	1926.32
975.68	1682.82
975.85	1972.60
976.01	1911.16
976.18	2266.49
976.35	1802.21
976.51	1824.13
976.68	2299.05
976.85	2261.78
977.01	1818.39
977.18	1898.47
977.35	2133.78
977.51	1861.81
977.68	1626.70
977.85	1710.67
978.01	2162.66
978.18	2108.79
978.35	1859.76
978.51	1864.88
978.68	2193.99
978.85	2257.89
979.01	1821.46
979.18	1834.16
979.34	1978.54
979.51	2048.58
979.68	1759.41
979.84	1842.56
980.01	2445.89
980.18	2043.26
980.34	1757.57
980.51	1866.11
980.67	2166.14
980.84	2161.84
981.01	1791.77
981.17	1875.12
981.34	1754.90
981.51	2131.94
981.67	1712.72
981.84	1863.45
982.00	2108.18
982.17	1969.53
982.34	1643.09
982.50	1525.12
982.67	2305.60
982.83	1947.00
983.00	1692.85
983.17	1582.06
983.33	2212.42
983.50	1793.00
983.66	1662.34
983.83	1620.56
984.00	1962.36
984.16	2028.92
984.33	1607.04
984.49	1592.50
984.66	1873.69
984.83	2161.63
984.99	1623.42
985.16	1578.57
985.32	2125.59
985.49	2172.08
985.65	1714.97
985.82	1589.84
985.99	2291.88
986.15	2042.64
986.32	1704.11
986.48	1643.49
986.65	1940.86
986.81	2133.16
986.98	1584.31
987.14	1672.99
987.31	2049.40
987.48	1787.47
987.64	1525.94
987.81	1560.96
987.97	2392.85
988.14	1891.30
988.30	1629.36
988.47	1479.86
988.63	2118.01
988.80	1829.04
988.96	1688.35
989.13	1705.75
989.30	1991.24
989.46	2160.40
989.63	1554.41
989.79	1565.67
989.96	1981.61
990.12	2274.68
990.29	1627.32
990.45	1671.14
990.62	2013.97
990.78	2215.49
990.95	1710.05
991.11	1647.18
991.28	1945.57
991.44	2091.80
991.61	1523.48
991.77	1703.91
991.94	2038.55
992.10	2201.36
992.27	1686.91
992.43	1648.21
992.60	2111.05
992.76	1965.03
992.93	1824.74
993.09	1586.97
993.26	2207.10
993.42	2345.13
993.59	1626.09
993.75	1524.10
993.92	1911.37
994.08	1908.09
994.25	1687.53
994.41	1583.28
994.58	2125.38
994.74	2266.08
994.91	1576.94
995.07	1697.77
995.24	2009.06
995.40	1992.26
995.56	1779.07
995.73	1726.23
995.89	2316.46
996.06	1992.47
996.22	1606.84
996.39	1565.26
996.55	1982.02
996.72	2087.29
996.88	1563.42
997.05	1581.85
997.21	2347.38
997.37	2097.12
997.54	1705.34
997.70	1652.10
997.87	2048.17
998.03	1999.43
998.20	1545.40
998.36	1542.12
998.52	2145.04
998.69	2173.30
998.85	1545.19
999.02	1638.78
999.18	2166.96
999.35	2142.99
999.51	1674.62
999.67	1661.93
999.84	1845.63
1000.00	2146.89
1000.17	1708.01
1000.33	1604.38
1000.49	1932.87
1000.66	1974.86
1000.82	1595.57
1000.99	1690.60
1001.15	2235.56
1001.31	1974.45
1001.48	1648.82
1001.64	1709.03
1001.81	1969.53
1001.97	2388.14
1002.13	1623.63
1002.30	1669.30
1002.46	2229.01
1002.63	1959.70
1002.79	1751.22
1002.95	1608.07
1003.12	2197.06
1003.28	2074.59
1003.45	1623.63
1003.61	1565.67
1003.77	2055.14
1003.94	1808.77
1004.10	1634.07
1004.26	1723.98
1004.43	2109.41
1004.59	2337.35
1004.75	1629.36
1004.92	1602.95
1005.08	1945.57
1005.25	2068.24
1005.41	1627.32
1005.57	1710.26
1005.74	2206.69
1005.90	1945.16
1006.06	1745.48
1006.23	1608.27
1006.39	2115.76
1006.55	2459.20
1006.72	1768.01
1006.88	1568.74
1007.04	1880.65
1007.21	1996.16
1007.37	1623.83
1007.53	1629.57
1007.70	2283.49
1007.86	2144.43
1008.02	1690.39
1008.19	1586.77
1008.35	2054.11
1008.51	1873.28
1008.68	1647.80
1008.84	1595.57
1009.00	1858.94
1009.17	2203.61
1009.33	1830.88
1009.49	1731.35
1009.65	1880.65
1009.82	2085.65
1009.98	1686.09
1010.14	1531.06
1010.31	2145.25
1010.47	2099.37
1010.63	1689.98
1010.80	1682.20
1010.96	2091.80
1011.12	2006.19
1011.28	1674.42
1011.45	1618.92
1011.61	2488.90
1011.77	1870.82
1011.94	1586.36
1012.10	1595.37
1012.26	1830.06
1012.42	1932.05
1012.59	1695.10
1012.75	1689.16
1012.91	1996.16
1013.07	2165.93
1013.24	1577.14
1013.40	1589.84
1013.56	2045.92
1013.72	2015.00
1013.89	1681.79
1014.05	1736.68
1014.21	2362.13
1014.37	2457.56
1014.54	1698.38
1014.70	1593.52
1014.86	1961.95
1015.02	1877.58
1015.19	1650.05
1015.35	1583.90
1015.51	1988.37
1015.67	1958.88
1015.84	1660.08
1016.00	1635.51
1016.16	2197.27
1016.32	2178.42
1016.49	1607.25
1016.65	1574.68
1016.81	2003.12
1016.97	2103.67
1017.14	1741.80
1017.30	1622.20
1017.46	1941.88
1017.62	2047.76
1017.78	1702.27
1017.95	1631.41
1018.11	2145.25
1018.27	2459.41
1018.43	1786.44
1018.59	1711.28
1018.76	2147.30
1018.92	2453.06
1019.08	1631.82
1019.24	1651.69
1019.40	2217.75
1019.57	2083.19
1019.73	1720.91
1019.89	1645.75
1020.05	2071.93
1020.21	2397.15
1020.38	1630.59
1020.54	1782.14
1020.70	2106.95
1020.86	2130.09
1021.02	1615.23
1021.18	1614.00
1021.35	1948.23
1021.51	2094.25
1021.67	1802.83
1021.83	1695.31
1021.99	2033.22
1022.15	2085.86
1022.32	1707.80
1022.48	1644.52
1022.64	2258.50
1022.80	2290.04
1022.96	1728.08
1023.12	1561.99
1023.29	2195.83
1023.45	2108.59
1023.61	1610.93
1023.77	1826.79
1023.93	2045.51
1024.09	1858.94
1024.25	1638.99
1024.42	1567.52
1024.58	1957.45
1024.74	2063.53
1024.90	1651.48
1025.06	1721.11
1025.22	1920.59
1025.38	2289.83
1025.54	1584.10
1025.71	1744.05
1025.87	2124.77
1026.03	2107.16
1026.19	1600.90
1026.35	1826.79
1026.51	2090.98
1026.67	2024.21
1026.83	1677.90
1026.99	1788.90
1027.16	2090.77
1027.32	2197.88
1027.48	1654.55
1027.64	1621.38
1027.80	2110.43
1027.96	2047.35
1028.12	1655.99
1028.28	1638.38
1028.44	2086.88
1028.60	2275.50
1028.77	1786.65
1028.93	1690.80
1029.09	1940.04
1029.25	1878.40
1029.41	1667.46
1029.57	1744.46
1029.73	2059.03
1029.89	2271.20
1030.05	1758.39
1030.21	1724.18
1030.37	2430.94
1030.53	2116.17
1030.69	1669.09
1030.85	1568.54
1031.02	1890.48
1031.18	2014.79
1031.34	1632.44
1031.50	1734.83
1031.66	1899.49
1031.82	2275.91
1031.98	1678.52
1032.14	1581.65
1032.30	1889.87
1032.46	2156.72
1032.62	1759.41
1032.78	1560.35
1032.94	1935.33
1033.10	1970.97
1033.26	1719.88
1033.42	1789.72
1033.58	2376.67
1033.74	1936.56
1033.90	1653.12
1034.06	1817.78
1034.22	2386.09
1034.38	2193.37
1034.54	1667.66
1034.70	1696.54
1034.86	2337.14
>>>>>End Processed Spectral Data<<<<<
