SpectraSuite Data File
++++++++++++++++++++++++++++++++++++
Date: Thu Mar 30 16:09:38 PDT 2017
User: UCSD _CER
Dark Spectrum Present: No
Reference Spectrum Present: No
Number of Sampled Component Spectra: 1
Spectrometers: USB4C00073
Integration Time (usec): 250000 (USB4C00073)
Spectra Averaged: 10 (USB4C00073)
Boxcar Smoothing: 0 (USB4C00073)
Correct for Electrical Dark: No (USB4C00073)
Strobe/Lamp Enabled: No (USB4C00073)
Correct for Detector Non-linearity: No (USB4C00073)
Correct for Stray Light: No (USB4C00073)
Number of Pixels in Processed Spectrum: 3648
>>>>>Begin Processed Spectral Data<<<<<
345.37	1298.00
345.58	1298.00
345.80	1298.00
346.01	1269.54
346.22	1258.89
346.43	1988.78
346.65	1742.00
346.86	2123.74
347.07	2064.15
347.28	1804.67
347.50	1804.26
347.71	1898.06
347.92	1723.37
348.13	1798.12
348.35	1727.87
348.56	1892.12
348.77	1770.88
348.98	1816.14
349.20	1662.54
349.41	1915.67
349.62	1977.52
349.83	1853.82
350.05	1727.05
350.26	1966.25
350.47	2064.76
350.68	1762.69
350.90	1722.34
351.11	2089.13
351.32	2078.28
351.53	1806.51
351.75	1728.90
351.96	1930.82
352.17	1895.80
352.38	1842.76
352.60	1879.01
352.81	1904.82
353.02	2134.19
353.23	1763.30
353.44	1799.96
353.66	1835.39
353.87	1898.88
354.08	1895.40
354.29	1810.20
354.51	1821.87
354.72	1856.07
354.93	1756.34
355.14	1733.20
355.35	1743.23
355.57	2015.82
355.78	1802.01
355.99	1856.28
356.20	1920.59
356.42	1900.72
356.63	1889.66
356.84	1830.27
357.05	2004.55
357.26	2174.12
357.48	1883.31
357.69	1836.21
357.90	1964.21
358.11	1837.64
358.32	1784.80
358.54	1852.18
358.75	1860.17
358.96	1997.38
359.17	1784.80
359.38	1806.31
359.60	1970.15
359.81	1887.00
360.02	1796.68
360.23	1760.02
360.44	1824.13
360.66	2008.03
360.87	1748.76
361.08	1753.06
361.29	1931.23
361.50	1910.96
361.72	1782.35
361.93	1837.23
362.14	1910.35
362.35	1727.26
362.56	1875.73
362.77	1698.59
362.99	2004.76
363.20	1892.32
363.41	1872.25
363.62	1695.72
363.83	1958.06
364.05	2038.14
364.26	1687.12
364.47	1750.60
364.68	2062.10
364.89	1802.42
365.10	1725.62
365.32	1797.09
365.53	1768.42
365.74	1847.68
365.95	1800.16
366.16	1695.92
366.37	1893.96
366.59	1879.42
366.80	1789.52
367.01	1658.45
367.22	2167.77
367.43	2255.84
367.64	1786.03
367.86	1791.36
368.07	1979.36
368.28	2037.32
368.49	1734.83
368.70	1840.10
368.91	1864.68
369.12	1873.89
369.34	1724.39
369.55	1728.08
369.76	1901.13
369.97	1852.59
370.18	1754.09
370.39	1739.34
370.60	1742.41
370.82	1761.66
371.03	1797.09
371.24	1750.60
371.45	1983.87
371.66	1952.74
371.87	1803.85
372.08	1762.07
372.30	1793.41
372.51	1995.95
372.72	1882.90
372.93	1780.50
373.14	2072.95
373.35	1812.45
373.56	1751.42
373.78	1795.66
373.99	2004.14
374.20	2275.50
374.41	1805.49
374.62	1816.75
374.83	2089.95
375.04	1830.88
375.25	1811.22
375.47	1762.28
375.68	1862.01
375.89	2012.95
376.10	1797.50
376.31	1898.26
376.52	1960.32
376.73	1944.55
376.94	1803.65
377.15	1796.48
377.37	1899.70
377.58	1854.23
377.79	1674.21
378.00	1717.43
378.21	1925.09
378.42	1956.63
378.63	1811.22
378.84	1876.55
379.05	2000.46
379.27	1913.42
379.48	1914.65
379.69	1765.96
379.90	2038.14
380.11	1671.14
380.32	1797.71
380.53	1896.62
380.74	2062.51
380.95	1887.61
381.16	1810.40
381.37	1765.96
381.59	2052.68
381.80	2018.89
382.01	1756.95
382.22	1686.30
382.43	1972.40
382.64	1890.07
382.85	1743.85
383.06	1846.45
383.27	1991.24
383.48	1864.88
383.69	1839.28
383.91	1737.09
384.12	1918.95
384.33	1920.59
384.54	1790.74
384.75	1681.38
384.96	2283.28
385.17	2008.24
385.38	1766.58
385.59	1765.35
385.80	2004.76
386.01	2096.51
386.22	1886.38
386.43	1797.50
386.64	2162.25
386.86	1872.05
387.07	1908.30
387.28	1686.71
387.49	1839.08
387.70	2077.25
387.91	1864.06
388.12	1740.16
388.33	1948.64
388.54	1853.00
388.75	1764.94
388.96	1846.65
389.17	1858.33
389.38	1854.85
389.59	1879.83
389.80	1794.02
390.01	1889.66
390.22	1860.37
390.43	1864.06
390.64	1670.73
390.86	1939.84
391.07	2031.58
391.28	1804.26
391.49	1836.62
391.70	1786.03
391.91	1818.80
392.12	1811.43
392.33	1787.47
392.54	1899.49
392.75	1854.64
392.96	1879.01
393.17	1736.47
393.38	2172.89
393.59	2037.52
393.80	1730.12
394.01	1844.61
394.22	1904.41
394.43	2177.81
394.64	1798.94
394.85	1977.72
395.06	1934.72
395.27	1938.40
395.48	1824.74
395.69	1736.68
395.90	1876.35
396.11	1935.33
396.32	1741.18
396.53	1883.11
396.74	1900.51
396.95	2017.04
397.16	1735.65
397.37	1708.62
397.58	1990.42
397.79	1906.86
398.00	1859.15
398.21	1790.33
398.42	1945.78
398.63	2147.09
398.84	1823.10
399.05	1772.72
399.26	2036.50
399.47	1943.93
399.68	1640.42
399.89	1722.55
400.10	1773.95
400.31	1832.52
400.52	1844.40
400.73	1786.65
400.94	1713.95
401.15	1939.63
401.36	1773.54
401.57	1847.68
401.78	2047.35
401.99	2020.53
402.20	1737.70
402.41	1915.26
402.62	2082.78
402.83	1864.27
403.04	1759.61
403.25	1948.64
403.46	1948.64
403.67	2088.93
403.88	1850.75
404.09	1862.01
404.30	1885.36
404.51	1830.47
404.72	1784.40
404.93	1919.77
405.14	1815.11
405.35	1900.11
405.56	1827.40
405.77	1790.95
405.98	1932.26
406.19	1875.12
406.40	1748.56
406.61	1768.42
406.82	1782.55
407.03	2162.66
407.24	1703.50
407.45	1840.92
407.66	1928.16
407.87	2020.12
408.08	1834.78
408.29	1850.95
408.49	1975.88
408.70	1885.77
408.91	1807.33
409.12	1865.49
409.33	1780.09
409.54	2069.47
409.75	1774.56
409.96	1774.56
410.17	2007.21
410.38	1879.42
410.59	1767.40
410.80	1894.17
411.01	1875.73
411.22	1893.96
411.43	1839.69
411.64	1745.69
411.85	1818.60
412.06	1779.89
412.27	1632.03
412.47	1762.89
412.68	1888.23
412.89	1936.76
413.10	1763.30
413.31	1697.97
413.52	2147.70
413.73	2136.24
413.94	1738.73
414.15	1913.01
414.36	1822.69
414.57	1810.20
414.78	1744.46
414.99	1948.44
415.19	2312.57
415.40	2366.22
415.61	2436.06
415.82	2329.97
416.03	2351.07
416.24	2215.90
416.45	1969.33
416.66	1836.00
416.87	1782.55
417.08	1988.17
417.29	1771.08
417.50	1885.16
417.70	2004.35
417.91	2058.62
418.12	1931.44
418.33	1959.70
418.54	2117.19
418.75	2256.86
418.96	2244.57
419.17	2321.99
419.38	2703.32
419.59	2670.96
419.79	2535.79
420.00	2450.80
420.21	2730.35
420.42	2161.22
420.63	1957.65
420.84	1983.46
421.05	1914.24
421.26	1941.06
421.47	1755.93
421.67	2034.04
421.88	1781.53
422.09	1774.77
422.30	1959.09
422.51	1811.84
422.72	2089.13
422.93	1989.40
423.14	1818.39
423.35	1704.11
423.55	1725.62
423.76	1802.01
423.97	1838.87
424.18	1720.09
424.39	1891.09
424.60	2026.87
424.81	1840.51
425.02	1998.61
425.22	2005.99
425.43	2020.94
425.64	2152.01
425.85	2089.34
426.06	2398.38
426.27	2279.18
426.48	2198.29
426.68	2173.51
426.89	2279.59
427.10	2404.52
427.31	1996.36
427.52	1852.80
427.73	2041.42
427.94	1993.08
428.14	1911.37
428.35	1786.24
428.56	2078.28
428.77	1995.13
428.98	1887.82
429.19	1923.86
429.40	1988.58
429.60	2058.41
429.81	2074.59
430.02	2015.82
430.23	2010.70
430.44	2049.20
430.65	1807.74
430.85	1858.12
431.06	1989.60
431.27	1735.86
431.48	1787.88
431.69	1850.75
431.90	1923.86
432.10	1914.24
432.31	1861.40
432.52	1812.04
432.73	2365.20
432.94	2272.02
433.15	2138.49
433.35	2014.18
433.56	2211.60
433.77	2016.02
433.98	2025.85
434.19	1896.62
434.40	1983.46
434.60	1966.25
434.81	1825.76
435.02	1885.56
435.23	1877.99
435.44	1852.59
435.64	1710.26
435.85	1740.77
436.06	1884.13
436.27	1828.02
436.48	1731.56
436.68	1754.09
436.89	2088.93
437.10	1973.22
437.31	1811.43
437.52	1865.70
437.73	1916.90
437.93	1912.60
438.14	1857.30
438.35	1693.26
438.56	1851.77
438.77	1858.53
438.97	1934.51
439.18	1764.73
439.39	2021.55
439.60	1752.24
439.80	1702.68
440.01	1804.47
440.22	1816.75
440.43	1966.46
440.64	1706.98
440.84	1849.52
441.05	1765.55
441.26	2268.94
441.47	1860.78
441.68	1780.09
441.88	1860.78
442.09	1857.51
442.30	1936.97
442.51	1837.64
442.71	1837.03
442.92	1919.36
443.13	1766.37
443.34	1731.76
443.55	1771.90
443.75	1969.74
443.96	1729.92
444.17	1736.88
444.38	2017.25
444.58	1794.23
444.79	1855.25
445.00	1835.18
445.21	1881.26
445.41	1872.46
445.62	1618.30
445.83	1891.09
446.04	1887.41
446.24	1747.12
446.45	1659.06
446.66	1804.06
446.87	1939.84
447.07	1823.92
447.28	2012.95
447.49	1821.87
447.70	2007.21
447.90	2021.96
448.11	1800.57
448.32	1891.91
448.53	2079.71
448.73	2077.66
448.94	1776.82
449.15	1939.63
449.36	1911.16
449.56	1951.51
449.77	1793.82
449.98	1717.84
450.19	1866.31
450.39	1917.92
450.60	1941.47
450.81	1918.13
451.02	1972.40
451.22	2155.90
451.43	1833.14
451.64	1824.94
451.84	1880.44
452.05	2100.81
452.26	1849.73
452.47	1835.59
452.67	1848.91
452.88	2097.32
453.09	1755.31
453.30	1723.57
453.50	1986.32
453.71	2089.75
453.92	1783.37
454.12	1880.44
454.33	1831.29
454.54	1885.16
454.75	1743.03
454.95	1749.17
455.16	1919.36
455.37	1968.10
455.57	1825.97
455.78	1786.44
455.99	1910.35
456.19	1885.56
456.40	1728.08
456.61	1825.56
456.82	1877.99
457.02	2001.07
457.23	1858.12
457.44	1960.52
457.64	1833.75
457.85	1985.71
458.06	1801.39
458.26	1852.39
458.47	1869.18
458.68	2016.84
458.89	1739.95
459.09	1941.88
459.30	2191.74
459.51	1950.28
459.71	1691.62
459.92	1807.74
460.13	2002.71
460.33	2181.50
460.54	1784.19
460.75	1804.87
460.95	1774.77
461.16	1984.48
461.37	1785.01
461.57	1818.19
461.78	1912.80
461.99	1776.20
462.19	2036.30
462.40	1778.87
462.61	2381.99
462.81	2072.13
463.02	1778.87
463.23	1838.87
463.43	1994.11
463.64	1871.64
463.85	2752.67
464.05	1825.97
464.26	2316.87
464.47	2095.69
464.67	1959.09
464.88	1875.94
465.09	1816.75
465.29	1916.28
465.50	1918.54
465.71	1796.89
465.91	1834.57
466.12	1907.07
466.33	1857.51
466.53	1795.04
466.74	2059.44
466.94	1881.88
467.15	1814.50
467.36	2013.36
467.56	1813.48
467.77	1922.63
467.98	1886.59
468.18	1801.60
468.39	1849.93
468.60	2132.35
468.80	1847.27
469.01	1773.54
469.21	1936.35
469.42	2019.50
469.63	1855.66
469.83	1794.02
470.04	2053.70
470.25	2154.46
470.45	1936.76
470.66	1798.94
470.86	1950.08
471.07	1870.00
471.28	1901.33
471.48	1958.47
471.69	1914.85
471.90	2332.02
472.10	1795.25
472.31	1832.32
472.51	1794.64
472.72	1813.68
472.93	1737.50
473.13	1916.28
473.34	1931.44
473.54	1869.80
473.75	1830.06
473.96	1992.88
474.16	1889.25
474.37	1959.50
474.57	1878.40
474.78	1808.15
474.99	1996.97
475.19	1958.27
475.40	1809.99
475.60	1718.86
475.81	2074.39
476.02	1891.91
476.22	1868.36
476.43	1991.85
476.63	1897.44
476.84	2091.80
477.05	1705.14
477.25	1792.18
477.46	2295.57
477.66	1925.71
477.87	1720.09
478.08	1809.38
478.28	2023.39
478.49	1876.96
478.69	1775.18
478.90	1823.72
479.10	1993.08
479.31	2090.57
479.52	1877.58
479.72	1955.81
479.93	1981.00
480.13	1838.67
480.34	1790.54
480.54	1880.04
480.75	1806.10
480.96	2050.84
481.16	1778.46
481.37	1902.15
481.57	2007.83
481.78	1937.79
481.98	1982.43
482.19	1870.21
482.40	2148.32
482.60	2026.26
482.81	1927.55
483.01	1836.82
483.22	2064.56
483.42	2053.91
483.63	1966.87
483.83	1910.35
484.04	1843.58
484.24	2001.28
484.45	1898.26
484.66	1707.60
484.86	1954.99
485.07	1815.52
485.27	1860.58
485.48	1792.79
485.68	2068.86
485.89	1807.74
486.09	1915.26
486.30	1809.38
486.50	1900.31
486.71	1928.37
486.91	1939.02
487.12	1967.28
487.33	2189.07
487.53	2217.75
487.74	2032.81
487.94	1931.85
488.15	2066.20
488.35	2083.40
488.56	1980.80
488.76	1933.90
488.97	1986.73
489.17	2044.90
489.38	1857.30
489.58	1845.02
489.79	1997.18
489.99	1977.52
490.20	1879.01
490.40	1944.34
490.61	1951.51
490.81	1847.88
491.02	1877.17
491.22	1894.78
491.43	2002.50
491.63	1949.67
491.84	1977.52
492.04	1723.16
492.25	2011.92
492.45	1876.35
492.66	1808.36
492.86	1738.32
493.07	1868.16
493.27	2179.65
493.48	1713.74
493.68	1853.62
493.89	1881.67
494.09	1992.47
494.30	1798.53
494.50	2068.45
494.71	2021.55
494.91	1787.26
495.12	1877.37
495.32	1993.08
495.53	1972.81
495.73	1753.88
495.94	1845.42
496.14	1700.02
496.35	2133.37
496.55	1869.39
496.76	1799.35
496.96	1881.67
497.17	1897.65
497.37	2010.90
497.58	1817.78
497.78	1745.28
497.98	1888.64
498.19	1909.12
498.39	1879.22
498.60	1909.73
498.80	1754.09
499.01	2048.38
499.21	1788.08
499.42	1849.52
499.62	1866.72
499.83	2215.70
500.03	1712.31
500.24	1912.39
500.44	2058.82
500.64	2041.21
500.85	1838.46
501.05	1941.27
501.26	1728.49
501.46	2070.91
501.67	1803.85
501.87	1757.98
502.08	1797.91
502.28	1889.25
502.48	1911.57
502.69	1986.94
502.89	1780.71
503.10	1852.59
503.30	1900.51
503.51	1912.60
503.71	1751.42
503.92	2005.37
504.12	1957.45
504.32	1904.41
504.53	2053.09
504.73	2089.95
504.94	2047.76
505.14	2135.01
505.35	2112.48
505.55	2104.70
505.75	2014.59
505.96	2100.19
506.16	2252.97
506.37	1943.93
506.57	1865.70
506.78	1960.32
506.98	2091.18
507.18	1779.89
507.39	1805.90
507.59	1894.17
507.80	1857.92
508.00	1935.94
508.20	2033.84
508.41	1880.85
508.61	2092.00
508.82	2028.31
509.02	1957.45
509.22	1774.16
509.43	1816.55
509.63	1848.91
509.84	1854.03
510.04	1766.37
510.24	2084.83
510.45	2023.19
510.65	1763.71
510.86	1887.20
511.06	1820.03
511.26	2039.78
511.47	1971.37
511.67	1829.45
511.88	2005.37
512.08	2058.82
512.28	1768.42
512.49	1945.98
512.69	1918.54
512.90	1942.29
513.10	1830.68
513.30	1896.83
513.51	1985.71
513.71	2114.12
513.91	1915.47
514.12	1908.71
514.32	2024.42
514.53	1901.54
514.73	2002.30
514.93	1927.55
515.14	2029.33
515.34	2251.33
515.54	2044.49
515.75	2137.26
515.95	2250.92
516.15	2286.35
516.36	2050.84
516.56	2037.11
516.77	1748.97
516.97	2027.69
517.17	1902.15
517.38	1969.12
517.58	2149.14
517.78	1994.72
517.99	2087.08
518.19	2115.55
518.39	2351.89
518.60	2192.56
518.80	2044.49
519.00	2144.02
519.21	2013.77
519.41	2215.90
519.61	1862.22
519.82	1977.93
520.02	1975.47
520.22	1959.70
520.43	1915.47
520.63	1933.08
520.83	1870.00
521.04	1805.69
521.24	2082.37
521.44	2033.02
521.65	2092.00
521.85	2288.20
522.05	2058.62
522.26	2024.21
522.46	2293.32
522.66	2122.92
522.87	1908.30
523.07	2067.42
523.27	1907.48
523.48	2147.09
523.68	1939.63
523.88	1961.75
524.09	2133.78
524.29	2021.14
524.49	1809.18
524.70	2116.99
524.90	2248.26
525.10	2150.37
525.31	1900.72
525.51	1846.24
525.71	2070.70
525.91	2037.93
526.12	1827.61
526.32	1782.76
526.52	1873.48
526.73	1823.72
526.93	1907.68
527.13	1734.02
527.34	1899.49
527.54	1940.04
527.74	1865.70
527.94	1807.13
528.15	1828.43
528.35	1972.60
528.55	1974.04
528.76	1955.81
528.96	1737.91
529.16	2032.40
529.36	2011.92
529.57	1777.43
529.77	2065.38
529.97	1805.69
530.18	1940.66
530.38	1841.74
530.58	2000.25
530.78	1918.54
530.99	1850.95
531.19	1959.70
531.39	1867.54
531.60	1944.55
531.80	1836.62
532.00	1979.77
532.20	1927.75
532.41	1820.85
532.61	1834.98
532.81	1838.87
533.01	1872.66
533.22	1974.45
533.42	1990.01
533.62	1709.23
533.82	2055.14
534.03	1879.83
534.23	1935.94
534.43	1791.77
534.63	1845.02
534.84	1936.35
535.04	1883.52
535.24	1893.35
535.44	2247.44
535.65	1852.39
535.85	1805.69
536.05	1817.37
536.25	1932.26
536.46	1831.70
536.66	2041.21
536.86	1919.36
537.06	2035.27
537.27	2109.00
537.47	1970.15
537.67	1848.09
537.87	2107.16
538.08	1892.73
538.28	1795.86
538.48	1802.21
538.68	1914.65
538.88	2012.33
539.09	1773.13
539.29	1887.00
539.49	2061.08
539.69	1978.75
539.90	1960.32
540.10	1816.34
540.30	2107.36
540.50	1884.95
540.70	1804.87
540.91	1918.33
541.11	2100.40
541.31	2204.43
541.51	2036.50
541.72	2082.58
541.92	2098.35
542.12	1958.47
542.32	1947.62
542.52	1877.17
542.73	1900.52
542.93	2027.28
543.13	1892.53
543.33	2009.47
543.53	2131.53
543.74	2075.41
543.94	1940.04
544.14	2105.31
544.34	2258.30
544.54	2108.79
544.75	2179.65
544.95	2315.02
545.15	2242.73
545.35	2276.32
545.55	2117.60
545.75	1932.26
545.96	2290.24
546.16	1865.29
546.36	1905.43
546.56	1944.75
546.76	2105.11
546.97	2175.76
547.17	1901.95
547.37	1964.82
547.57	1863.24
547.77	2023.60
547.97	1929.60
548.18	1939.43
548.38	1962.98
548.58	2301.10
548.78	2216.52
548.98	2455.92
549.18	2707.82
549.39	2837.67
549.59	2585.97
549.79	2381.79
549.99	2504.26
550.19	2354.14
550.39	2280.82
550.60	2077.66
550.80	2081.97
551.00	2115.14
551.20	1945.37
551.40	1911.98
551.60	2027.28
551.80	2008.03
552.01	2061.49
552.21	1929.60
552.41	1990.01
552.61	2201.16
552.81	1964.62
553.01	1805.08
553.21	1980.59
553.42	1823.72
553.62	1856.89
553.82	1825.76
554.02	2133.78
554.22	2022.37
554.42	1786.65
554.62	1950.69
554.83	2217.95
555.03	2374.01
555.23	2240.89
555.43	2558.94
555.63	2509.99
555.83	2407.59
556.03	2208.53
556.23	2055.55
556.44	2210.99
556.64	2318.92
556.84	1913.42
557.04	2082.17
557.24	2170.85
557.44	2104.08
557.64	1989.81
557.84	1875.53
558.04	1959.91
558.25	2045.72
558.45	1877.17
558.65	1954.38
558.85	2008.85
559.05	1773.34
559.25	1964.41
559.45	2080.53
559.65	2395.51
559.85	2846.27
560.05	2244.16
560.26	2338.78
560.46	2331.61
560.66	2186.62
560.86	2065.58
561.06	1987.14
561.26	2253.99
561.46	2127.02
561.66	1974.04
561.86	2033.02
562.06	1901.74
562.26	1965.44
562.47	1969.12
562.67	1823.92
562.87	2015.00
563.07	1783.17
563.27	1959.50
563.47	1976.09
563.67	1891.09
563.87	2053.09
564.07	1926.52
564.27	2023.19
564.47	2061.49
564.67	2151.60
564.87	2029.33
565.08	2104.49
565.28	1975.27
565.48	2075.00
565.68	2054.11
565.88	2022.98
566.08	2210.58
566.28	1949.67
566.48	1786.44
566.68	1879.22
566.88	1881.47
567.08	2024.42
567.28	1877.58
567.48	1906.86
567.68	2009.88
567.88	1825.97
568.08	2019.09
568.28	2114.32
568.48	1960.93
568.68	2161.02
568.89	1963.59
569.09	1764.53
569.29	2046.94
569.49	2029.13
569.69	1835.80
569.89	1801.19
570.09	1701.25
570.29	1835.39
570.49	1738.73
570.69	1798.73
570.89	2020.94
571.09	2191.53
571.29	1747.94
571.49	2032.61
571.69	1976.49
571.89	1980.39
572.09	1820.03
572.29	1846.45
572.49	1999.84
572.69	1984.07
572.89	1904.41
573.09	1686.71
573.29	1972.40
573.49	2035.07
573.69	1979.36
573.89	2067.83
574.09	1919.77
574.29	2103.26
574.49	1884.75
574.69	1843.17
574.89	1780.91
575.09	1810.61
575.29	1798.32
575.49	1896.21
575.69	1960.93
575.89	1763.92
576.09	1901.74
576.29	1912.19
576.49	1807.74
576.69	1927.14
576.89	1847.06
577.09	1918.54
577.29	1769.65
577.49	2197.47
577.69	1869.59
577.89	1987.76
578.09	1924.07
578.29	1742.62
578.49	1918.13
578.69	1817.16
578.89	2051.66
579.09	1934.10
579.29	1805.69
579.49	2027.69
579.69	1888.84
579.89	2152.82
580.09	1707.19
580.29	1713.54
580.49	1869.39
580.69	1799.96
580.89	1875.94
581.09	1847.68
581.29	1847.68
581.49	1874.30
581.69	1784.60
581.89	1821.67
582.09	1789.11
582.28	1786.24
582.48	1989.19
582.68	2086.47
582.88	2124.36
583.08	1938.20
583.28	1942.09
583.48	1929.60
583.68	1860.99
583.88	1932.26
584.08	1920.79
584.28	1897.44
584.48	2164.29
584.68	1981.20
584.88	1853.62
585.08	2074.80
585.28	2046.33
585.48	2095.07
585.68	2003.94
585.87	1993.08
586.07	1994.31
586.27	1918.13
586.47	1981.61
586.67	1912.60
586.87	1893.96
587.07	1899.49
587.27	1788.08
587.47	1957.86
587.67	2194.81
587.87	2441.79
588.07	2215.08
588.27	2194.19
588.46	2391.62
588.66	2426.23
588.86	2161.63
589.06	2191.94
589.26	2167.16
589.46	2116.37
589.66	1891.30
589.86	1885.16
590.06	1959.50
590.26	2070.70
590.46	1995.95
590.66	2135.62
590.85	2039.37
591.05	2154.05
591.25	1948.44
591.45	1969.12
591.65	2078.69
591.85	2092.41
592.05	2000.87
592.25	2123.13
592.45	2232.49
592.64	2082.17
592.84	2050.22
593.04	1925.71
593.24	2340.83
593.44	1963.18
593.64	2056.78
593.84	2077.25
594.04	1990.01
594.24	2190.30
594.43	1900.52
594.63	1953.35
594.83	2063.74
595.03	2039.78
595.23	1817.37
595.43	1759.41
595.63	1829.45
595.83	2055.96
596.02	1697.15
596.22	1947.82
596.42	2007.21
596.62	1947.62
596.82	1885.36
597.02	1999.64
597.22	2108.38
597.41	1951.51
597.61	1867.13
597.81	2027.08
598.01	2080.94
598.21	1934.72
598.41	1900.11
598.61	1873.28
598.80	1954.79
599.00	2011.51
599.20	2082.58
599.40	1930.01
599.60	1951.30
599.80	2083.40
599.99	2104.08
600.19	1939.22
600.39	1981.41
600.59	2051.25
600.79	1979.16
600.99	1953.35
601.19	2160.81
601.38	2194.60
601.58	2014.79
601.78	1778.05
601.98	2145.86
602.18	2552.59
602.37	3033.66
602.57	3080.14
602.77	3334.30
602.97	3430.14
603.17	3300.51
603.37	3141.58
603.56	3152.64
603.76	3070.93
603.96	2981.02
604.16	2850.77
604.36	2789.54
604.56	2602.35
604.75	2286.15
604.95	2287.79
605.15	2381.38
605.35	2290.45
605.55	2071.11
605.74	2016.84
605.94	2213.24
606.14	2049.40
606.34	2021.14
606.54	1941.27
606.73	1917.31
606.93	2026.06
607.13	1847.88
607.33	1906.25
607.53	2143.61
607.72	2063.53
607.92	1998.20
608.12	2016.63
608.32	1918.33
608.51	2060.67
608.71	1863.65
608.91	1999.64
609.11	2097.32
609.31	2022.98
609.50	2095.28
609.70	2265.05
609.90	2232.49
610.10	2250.31
610.29	2099.17
610.49	1989.81
610.69	2140.95
610.89	2039.78
611.09	2038.75
611.28	2089.54
611.48	2077.25
611.68	1938.20
611.88	1896.01
612.07	1860.17
612.27	2073.98
612.47	1877.37
612.67	1965.03
612.86	2052.68
613.06	1959.91
613.26	1728.69
613.46	1894.17
613.65	2011.11
613.85	2379.74
614.05	2119.65
614.25	2111.66
614.44	2028.72
614.64	2038.55
614.84	1959.50
615.04	1936.76
615.23	1974.86
615.43	2093.23
615.63	2057.59
615.83	1902.97
616.02	1855.25
616.22	2171.87
616.42	2016.43
616.62	2021.55
616.81	2126.00
617.01	2174.94
617.21	2119.65
617.41	1944.34
617.60	2027.49
617.80	2059.03
618.00	2064.76
618.19	2005.58
618.39	1971.58
618.59	2015.82
618.79	1948.64
618.98	1726.85
619.18	1921.20
619.38	2181.29
619.57	1906.25
619.77	1881.06
619.97	1866.52
620.17	1871.43
620.36	1825.15
620.56	2138.08
620.76	1920.79
620.95	1988.37
621.15	2031.18
621.35	1941.06
621.54	1974.65
621.74	2019.91
621.94	1890.48
622.14	1840.71
622.33	1794.02
622.53	1907.89
622.73	1906.45
622.92	1731.35
623.12	1920.99
623.32	2131.73
623.51	1980.39
623.71	1737.29
623.91	2001.48
624.10	1788.70
624.30	1928.37
624.50	1772.72
624.69	1745.89
624.89	2395.51
625.09	1876.96
625.29	1680.97
625.48	1756.95
625.68	1935.33
625.88	2049.61
626.07	1943.93
626.27	1784.60
626.47	1817.16
626.66	1728.49
626.86	1855.87
627.06	1865.49
627.25	1890.28
627.45	2105.52
627.64	1893.96
627.84	2046.54
628.04	1823.10
628.23	2154.46
628.43	1786.24
628.63	1837.03
628.82	1881.67
629.02	2170.85
629.22	2060.67
629.41	2136.03
629.61	2044.90
629.81	2287.17
630.00	1981.61
630.20	1904.20
630.40	2096.10
630.59	2107.97
630.79	1994.72
630.98	1965.64
631.18	1950.90
631.38	1958.88
631.57	2037.73
631.77	1759.00
631.97	1949.67
632.16	1942.29
632.36	1932.05
632.56	1918.95
632.75	1929.19
632.95	2027.08
633.14	1775.18
633.34	2038.55
633.54	1662.54
633.73	1839.49
633.93	1845.22
634.12	1721.73
634.32	2249.28
634.52	1902.15
634.71	1740.57
634.91	1930.21
635.11	1762.69
635.30	1819.21
635.50	1913.42
635.69	1813.27
635.89	2162.04
636.09	2048.17
636.28	1809.99
636.48	1885.36
636.67	2041.01
636.87	1978.13
637.07	1980.39
637.26	1834.57
637.46	1982.84
637.65	2082.78
637.85	1966.46
638.04	1905.63
638.24	1903.38
638.44	1998.20
638.63	1917.31
638.83	1880.44
639.02	1967.69
639.22	1958.68
639.42	1875.94
639.61	1875.53
639.81	1919.97
640.00	1886.79
640.20	1971.17
640.39	1990.01
640.59	2273.86
640.79	2208.12
640.98	2233.92
641.18	2188.05
641.37	2275.50
641.57	2101.63
641.76	2076.23
641.96	1890.07
642.15	2050.02
642.35	1961.34
642.55	2006.60
642.74	1868.16
642.94	2072.75
643.13	2110.64
643.33	1863.86
643.52	1847.47
643.72	1836.62
643.91	1924.07
644.11	1841.53
644.31	1793.20
644.50	1811.63
644.70	2059.44
644.89	1861.60
645.09	1937.38
645.28	1880.65
645.48	1951.51
645.67	1804.87
645.87	1699.40
646.06	1866.93
646.26	1932.46
646.45	1682.00
646.65	1653.33
646.84	2142.38
647.04	1850.95
647.24	1747.12
647.43	1883.72
647.63	1905.02
647.82	2064.97
648.02	1743.03
648.21	1796.68
648.41	2053.50
648.60	1854.23
648.80	1986.53
648.99	1868.36
649.19	1811.84
649.38	1701.04
649.58	1890.48
649.77	1908.91
649.97	2036.91
650.16	1949.46
650.36	1681.79
650.55	2020.73
650.75	1937.99
650.94	2084.22
651.14	1872.66
651.33	1931.23
651.53	2088.52
651.72	1810.40
651.92	1887.61
652.11	1682.61
652.31	1967.28
652.50	1942.29
652.70	1909.32
652.89	1769.24
653.09	2103.26
653.28	1875.53
653.48	1723.16
653.67	1723.78
653.87	2290.65
654.06	1928.98
654.25	2042.03
654.45	1823.31
654.64	1873.48
654.84	1880.44
655.03	1675.44
655.23	1960.11
655.42	1955.20
655.62	2119.03
655.81	1882.29
656.01	1768.01
656.20	2003.94
656.40	2087.29
656.59	1884.34
656.79	2011.31
656.98	1927.75
657.17	2020.32
657.37	1893.76
657.56	1827.20
657.76	1966.46
657.95	2030.15
658.15	1566.49
658.34	1866.72
658.54	1896.83
658.73	1742.21
658.92	1821.26
659.12	1896.01
659.31	1978.75
659.51	1816.14
659.70	1983.66
659.90	1890.89
660.09	2086.68
660.29	1954.79
660.48	1822.49
660.67	2060.05
660.87	1854.85
661.06	1958.47
661.26	1974.65
661.45	1952.12
661.65	1975.06
661.84	1851.77
662.03	1795.04
662.23	1858.74
662.42	2161.22
662.62	1764.53
662.81	1788.90
663.00	1836.62
663.20	1903.18
663.39	1953.97
663.59	1957.65
663.78	1815.52
663.97	1809.18
664.17	1982.43
664.36	1712.31
664.56	1808.36
664.75	1990.42
664.94	1976.09
665.14	1897.44
665.33	1884.34
665.53	1912.60
665.72	1895.40
665.91	2015.00
666.11	1907.48
666.30	1933.69
666.50	1883.72
666.69	1918.33
666.88	1861.81
667.08	1939.43
667.27	1859.97
667.47	1901.33
667.66	1858.53
667.85	1986.94
668.05	1895.40
668.24	1796.27
668.43	2001.28
668.63	1828.63
668.82	2015.41
669.02	1958.88
669.21	1868.57
669.40	1772.93
669.60	2145.04
669.79	1749.99
669.98	2358.85
670.18	1796.48
670.37	1791.56
670.56	1855.05
670.76	1915.47
670.95	1898.47
671.15	2036.91
671.34	1932.87
671.53	1896.62
671.73	1858.74
671.92	1829.04
672.11	1796.07
672.31	1867.13
672.50	1954.17
672.69	1757.16
672.89	1667.25
673.08	1829.86
673.27	2005.17
673.47	1943.93
673.66	1914.65
673.85	1777.84
674.05	1963.18
674.24	2146.48
674.43	2116.99
674.63	2437.29
674.82	2721.55
675.01	2228.80
675.21	2447.12
675.40	2257.68
675.59	2197.47
675.79	2406.57
675.98	2123.33
676.17	2237.20
676.37	2170.03
676.56	2043.46
676.75	2043.46
676.95	1974.24
677.14	1933.90
677.33	2072.13
677.52	1804.47
677.72	1857.92
677.91	1958.47
678.10	1725.82
678.30	1794.43
678.49	1771.49
678.68	2168.80
678.88	1708.42
679.07	1968.51
679.26	1810.20
679.45	2137.06
679.65	2032.40
679.84	1679.33
680.03	1711.08
680.23	1859.56
680.42	2217.75
680.61	1753.47
680.81	1818.19
681.00	1904.82
681.19	1953.56
681.38	1980.18
681.58	1933.08
681.77	1836.21
681.96	2015.82
682.15	1870.82
682.35	1921.61
682.54	1991.04
682.73	1769.04
682.93	1786.44
683.12	1788.90
683.31	1984.07
683.50	2224.91
683.70	1792.79
683.89	1913.62
684.08	1817.78
684.27	1997.59
684.47	1724.59
684.66	1893.55
684.85	2132.35
685.04	2031.79
685.24	1800.37
685.43	1883.52
685.62	1670.73
685.81	1975.27
686.01	1999.64
686.20	1996.16
686.39	2026.67
686.58	2490.53
686.78	2265.67
686.97	2247.85
687.16	2256.66
687.35	2190.51
687.55	2098.55
687.74	2119.44
687.93	1967.07
688.12	2062.71
688.32	2047.35
688.51	1849.11
688.70	2045.51
688.89	1865.09
689.08	1772.52
689.28	1840.92
689.47	1928.57
689.66	1943.52
689.85	1953.56
690.05	1833.55
690.24	1833.75
690.43	1945.78
690.62	1918.13
690.81	1807.33
691.01	1896.21
691.20	1833.14
691.39	1788.49
691.58	1906.25
691.77	2097.94
691.97	1906.66
692.16	1916.08
692.35	1868.36
692.54	1853.82
692.73	2004.35
692.93	2012.13
693.12	2038.55
693.31	2097.53
693.50	2054.93
693.69	2063.33
693.89	1934.92
694.08	2131.32
694.27	2158.76
694.46	1891.71
694.65	1949.05
694.85	2048.99
695.04	2049.81
695.23	1966.46
695.42	2311.95
695.61	2558.73
695.80	2793.84
696.00	2968.33
696.19	3081.99
696.38	2702.70
696.57	2568.36
696.76	2563.24
696.95	2359.26
697.15	2552.59
697.34	2448.96
697.53	2181.70
697.72	2178.01
697.91	2084.42
698.10	2267.51
698.30	1974.24
698.49	1930.62
698.68	1977.52
698.87	1914.24
699.06	1802.62
699.25	1861.81
699.45	2048.38
699.64	1960.93
699.83	1966.46
700.02	1786.44
700.21	1953.56
700.40	1816.75
700.59	1850.75
700.79	1864.06
700.98	1969.53
701.17	1816.34
701.36	1795.86
701.55	1789.92
701.74	2090.36
701.93	1926.52
702.12	2177.81
702.32	2216.52
702.51	2472.92
702.70	2503.64
702.89	2284.71
703.08	2122.51
703.27	2294.13
703.46	2215.49
703.65	2074.18
703.85	1976.29
704.04	1987.14
704.23	2161.02
704.42	1913.42
704.61	1926.11
704.80	2146.27
704.99	1847.88
705.18	1951.51
705.37	1897.24
705.57	2181.50
705.76	2616.48
705.95	2569.59
706.14	3021.37
706.33	3169.64
706.52	3348.63
706.71	2762.91
706.90	2533.13
707.09	2588.43
707.28	2473.54
707.47	2257.68
707.67	2346.77
707.86	2160.20
708.05	2312.57
708.24	2101.42
708.43	2068.86
708.62	1948.03
708.81	1851.77
709.00	1767.60
709.19	1840.92
709.38	2027.90
709.57	1790.74
709.76	1977.72
709.96	1865.09
710.15	2116.78
710.34	1973.42
710.53	2051.86
710.72	1939.02
710.91	2095.07
711.10	1991.85
711.29	2019.09
711.48	1879.22
711.67	1806.92
711.86	1999.23
712.05	1818.19
712.24	1843.58
712.43	2018.07
712.62	2083.19
712.81	1921.81
713.00	2035.89
713.19	1769.45
713.39	1954.17
713.58	1785.01
713.77	1916.69
713.96	1993.49
714.15	1914.24
714.34	1909.12
714.53	1794.23
714.72	2173.30
714.91	1841.53
715.10	1949.46
715.29	1822.90
715.48	2346.36
715.67	2034.45
715.86	1949.46
716.05	1908.50
716.24	1887.61
716.43	1870.61
716.62	1766.78
716.81	1762.28
717.00	1887.61
717.19	2095.48
717.38	1924.27
717.57	1859.97
717.76	1745.69
717.95	2017.45
718.14	1918.13
718.33	1837.64
718.52	1706.16
718.71	1721.32
718.90	1721.52
719.09	1844.81
719.28	1886.59
719.47	2017.04
719.66	2027.69
719.85	2018.68
720.04	1973.42
720.23	2031.18
720.42	1941.27
720.61	2042.44
720.80	1801.60
720.99	1993.70
721.18	1899.08
721.37	1859.56
721.56	1902.15
721.75	2042.23
721.94	1826.58
722.13	1895.80
722.32	1875.32
722.51	1992.26
722.70	1884.54
722.89	1936.15
723.08	1873.48
723.27	1988.17
723.46	1928.78
723.65	1843.58
723.84	1802.42
724.03	2056.78
724.22	1757.57
724.41	1923.45
724.60	1875.32
724.79	1974.86
724.98	1934.92
725.16	1824.94
725.35	1960.73
725.54	1777.23
725.73	1893.35
725.92	1890.68
726.11	1915.06
726.30	2100.60
726.49	1950.90
726.68	2088.52
726.87	2162.25
727.06	2227.37
727.25	1968.51
727.44	2089.54
727.63	2027.08
727.82	1959.29
728.01	2018.89
728.20	2052.27
728.38	2146.07
728.57	1930.82
728.76	1934.10
728.95	2045.51
729.14	1768.42
729.33	1780.91
729.52	1666.84
729.71	1797.91
729.90	1800.78
730.09	1852.18
730.28	1922.43
730.47	1888.02
730.66	2142.18
730.84	2043.26
731.03	2021.96
731.22	2038.55
731.41	1993.90
731.60	2002.30
731.79	1755.93
731.98	1845.02
732.17	2010.90
732.36	2000.66
732.55	1854.64
732.73	1774.97
732.92	2059.03
733.11	1981.41
733.30	1826.58
733.49	1735.45
733.68	1948.64
733.87	1941.06
734.06	1815.73
734.25	1913.01
734.43	1979.98
734.62	2161.43
734.81	2136.85
735.00	2086.27
735.19	2096.51
735.38	2118.62
735.57	1887.41
735.76	2060.87
735.94	2144.63
736.13	2566.31
736.32	2491.76
736.51	2541.94
736.70	2862.24
736.89	2891.53
737.08	2720.32
737.27	2972.01
737.45	3529.88
737.64	3549.33
737.83	3880.90
738.02	3902.20
738.21	3834.82
738.40	3524.96
738.59	3118.65
738.77	3069.09
738.96	2822.31
739.15	2779.50
739.34	2681.61
739.53	2550.34
739.72	2534.57
739.90	2438.11
740.09	2149.55
740.28	2141.15
740.47	2149.96
740.66	2094.66
740.85	1876.14
741.03	1962.98
741.22	1832.93
741.41	1919.97
741.60	1770.26
741.79	1963.59
741.98	2119.44
742.16	2179.45
742.35	2010.49
742.54	1963.18
742.73	2298.64
742.92	2044.28
743.10	1937.58
743.29	1996.16
743.48	2339.80
743.67	1953.15
743.86	1825.35
744.05	1852.59
744.23	1861.19
744.42	1859.76
744.61	1948.64
744.80	1768.42
744.99	1866.72
745.17	1738.32
745.36	1757.98
745.55	1917.72
745.74	1890.07
745.93	1797.30
746.11	1783.37
746.30	1770.47
746.49	2010.29
746.68	1772.31
746.86	1861.40
747.05	1864.68
747.24	1969.33
747.43	2001.89
747.62	1792.59
747.80	1860.99
747.99	2093.23
748.18	2062.30
748.37	1956.63
748.56	1957.65
748.74	2079.10
748.93	1953.97
749.12	2133.16
749.31	2679.56
749.49	3086.29
749.68	3414.99
749.87	3715.83
750.06	3743.89
750.24	3758.43
750.43	3907.32
750.62	4156.15
750.81	4339.85
750.99	4565.13
751.18	4557.96
751.37	3978.79
751.56	3657.06
751.74	3763.76
751.93	3674.47
752.12	2976.93
752.31	2804.08
752.49	2666.05
752.68	2773.97
752.87	2459.00
753.06	2293.11
753.24	2213.04
753.43	2280.21
753.62	2000.25
753.81	1941.88
753.99	2175.97
754.18	2004.55
754.37	1821.26
754.55	1910.96
754.74	2128.04
754.93	1711.90
755.12	1844.61
755.30	1792.18
755.49	2027.90
755.68	1918.33
755.86	1917.92
756.05	1759.41
756.24	2084.42
756.43	1737.91
756.61	1766.58
756.80	1899.08
756.99	2045.72
757.17	1883.11
757.36	1772.31
757.55	1883.11
757.74	1958.06
757.92	1896.83
758.11	1748.76
758.30	1679.33
758.48	1850.13
758.67	1748.97
758.86	1860.17
759.04	1753.06
759.23	1840.51
759.42	1894.99
759.60	1767.19
759.79	1877.17
759.98	1842.97
760.16	1768.22
760.35	1778.05
760.54	1718.45
760.73	1924.89
760.91	1717.43
761.10	1889.87
761.29	1915.67
761.47	1899.08
761.66	2182.11
761.85	1905.43
762.03	2039.57
762.22	2481.11
762.41	3851.61
762.59	5351.75
762.78	6125.06
762.97	7338.90
763.15	7643.02
763.34	7059.76
763.52	5581.94
763.71	5312.23
763.90	5098.01
764.08	4681.04
764.27	4480.55
764.46	4392.07
764.64	3843.01
764.83	3600.33
765.02	3362.56
765.20	3053.52
765.39	2850.16
765.58	2346.56
765.76	2285.33
765.95	2154.87
766.13	2059.44
766.32	1964.62
766.51	1956.83
766.69	2487.67
766.88	1954.79
767.07	1811.43
767.25	1700.63
767.44	2051.25
767.62	2054.93
767.81	1820.64
768.00	1871.23
768.18	1905.84
768.37	1813.48
768.56	1754.29
768.74	1815.32
768.93	1770.88
769.11	1951.92
769.30	1879.22
769.49	1790.13
769.67	1860.99
769.86	1850.75
770.04	1842.35
770.23	1842.35
770.42	2034.25
770.60	1894.17
770.79	1750.19
770.97	1809.18
771.16	2196.86
771.35	2502.00
771.53	2844.01
771.72	3060.69
771.90	3461.89
772.09	3713.17
772.27	3368.29
772.46	2853.03
772.65	3001.50
772.83	2810.43
773.02	2723.18
773.20	2528.01
773.39	2599.49
773.58	2536.61
773.76	2210.99
773.95	2226.96
774.13	2235.15
774.32	2076.44
774.50	1917.92
774.69	1985.30
774.87	1921.20
775.06	2168.18
775.25	1807.13
775.43	1872.25
775.62	1913.21
775.80	1950.90
775.99	1931.64
776.17	1803.44
776.36	1874.51
776.54	1994.72
776.73	1809.59
776.92	1865.09
777.10	1973.63
777.29	1915.06
777.47	1789.52
777.66	1805.69
777.84	1886.18
778.03	1876.96
778.21	1756.54
778.40	1874.10
778.58	1927.14
778.77	1996.77
778.95	1729.30
779.14	1800.16
779.32	2108.38
779.51	1987.14
779.70	1829.04
779.88	1742.00
780.07	1811.84
780.25	2216.72
780.44	1825.35
780.62	1990.63
780.81	1952.53
780.99	1935.54
781.18	1805.49
781.36	1780.71
781.55	1863.24
781.73	2068.04
781.92	1732.38
782.10	1755.11
782.29	1944.14
782.47	2088.52
782.66	1870.21
782.84	1717.02
783.03	1798.94
783.21	2039.57
783.40	1840.71
783.58	1792.79
783.77	1831.70
783.95	1848.50
784.14	1743.03
784.32	1831.50
784.51	2034.45
784.69	1820.03
784.88	1734.02
785.06	1859.76
785.24	1751.83
785.43	2033.84
785.61	1927.34
785.80	1806.10
785.98	1964.21
786.17	1895.60
786.35	1805.08
786.54	1949.05
786.72	1988.37
786.91	2008.85
787.09	1868.36
787.28	1775.59
787.46	1908.09
787.65	2018.27
787.83	1729.51
788.01	1907.07
788.20	1804.06
788.38	1914.44
788.57	1845.83
788.75	1887.61
788.94	2148.11
789.12	2093.64
789.31	1901.74
789.49	1993.90
789.67	1831.50
789.86	1969.53
790.04	1793.20
790.23	1718.45
790.41	2177.61
790.60	1870.82
790.78	1876.55
790.96	1884.34
791.15	1964.62
791.33	1886.18
791.52	1869.59
791.70	1796.68
791.89	1896.83
792.07	2015.20
792.25	1871.02
792.44	1735.86
792.62	2031.38
792.81	1860.58
792.99	1889.25
793.17	1797.09
793.36	1795.04
793.54	2214.06
793.73	2332.02
793.91	2551.15
794.10	2952.97
794.28	3236.00
794.46	3089.16
794.65	3111.07
794.83	2683.45
795.01	2660.11
795.20	2747.35
795.38	2545.42
795.57	2544.40
795.75	2488.49
795.93	2290.24
796.12	2292.29
796.30	2284.51
796.49	2240.89
796.67	1977.11
796.85	2118.83
797.04	2024.21
797.22	2051.25
797.40	1785.01
797.59	1924.27
797.77	1932.87
797.96	1823.10
798.14	1786.44
798.32	1814.30
798.51	1972.60
798.69	2132.35
798.87	1871.43
799.06	1866.72
799.24	1738.32
799.42	2095.28
799.61	2193.78
799.79	2322.40
799.98	2738.95
800.16	2666.86
800.34	3026.28
800.53	3479.50
800.71	3614.46
800.89	4139.76
801.08	4145.29
801.26	4137.31
801.44	3626.75
801.63	3224.94
801.81	3151.00
801.99	3020.14
802.18	2892.96
802.36	2856.10
802.54	2749.60
802.73	2491.97
802.91	2486.44
803.09	2402.68
803.28	2327.52
803.46	2240.89
803.64	2329.15
803.83	1935.94
804.01	1904.82
804.19	1831.70
804.38	2043.46
804.56	2026.67
804.74	1892.12
804.92	1939.84
805.11	1816.55
805.29	2047.76
805.47	1846.65
805.66	1765.14
805.84	1752.45
806.02	2026.06
806.21	1833.34
806.39	1979.77
806.57	2016.23
806.76	2009.47
806.94	1900.72
807.12	1837.23
807.30	1829.25
807.49	1950.90
807.67	1924.89
807.85	2029.95
808.04	2032.61
808.22	2192.76
808.40	1781.12
808.58	1783.78
808.77	1975.68
808.95	2130.50
809.13	2107.77
809.31	2831.11
809.50	3541.55
809.68	3915.92
809.86	4050.27
810.05	4312.41
810.23	4847.75
810.41	5726.74
810.59	8560.10
810.78	10275.27
810.96	11854.05
811.14	12783.42
811.32	12330.82
811.51	10220.80
811.69	8513.20
811.87	8484.12
812.05	7521.78
812.24	7106.25
812.42	6724.71
812.60	6201.86
812.78	5258.36
812.97	4685.34
813.15	4519.05
813.33	4011.36
813.51	3627.98
813.70	3046.76
813.88	2702.70
814.06	2542.14
814.24	2326.49
814.42	2025.65
814.61	2122.92
814.79	2226.76
814.97	1791.77
815.15	1881.88
815.34	1981.61
815.52	2055.34
815.70	1769.85
815.88	1811.02
816.06	1776.82
816.25	1831.50
816.43	1772.72
816.61	1936.76
816.79	2104.29
816.98	1734.02
817.16	1839.28
817.34	1778.87
817.52	1974.45
817.70	2102.65
817.89	1881.88
818.07	1785.01
818.25	1890.48
818.43	1916.49
818.61	1856.69
818.80	1825.15
818.98	2127.02
819.16	1909.32
819.34	1756.13
819.52	2046.74
819.70	1803.85
819.89	1884.75
820.07	1734.02
820.25	1713.33
820.43	1917.92
820.61	2007.42
820.80	1857.92
820.98	1752.04
821.16	1696.54
821.34	1710.87
821.52	1818.19
821.70	1899.70
821.89	1880.65
822.07	1819.21
822.25	1836.82
822.43	1757.36
822.61	2068.65
822.79	1918.33
822.98	1814.30
823.16	1672.17
823.34	1878.81
823.52	2013.77
823.70	1970.15
823.88	1675.85
824.06	1951.10
824.25	1873.07
824.43	1976.70
824.61	1781.73
824.79	1913.21
824.97	1947.62
825.15	2033.43
825.33	2220.61
825.52	2510.40
825.70	2483.57
825.88	2610.55
826.06	2708.44
826.24	2769.88
826.42	2664.82
826.60	2434.01
826.78	2462.07
826.97	2305.81
827.15	2428.69
827.33	2133.78
827.51	2207.92
827.69	2069.06
827.87	2145.66
828.05	2122.11
828.23	1929.19
828.41	2119.65
828.60	2066.40
828.78	1767.60
828.96	1939.22
829.14	1860.78
829.32	1875.94
829.50	1851.77
829.68	1809.59
829.86	1848.70
830.04	1966.46
830.22	1881.47
830.41	1746.71
830.59	1859.97
830.77	1948.85
830.95	1801.80
831.13	1803.03
831.31	1780.30
831.49	1990.83
831.67	1970.97
831.85	1946.18
832.03	1843.17
832.21	1963.80
832.39	1736.27
832.57	1744.66
832.76	1993.49
832.94	1871.02
833.12	1688.76
833.30	1848.50
833.48	2043.87
833.66	1901.95
833.84	1786.24
834.02	1852.18
834.20	1996.56
834.38	1980.80
834.56	1668.68
834.74	1729.71
834.92	1738.32
835.10	2081.15
835.28	1918.54
835.46	1831.29
835.64	1837.64
835.82	1829.25
836.01	2059.44
836.19	1991.04
836.37	1832.93
836.55	1766.58
836.73	1792.79
836.91	1739.14
837.09	1971.99
837.27	2065.79
837.45	1708.42
837.63	1755.52
837.81	1750.40
837.99	1911.98
838.17	1851.36
838.35	1797.71
838.53	2193.78
838.71	2033.02
838.89	1852.18
839.07	1824.33
839.25	1956.83
839.43	2040.19
839.61	1974.65
839.79	2543.58
839.97	3013.18
840.15	3314.02
840.33	3461.07
840.51	3726.89
840.69	3537.05
840.87	3175.58
841.05	3010.92
841.23	3043.69
841.41	3563.06
841.59	4567.79
841.77	4895.46
841.95	5200.41
842.13	5627.41
842.31	5374.28
842.49	4512.90
842.67	4115.80
842.85	4104.95
843.03	3573.50
843.21	3495.27
843.39	3466.19
843.57	3228.21
843.75	3036.93
843.93	2770.90
844.11	2612.80
844.29	2555.05
844.47	2392.64
844.65	2474.77
844.83	2191.12
845.01	2098.35
845.19	2200.13
845.36	2008.24
845.54	2030.77
845.72	1955.81
845.90	1988.17
846.08	1790.13
846.26	1867.34
846.44	1952.53
846.62	1974.04
846.80	1884.75
846.98	1783.17
847.16	1845.02
847.34	1912.60
847.52	1730.12
847.70	1767.81
847.88	1848.50
848.06	2076.64
848.24	1897.65
848.41	1715.38
848.59	2008.85
848.77	1941.06
848.95	1821.26
849.13	1784.19
849.31	1969.33
849.49	1936.35
849.67	1786.44
849.85	1751.22
850.03	1897.65
850.21	1883.31
850.39	1799.14
850.57	1910.35
850.74	2070.91
850.92	2092.20
851.10	2048.38
851.28	2151.80
851.46	2377.90
851.64	2703.73
851.82	2460.63
852.00	2509.38
852.18	2573.68
852.36	2368.89
852.53	2177.81
852.71	2251.13
852.89	2256.86
853.07	2243.34
853.25	2006.60
853.43	1957.24
853.61	2067.83
853.79	2055.75
853.97	1892.32
854.14	1856.48
854.32	2116.17
854.50	2033.84
854.68	1886.38
854.86	1836.41
855.04	1810.81
855.22	1989.60
855.40	1718.04
855.57	1761.25
855.75	1942.09
855.93	1946.39
856.11	1684.66
856.29	1746.30
856.47	1800.37
856.65	1932.46
856.82	1744.05
857.00	1694.28
857.18	1861.81
857.36	1838.87
857.54	1882.70
857.72	1967.07
857.89	1964.62
858.07	1907.07
858.25	1990.01
858.43	1723.37
858.61	1854.85
858.79	1849.11
858.97	1765.35
859.14	1887.41
859.32	1868.57
859.50	1836.62
859.68	1892.53
859.86	1793.00
860.03	1883.52
860.21	1959.29
860.39	1807.74
860.57	1885.97
860.75	1927.55
860.93	2144.22
861.10	2001.28
861.28	1814.09
861.46	1943.93
861.64	1971.58
861.82	1828.22
861.99	1922.63
862.17	2001.89
862.35	2011.11
862.53	1840.71
862.71	1856.48
862.88	1919.97
863.06	1960.32
863.24	1836.62
863.42	1794.84
863.60	1856.07
863.77	1935.74
863.95	1656.19
864.13	1859.15
864.31	1833.34
864.49	1960.11
864.66	1721.73
864.84	1816.75
865.02	1910.75
865.20	2190.92
865.37	1857.92
865.55	1789.31
865.73	1753.06
865.91	2014.79
866.09	1958.06
866.26	1924.68
866.44	2008.24
866.62	1946.18
866.80	1818.19
866.97	1909.53
867.15	1907.07
867.33	1947.82
867.51	1947.62
867.68	1901.74
867.86	1825.56
868.04	1832.32
868.22	1690.19
868.39	1822.69
868.57	1937.17
868.75	2056.78
868.93	1700.43
869.10	1787.47
869.28	2110.64
869.46	2042.85
869.64	1833.75
869.81	1856.89
869.99	1889.66
870.17	1902.77
870.35	1756.75
870.52	1806.10
870.70	1996.77
870.88	1815.93
871.05	1725.00
871.23	1652.51
871.41	1859.56
871.59	1860.78
871.76	1814.50
871.94	1773.75
872.12	1902.56
872.29	1713.54
872.47	1790.74
872.65	1740.36
872.83	1918.95
873.00	2047.35
873.18	1829.45
873.36	1804.06
873.53	1997.18
873.71	1722.96
873.89	1796.48
874.06	1858.74
874.24	1917.51
874.42	2047.15
874.60	1920.99
874.77	1885.56
874.95	1796.07
875.13	2003.53
875.30	1789.72
875.48	1822.28
875.66	2089.13
875.83	1798.94
876.01	1848.70
876.19	1941.68
876.36	1731.35
876.54	1882.70
876.72	1713.13
876.89	1882.90
877.07	1974.24
877.25	1673.80
877.42	1875.53
877.60	1825.35
877.78	2099.17
877.95	1823.92
878.13	1800.78
878.31	1893.55
878.48	1980.18
878.66	1951.71
878.84	1789.52
879.01	1847.27
879.19	1927.55
879.37	1958.47
879.54	1792.38
879.72	1709.85
879.90	1652.30
880.07	1976.70
880.25	1601.51
880.42	1918.33
880.60	1894.58
880.78	1958.06
880.95	1826.38
881.13	1826.17
881.31	1887.61
881.48	1801.60
881.66	1764.33
881.83	1883.52
882.01	1811.22
882.19	1721.93
882.36	1869.59
882.54	1834.78
882.72	1954.99
882.89	1904.82
883.07	1760.43
883.24	1811.63
883.42	1976.90
883.60	1854.23
883.77	1741.18
883.95	1834.78
884.12	2017.25
884.30	1949.87
884.48	1983.87
884.65	1913.62
884.83	1943.73
885.00	1958.06
885.18	1763.51
885.36	1838.67
885.53	1963.59
885.71	2034.45
885.88	1738.52
886.06	1812.86
886.23	1959.91
886.41	1837.03
886.59	1815.52
886.76	1783.78
886.94	1956.42
887.11	2240.89
887.29	1822.28
887.47	1712.31
887.64	2007.62
887.82	2046.54
887.99	1675.03
888.17	1845.83
888.34	1839.49
888.52	1752.45
888.69	1866.52
888.87	1721.93
889.05	1821.87
889.22	1815.32
889.40	1796.07
889.57	1945.98
889.75	2078.28
889.92	1829.25
890.10	1752.65
890.27	1807.13
890.45	1783.58
890.62	1685.89
890.80	1735.65
890.98	1718.04
891.15	2060.46
891.33	1957.45
891.50	1773.13
891.68	1686.71
891.85	1947.41
892.03	1963.18
892.20	1754.90
892.38	1757.57
892.55	1984.69
892.73	1969.33
892.90	1734.42
893.08	1792.59
893.25	1799.35
893.43	1822.28
893.60	1893.55
893.78	1641.24
893.95	1909.12
894.13	1858.12
894.30	1725.41
894.48	1808.77
894.65	1968.92
894.83	1897.65
895.00	1644.11
895.18	1641.86
895.35	1981.41
895.53	1995.13
895.70	1728.69
895.88	1922.63
896.05	1949.87
896.23	1739.34
896.40	1822.69
896.58	1845.42
896.75	1958.47
896.93	2031.99
897.10	1794.02
897.28	1700.02
897.45	1893.35
897.63	1941.68
897.80	1911.37
897.98	1800.98
898.15	1924.07
898.33	1770.47
898.50	1888.84
898.67	1845.22
898.85	1885.36
899.02	1932.26
899.20	1971.58
899.37	1802.01
899.55	1877.99
899.72	2047.97
899.90	1750.81
900.07	1770.26
900.25	1923.25
900.42	2034.04
900.59	1757.98
900.77	1888.23
900.94	1941.88
901.12	1918.74
901.29	1791.36
901.47	1908.30
901.64	1948.23
901.82	1853.41
901.99	1597.01
902.16	1743.03
902.34	1999.23
902.51	1907.48
902.69	1774.16
902.86	1810.81
903.03	2308.47
903.21	1867.75
903.38	1830.06
903.56	1766.58
903.73	2005.99
903.91	1816.34
904.08	1736.06
904.25	1659.67
904.43	1786.24
904.60	1956.01
904.78	1796.89
904.95	1736.68
905.12	1840.51
905.30	2107.36
905.47	1913.62
905.65	1949.46
905.82	1875.53
905.99	1935.54
906.17	1858.94
906.34	1798.32
906.52	1818.19
906.69	1973.01
906.86	1958.47
907.04	1874.30
907.21	1999.64
907.38	2016.02
907.56	1789.31
907.73	1801.19
907.91	2064.56
908.08	2025.85
908.25	1754.29
908.43	1743.44
908.60	1951.92
908.77	1921.61
908.95	1790.74
909.12	1725.41
909.30	1965.44
909.47	1712.92
909.64	1817.16
909.82	1916.90
909.99	1857.10
910.16	1864.88
910.34	1760.84
910.51	1796.68
910.68	1913.42
910.86	1909.12
911.03	1738.52
911.20	1913.62
911.38	2313.18
911.55	2956.65
911.72	3133.60
911.90	3142.81
912.07	3433.01
912.24	3539.71
912.42	2885.18
912.59	2486.85
912.76	2587.40
912.94	2358.65
913.11	2214.06
913.28	2084.42
913.46	1996.56
913.63	2128.04
913.80	2271.81
913.98	1970.35
914.15	2131.32
914.32	2161.02
914.49	1993.70
914.67	1860.58
914.84	2018.68
915.01	2038.55
915.19	1954.99
915.36	1882.29
915.53	2040.39
915.71	1992.67
915.88	1942.29
916.05	1769.45
916.22	1988.17
916.40	1884.75
916.57	1740.98
916.74	1887.41
916.92	2054.73
917.09	1765.55
917.26	1738.73
917.43	1728.69
917.61	1819.62
917.78	1702.27
917.95	1640.22
918.13	1755.52
918.30	2157.13
918.47	1898.26
918.64	1766.58
918.82	1733.20
918.99	1860.58
919.16	2146.48
919.33	1861.81
919.51	1821.05
919.68	1899.49
919.85	2030.56
920.02	1723.57
920.20	1814.71
920.37	2078.07
920.54	1971.58
920.71	1783.78
920.89	1783.78
921.06	2099.37
921.23	1787.88
921.40	1750.19
921.58	1967.07
921.75	2471.08
921.92	2013.77
922.09	2103.47
922.27	2096.71
922.44	2084.63
922.61	2119.03
922.78	1934.72
922.96	1887.41
923.13	1901.95
923.30	2059.85
923.47	1728.28
923.64	1803.44
923.82	1964.62
923.99	1919.97
924.16	1900.11
924.33	1729.92
924.50	1899.08
924.68	2095.28
924.85	1747.74
925.02	1821.05
925.19	1973.42
925.36	1919.15
925.54	1852.18
925.71	1832.32
925.88	2263.62
926.05	1848.91
926.22	1744.46
926.40	1828.43
926.57	1905.43
926.74	1971.37
926.91	1763.30
927.08	1965.03
927.26	2011.31
927.43	1883.93
927.60	1776.00
927.77	1798.94
927.94	2067.42
928.11	2032.20
928.29	1695.72
928.46	1839.08
928.63	1811.84
928.80	1832.52
928.97	1887.41
929.14	1759.00
929.32	2133.78
929.49	1872.87
929.66	1750.19
929.83	1687.32
930.00	1834.98
930.17	1915.47
930.35	1713.54
930.52	1770.06
930.69	2069.88
930.86	1748.97
931.03	1862.63
931.20	1635.71
931.37	1995.34
931.55	1877.99
931.72	1855.05
931.89	1692.85
932.06	1732.17
932.23	2093.84
932.40	1876.35
932.57	1861.19
932.74	2041.01
932.92	2024.83
933.09	1919.36
933.26	1580.21
933.43	1810.81
933.60	1904.20
933.77	1833.34
933.94	1879.63
934.11	1839.49
934.29	1892.12
934.46	1723.37
934.63	1844.20
934.80	1721.32
934.97	1863.86
935.14	1820.44
935.31	1705.75
935.48	1762.89
935.65	1906.25
935.82	1872.05
936.00	1717.63
936.17	2053.29
936.34	1833.55
936.51	1910.55
936.68	1696.54
936.85	1900.92
937.02	1896.62
937.19	1891.09
937.36	1809.99
937.53	1929.80
937.70	1973.22
937.87	1811.22
938.05	1910.96
938.22	1873.69
938.39	1757.98
938.56	1773.95
938.73	1731.56
938.90	1841.74
939.07	1801.60
939.24	1847.27
939.41	1661.72
939.58	1923.25
939.75	1937.58
939.92	1771.08
940.09	1950.69
940.26	1836.82
940.43	1975.88
940.60	1767.60
940.77	1800.37
940.95	1913.83
941.12	1964.41
941.29	1786.65
941.46	1823.10
941.63	2007.01
941.80	2025.24
941.97	1668.28
942.14	1672.17
942.31	1953.56
942.48	1850.95
942.65	1877.99
942.82	1817.16
942.99	1946.18
943.16	1900.11
943.33	1708.83
943.50	1756.95
943.67	1949.46
943.84	2029.74
944.01	1768.63
944.18	1744.87
944.35	2027.28
944.52	1786.24
944.69	1824.94
944.86	1679.33
945.03	1983.46
945.20	2178.01
945.37	1670.32
945.54	1816.96
945.71	2035.89
945.88	2059.85
946.05	1742.62
946.22	1709.44
946.39	2039.16
946.56	1864.06
946.73	1707.60
946.90	1753.47
947.07	1815.73
947.24	1840.71
947.41	1657.83
947.58	1899.49
947.75	1976.90
947.92	1945.16
948.09	1598.64
948.26	1674.42
948.43	1900.92
948.60	2109.82
948.77	1743.23
948.94	1768.01
949.11	1983.87
949.27	1916.28
949.44	1769.44
949.61	1759.61
949.78	1904.61
949.95	2004.76
950.12	1735.24
950.29	1718.45
950.46	1827.40
950.63	1983.05
950.80	1758.59
950.97	1829.45
951.14	1990.83
951.31	1839.90
951.48	1754.90
951.65	1691.42
951.82	2128.25
951.99	1887.41
952.15	1663.97
952.32	1808.56
952.49	1799.35
952.66	1838.46
952.83	1741.39
953.00	1731.76
953.17	1829.86
953.34	1975.27
953.51	1830.06
953.68	1799.14
953.85	2013.36
954.02	1998.82
954.18	1810.40
954.35	1809.79
954.52	1785.83
954.69	1881.06
954.86	1671.76
955.03	1809.38
955.20	1983.66
955.37	1850.34
955.54	1772.72
955.71	1772.93
955.87	1918.95
956.04	2094.05
956.21	1760.02
956.38	1735.86
956.55	1876.55
956.72	2177.81
956.89	1824.54
957.06	1749.78
957.23	1779.28
957.39	2033.02
957.56	1760.64
957.73	1692.44
957.90	1649.23
958.07	2099.58
958.24	1788.29
958.41	1754.70
958.57	1951.92
958.74	1907.27
958.91	1697.56
959.08	1756.75
959.25	1961.34
959.42	1855.46
959.59	1827.61
959.75	1763.51
959.92	2000.87
960.09	2002.50
960.26	1742.62
960.43	1859.35
960.60	1898.88
960.76	1845.63
960.93	1676.88
961.10	1839.28
961.27	1992.47
961.44	1833.14
961.61	1715.99
961.77	1736.88
961.94	1918.95
962.11	1972.19
962.28	1782.55
962.45	1711.08
962.62	1832.73
962.78	2003.94
962.95	1710.46
963.12	1759.21
963.29	1943.93
963.46	2223.48
963.62	1828.63
963.79	1799.75
963.96	2175.97
964.13	1837.85
964.30	1840.71
964.46	1774.16
964.63	1739.14
964.80	2210.17
964.97	1640.42
965.14	1910.75
965.30	1966.46
965.47	2032.61
965.64	1970.35
965.81	1921.40
965.98	2110.23
966.14	1937.17
966.31	1817.16
966.48	1782.55
966.65	2047.15
966.81	1963.18
966.98	1828.84
967.15	1823.10
967.32	1889.46
967.49	1794.64
967.65	1666.02
967.82	1676.67
967.99	1855.25
968.16	1686.09
968.32	1947.21
968.49	1780.50
968.66	1847.27
968.83	2037.93
968.99	1841.53
969.16	1729.92
969.33	2034.86
969.50	1946.80
969.66	1892.32
969.83	1985.10
970.00	1941.68
970.17	1935.13
970.33	1781.53
970.50	1724.39
970.67	2072.95
970.84	2028.51
971.00	1728.49
971.17	1714.35
971.34	1966.25
971.50	1877.78
971.67	1881.88
971.84	1822.49
972.01	1729.71
972.17	1647.59
972.34	1738.11
972.51	1909.32
972.67	2034.04
972.84	1900.72
973.01	1716.81
973.18	1759.00
973.34	2001.07
973.51	1755.31
973.68	1793.61
973.84	1830.68
974.01	1829.66
974.18	2113.91
974.34	1866.93
974.51	1864.88
974.68	1798.94
974.85	2115.96
975.01	1911.57
975.18	1779.68
975.35	1877.37
975.51	1758.39
975.68	1657.42
975.85	1899.70
976.01	1813.27
976.18	2042.44
976.35	1799.55
976.51	1762.48
976.68	2075.41
976.85	2009.47
977.01	1835.18
977.18	1853.82
977.35	1937.99
977.51	1739.54
977.68	1613.59
977.85	1670.53
978.01	1993.49
978.18	1941.68
978.35	1834.16
978.51	1823.10
978.68	1994.52
978.85	2069.68
979.01	1756.95
979.18	1841.74
979.34	1867.13
979.51	1904.00
979.68	1728.08
979.84	1799.75
980.01	2167.57
980.18	1900.52
980.34	1730.74
980.51	1855.66
980.67	1978.75
980.84	1967.28
981.01	1799.35
981.17	1875.12
981.34	1680.36
981.51	1934.92
981.67	1724.18
981.84	1919.56
982.00	1920.99
982.17	1846.45
982.34	1653.33
982.50	1555.43
982.67	2053.91
982.83	1823.10
983.00	1717.02
983.17	1591.48
983.33	2007.83
983.50	1688.14
983.66	1688.76
983.83	1601.51
984.00	1822.49
984.16	1865.29
984.33	1625.47
984.49	1603.15
984.66	1751.42
984.83	1971.58
984.99	1655.37
985.16	1614.21
985.32	1936.56
985.49	1956.63
985.65	1749.37
985.82	1598.03
985.99	2048.17
986.15	1862.83
986.32	1710.05
986.48	1666.02
986.65	1818.80
986.81	1957.65
986.98	1638.58
987.14	1687.94
987.31	1876.14
987.48	1697.77
987.64	1559.94
987.81	1578.57
987.97	2135.83
988.14	1796.27
988.30	1603.15
988.47	1536.18
988.63	1926.73
988.80	1744.25
988.96	1689.37
989.13	1708.01
989.30	1829.25
989.46	1994.93
989.63	1560.55
989.79	1570.59
989.96	1848.29
990.12	2041.21
990.29	1652.71
990.45	1679.74
990.62	1842.35
990.78	1995.34
990.95	1769.65
991.11	1652.92
991.28	1805.28
991.44	1866.11
991.61	1551.95
991.77	1670.12
991.94	1881.06
992.10	2011.11
992.27	1722.55
992.43	1665.00
992.60	1897.44
992.76	1812.86
992.93	1794.23
993.09	1608.88
993.26	1940.25
993.42	2095.48
993.59	1639.81
993.75	1586.56
993.92	1779.28
994.08	1787.47
994.25	1706.57
994.41	1600.49
994.58	1958.47
994.74	2047.56
994.91	1608.68
995.07	1718.45
995.24	1837.03
995.40	1864.27
995.56	1776.20
995.73	1723.57
995.89	2064.56
996.06	1849.11
996.22	1621.58
996.39	1555.02
996.55	1824.33
996.72	1923.45
996.88	1563.83
997.05	1626.29
997.21	2090.16
997.37	1917.72
997.54	1690.80
997.70	1688.96
997.87	1928.78
998.03	1879.42
998.20	1546.42
998.36	1564.65
998.52	1931.23
998.69	1986.94
998.85	1571.41
999.02	1644.52
999.18	1979.36
999.35	1975.88
999.51	1650.46
999.67	1676.26
999.84	1749.99
1000.00	1958.68
1000.17	1748.56
1000.33	1610.11
1000.49	1806.92
1000.66	1870.61
1000.82	1645.34
1000.99	1721.93
1001.15	2007.01
1001.31	1807.33
1001.48	1671.35
1001.64	1715.99
1001.81	1830.06
1001.97	2116.58
1002.13	1648.00
1002.30	1666.43
1002.46	2046.54
1002.63	1840.10
1002.79	1735.86
1002.95	1637.56
1003.12	1985.10
1003.28	1931.44
1003.45	1625.06
1003.61	1611.96
1003.77	1913.83
1003.94	1715.58
1004.10	1648.21
1004.26	1715.79
1004.43	1961.13
1004.59	2099.17
1004.75	1636.74
1004.92	1596.80
1005.08	1803.03
1005.25	1919.77
1005.41	1637.97
1005.57	1732.58
1005.74	1994.93
1005.90	1826.79
1006.06	1736.27
1006.23	1650.66
1006.39	1941.88
1006.55	2209.96
1006.72	1805.08
1006.88	1594.55
1007.04	1765.14
1007.21	1856.07
1007.37	1662.13
1007.53	1643.29
1007.70	2052.88
1007.86	1989.81
1008.02	1719.47
1008.19	1608.07
1008.35	1886.18
1008.51	1756.54
1008.68	1667.05
1008.84	1599.46
1009.00	1781.73
1009.17	2012.33
1009.33	1761.87
1009.49	1721.93
1009.65	1788.08
1009.82	1907.07
1009.98	1706.78
1010.14	1559.53
1010.31	1939.63
1010.47	1943.73
1010.63	1697.97
1010.80	1713.13
1010.96	1948.85
1011.12	1815.73
1011.28	1672.78
1011.45	1648.41
1011.61	2200.75
1011.77	1751.42
1011.94	1626.09
1012.10	1590.45
1012.26	1752.04
1012.42	1810.40
1012.59	1697.97
1012.75	1677.29
1012.91	1848.70
1013.07	1953.97
1013.24	1595.98
1013.40	1615.64
1013.56	1890.48
1013.72	1861.81
1013.89	1720.50
1014.05	1710.46
1014.21	2093.02
1014.37	2182.73
1014.54	1705.75
1014.70	1629.98
1014.86	1844.40
1015.02	1732.58
1015.19	1638.38
1015.35	1607.45
1015.51	1837.44
1015.67	1829.04
1015.84	1638.17
1016.00	1634.48
1016.16	2023.80
1016.32	1978.13
1016.49	1659.47
1016.65	1622.81
1016.81	1853.41
1016.97	1925.50
1017.14	1767.19
1017.30	1645.95
1017.46	1826.99
1017.62	1890.89
1017.78	1685.48
1017.95	1594.34
1018.11	1956.83
1018.27	2163.88
1018.43	1755.52
1018.59	1701.25
1018.76	1952.74
1018.92	2205.46
1019.08	1631.82
1019.24	1664.18
1019.40	2012.95
1019.57	1907.68
1019.73	1717.22
1019.89	1667.66
1020.05	1895.60
1020.21	2112.48
1020.38	1622.40
1020.54	1784.60
1020.70	1949.26
1020.86	1941.47
1021.02	1649.43
1021.18	1616.05
1021.35	1828.22
1021.51	1946.18
1021.67	1776.61
1021.83	1666.64
1021.99	1856.69
1022.15	1912.19
1022.32	1743.85
1022.48	1699.40
1022.64	2037.32
1022.80	2074.39
1022.96	1698.59
1023.12	1605.61
1023.29	1983.87
1023.45	1922.22
1023.61	1643.09
1023.77	1800.57
1023.93	1887.20
1024.09	1766.78
1024.25	1638.99
1024.42	1595.78
1024.58	1814.09
1024.74	1905.43
1024.90	1668.68
1025.06	1711.08
1025.22	1793.61
1025.38	2081.15
1025.54	1585.95
1025.71	1740.57
1025.87	1951.30
1026.03	1947.62
1026.19	1628.54
1026.35	1772.31
1026.51	1964.00
1026.67	1866.93
1026.83	1697.36
1026.99	1754.70
1027.16	1944.75
1027.32	1857.71
1027.48	1664.18
1027.64	1611.14
1027.80	1934.92
1027.96	1909.53
1028.12	1666.23
1028.28	1626.70
1028.44	1919.77
1028.60	2043.05
1028.77	1770.06
1028.93	1701.25
1029.09	1808.77
1029.25	1755.11
1029.41	1711.08
1029.57	1745.28
1029.73	1899.08
1029.89	2060.67
1030.05	1772.31
1030.21	1727.26
1030.37	2145.04
1030.53	1934.51
1030.69	1687.12
1030.85	1595.37
1031.02	1745.89
1031.18	1894.78
1031.34	1674.01
1031.50	1734.02
1031.66	1782.55
1031.82	2060.67
1031.98	1699.40
1032.14	1632.03
1032.30	1750.81
1032.46	1965.64
1032.62	1798.53
1032.78	1610.32
1032.94	1803.65
1033.10	1832.93
1033.26	1710.87
1033.42	1764.53
1033.58	2162.25
1033.74	1812.86
1033.90	1647.18
1034.06	1823.72
1034.22	2106.54
1034.38	1998.41
1034.54	1667.87
1034.70	1694.49
1034.86	2069.88
>>>>>End Processed Spectral Data<<<<<
