SpectraSuite Data File
++++++++++++++++++++++++++++++++++++
Date: Thu Mar 30 16:30:25 PDT 2017
User: UCSD _CER
Dark Spectrum Present: No
Reference Spectrum Present: No
Number of Sampled Component Spectra: 1
Spectrometers: USB4C00073
Integration Time (usec): 250000 (USB4C00073)
Spectra Averaged: 10 (USB4C00073)
Boxcar Smoothing: 0 (USB4C00073)
Correct for Electrical Dark: No (USB4C00073)
Strobe/Lamp Enabled: No (USB4C00073)
Correct for Detector Non-linearity: No (USB4C00073)
Correct for Stray Light: No (USB4C00073)
Number of Pixels in Processed Spectrum: 3648
>>>>>Begin Processed Spectral Data<<<<<
345.37	1276.29
345.58	1276.29
345.80	1276.29
346.01	1274.45
346.22	1266.67
346.43	1973.63
346.65	1778.87
346.86	2144.22
347.07	2121.08
347.28	1797.30
347.50	1801.39
347.71	1915.26
347.92	1690.60
348.13	1801.60
348.35	1731.35
348.56	1925.71
348.77	1776.41
348.98	1831.70
349.20	1684.04
349.41	1906.45
349.62	2012.13
349.83	1884.54
350.05	1744.87
350.26	1983.25
350.47	2085.45
350.68	1807.74
350.90	1732.99
351.11	2084.83
351.32	2079.30
351.53	1845.63
351.75	1753.47
351.96	1959.29
352.17	1921.81
352.38	1888.84
352.60	1915.26
352.81	1950.08
353.02	2199.72
353.23	1828.43
353.44	1831.70
353.66	1883.11
353.87	1890.28
354.08	1928.98
354.29	1837.03
354.51	1862.63
354.72	1889.87
354.93	1801.19
355.14	1741.18
355.35	1756.34
355.57	2061.08
355.78	1821.46
355.99	1909.32
356.20	1949.46
356.42	1933.69
356.63	1926.32
356.84	1834.78
357.05	2045.10
357.26	2222.66
357.48	1924.68
357.69	1898.06
357.90	2024.62
358.11	1904.41
358.32	1841.12
358.54	1913.01
358.75	1889.87
358.96	2030.77
359.17	1815.52
359.38	1839.69
359.60	2022.78
359.81	1951.10
360.02	1825.56
360.23	1772.31
360.44	1823.31
360.66	2072.34
360.87	1792.38
361.08	1754.29
361.29	1976.29
361.50	1951.71
361.72	1780.09
361.93	1858.33
362.14	1959.09
362.35	1755.52
362.56	1895.40
362.77	1736.88
362.99	2014.18
363.20	1930.42
363.41	1877.37
363.62	1727.26
363.83	2007.42
364.05	2033.84
364.26	1726.03
364.47	1789.92
364.68	2048.79
364.89	1825.35
365.10	1756.13
365.32	1803.65
365.53	1814.91
365.74	1843.99
365.95	1834.57
366.16	1712.72
366.37	1904.82
366.59	1871.84
366.80	1807.95
367.01	1672.58
367.22	2172.89
367.43	2290.65
367.64	1813.68
367.86	1817.78
368.07	1984.28
368.28	2066.20
368.49	1740.36
368.70	1868.16
368.91	1873.69
369.12	1925.91
369.34	1735.65
369.55	1748.15
369.76	1919.77
369.97	1885.16
370.18	1764.53
370.39	1751.83
370.60	1766.99
370.82	1798.32
371.03	1814.09
371.24	1772.11
371.45	2007.83
371.66	2004.96
371.87	1830.88
372.08	1796.89
372.30	1831.91
372.51	2066.81
372.72	1935.54
372.93	1845.22
373.14	2172.89
373.35	1826.38
373.56	1768.22
373.78	1814.91
373.99	2031.18
374.20	2308.47
374.41	1833.34
374.62	1829.04
374.83	2113.50
375.04	1875.94
375.25	1834.16
375.47	1779.07
375.68	1882.08
375.89	2030.97
376.10	1835.39
376.31	1909.94
376.52	2005.37
376.73	1967.69
376.94	1823.10
377.15	1796.68
377.37	1939.22
377.58	1906.66
377.79	1718.25
378.00	1759.00
378.21	1975.68
378.42	2024.21
378.63	1839.08
378.84	1893.35
379.05	2064.15
379.27	1939.84
379.48	1950.28
379.69	1772.11
379.90	2088.11
380.11	1721.73
380.32	1861.81
380.53	1965.44
380.74	2121.08
380.95	1949.46
381.16	1858.33
381.37	1843.99
381.59	2119.65
381.80	2078.69
382.01	1811.84
382.22	1731.97
382.43	2037.73
382.64	1944.14
382.85	1797.30
383.06	1911.98
383.27	2062.51
383.48	1938.40
383.69	1902.56
383.91	1811.02
384.12	2076.85
384.33	2073.98
384.54	1962.98
384.75	1834.98
384.96	2416.81
385.17	2153.44
385.38	1884.75
385.59	1867.13
385.80	2097.12
386.01	2200.95
386.22	1978.75
386.43	1913.21
386.64	2288.61
386.86	1966.05
387.07	1984.89
387.28	1794.23
387.49	1951.30
387.70	2181.29
387.91	1974.45
388.12	1813.68
388.33	2060.46
388.54	1923.86
388.75	1820.85
388.96	1912.39
389.17	1886.18
389.38	1913.01
389.59	1887.00
389.80	1834.78
390.01	1928.57
390.22	1896.21
390.43	1977.11
390.64	1737.29
390.86	1986.73
391.07	2077.46
391.28	1846.65
391.49	1858.53
391.70	1774.36
391.91	1842.97
392.12	1859.35
392.33	1849.32
392.54	1983.66
392.75	1950.69
392.96	1926.93
393.17	1816.14
393.38	2271.81
393.59	2078.89
393.80	1776.82
394.01	1884.13
394.22	1944.55
394.43	2230.44
394.64	1811.22
394.85	1956.63
395.06	1966.87
395.27	1975.88
395.48	1846.24
395.69	1768.01
395.90	1927.55
396.11	1925.71
396.32	1817.98
396.53	1939.22
396.74	1912.60
396.95	2056.57
397.16	1787.47
397.37	1717.63
397.58	2045.10
397.79	1939.63
398.00	1894.58
398.21	1815.32
398.42	1932.46
398.63	2200.54
398.84	1806.10
399.05	1813.89
399.26	2077.87
399.47	1958.27
399.68	1655.58
399.89	1781.12
400.10	1804.47
400.31	1895.40
400.52	1903.59
400.73	1826.38
400.94	1810.61
401.15	2042.44
401.36	1875.32
401.57	1943.32
401.78	2121.70
401.99	2080.12
402.20	1727.46
402.41	1970.35
402.62	2137.46
402.83	1945.37
403.04	1805.28
403.25	2024.21
403.46	2010.49
403.67	2199.11
403.88	1932.67
404.09	1934.51
404.30	1948.85
404.51	1917.92
404.72	1852.59
404.93	1975.06
405.14	1890.07
405.35	1948.03
405.56	1850.13
405.77	1806.92
405.98	1964.00
406.19	1943.32
406.40	1825.97
406.61	1878.60
406.82	1946.39
407.03	2342.06
407.24	1838.87
407.45	1937.79
407.66	2044.49
407.87	2087.70
408.08	1915.47
408.29	1892.94
408.49	2031.99
408.70	1949.05
408.91	1832.11
409.12	1915.26
409.33	1809.38
409.54	2114.94
409.75	1813.07
409.96	1856.07
410.17	2092.41
410.38	1941.68
410.59	1817.37
410.80	1935.74
411.01	1953.15
411.22	1923.04
411.43	1886.18
411.64	1814.50
411.85	1825.76
412.06	1823.51
412.27	1678.72
412.47	1823.92
412.68	1920.79
412.89	1998.00
413.10	1846.04
413.31	1743.85
413.52	2171.26
413.73	2196.04
413.94	1787.47
414.15	1953.35
414.36	1871.64
414.57	1834.98
414.78	1791.15
414.99	1981.61
415.19	2372.57
415.40	2381.58
415.61	2490.53
415.82	2335.71
416.03	2384.45
416.24	2249.08
416.45	2008.03
416.66	1899.70
416.87	1832.93
417.08	2041.82
417.29	1813.48
417.50	1915.06
417.70	2095.07
417.91	2073.77
418.12	2000.87
418.33	2009.67
418.54	2175.56
418.75	2329.15
418.96	2367.45
419.17	2485.41
419.38	2915.90
419.59	2902.79
419.79	2706.60
420.00	2619.97
420.21	2797.53
420.42	2305.40
420.63	2090.57
420.84	1997.38
421.05	1981.20
421.26	1917.92
421.47	1787.47
421.67	2104.70
421.88	1874.71
422.09	1874.71
422.30	2065.17
422.51	1939.84
422.72	2239.04
422.93	2065.58
423.14	1904.20
423.35	1756.95
423.55	1784.40
423.76	1861.81
423.97	1853.21
424.18	1743.23
424.39	1943.11
424.60	2093.43
424.81	1880.24
425.02	2072.95
425.22	2185.39
425.43	2192.56
425.64	2372.98
425.85	2363.56
426.06	2671.78
426.27	2468.62
426.48	2398.99
426.68	2319.53
426.89	2400.42
427.10	2508.35
427.31	2119.44
427.52	1970.35
427.73	2173.30
427.94	2098.55
428.14	1988.99
428.35	1900.52
428.56	2155.49
428.77	2073.16
428.98	1934.72
429.19	1974.65
429.40	2067.42
429.60	2098.96
429.81	2122.31
430.02	2059.44
430.23	2067.22
430.44	2121.90
430.65	1879.83
430.85	1920.79
431.06	2018.68
431.27	1738.32
431.48	1830.47
431.69	1851.16
431.90	1975.68
432.10	1981.61
432.31	2012.13
432.52	2039.37
432.73	2587.61
432.94	2559.35
433.15	2381.38
433.35	2198.08
433.56	2370.52
433.77	2223.07
433.98	2686.32
434.19	2883.54
434.40	3134.42
434.60	3155.92
434.81	3007.85
435.02	2642.08
435.23	2398.58
435.44	2279.39
435.64	2006.19
435.85	1912.19
436.06	1972.60
436.27	1990.22
436.48	1899.49
436.68	1971.17
436.89	2381.17
437.10	2247.85
437.31	2103.67
437.52	2187.44
437.73	2196.04
437.93	2147.91
438.14	2015.61
438.35	1806.92
438.56	1944.34
438.77	1929.39
438.97	1996.36
439.18	1904.00
439.39	2292.91
439.60	2102.44
439.80	2069.68
440.01	2165.52
440.22	2102.44
440.43	2178.42
440.64	1860.37
440.84	1972.19
441.05	1856.48
441.26	2311.75
441.47	1919.15
441.68	1964.82
441.88	2335.50
442.09	2450.19
442.30	2673.01
442.51	2684.07
442.71	2575.73
442.92	2460.63
443.13	2206.48
443.34	2051.66
443.55	2008.85
443.75	2124.15
443.96	1850.34
444.17	1822.28
444.38	2076.85
444.58	1814.91
444.79	1915.26
445.00	1846.24
445.21	1921.20
445.41	1898.88
445.62	1623.02
445.83	1894.58
446.04	1965.44
446.24	1792.18
446.45	1677.08
446.66	1819.21
446.87	1971.78
447.07	1879.01
447.28	2043.87
447.49	1936.15
447.70	2116.58
447.90	2124.15
448.11	1908.30
448.32	1987.14
448.53	2144.84
448.73	2125.18
448.94	1878.19
449.15	1962.57
449.36	1914.24
449.56	1987.76
449.77	1806.31
449.98	1746.10
450.19	1932.05
450.39	2010.70
450.60	2049.40
450.81	2036.30
451.02	2103.88
451.22	2217.34
451.43	1875.94
451.64	1894.58
451.84	1950.28
452.05	2179.86
452.26	1936.56
452.47	1867.34
452.67	1909.73
452.88	2128.45
453.09	1802.83
453.30	1767.60
453.50	2056.37
453.71	2279.59
453.92	2014.59
454.12	2159.58
454.33	2078.28
454.54	2107.77
454.75	1898.88
454.95	1875.53
455.16	2014.79
455.37	2045.10
455.57	1923.66
455.78	1877.37
455.99	1937.17
456.19	1967.48
456.40	1788.70
456.61	1905.43
456.82	1958.06
457.02	2113.71
457.23	2105.93
457.44	2242.12
457.64	2112.27
457.85	2195.22
458.06	2046.54
458.26	2188.05
458.47	2105.52
458.68	2235.56
458.89	1967.69
459.09	2153.64
459.30	2307.65
459.51	2053.09
459.71	1797.09
459.92	1907.48
460.13	2198.90
460.33	2493.61
460.54	2087.90
460.75	2107.77
460.95	2074.18
461.16	2170.64
461.37	1929.39
461.57	1950.69
461.78	2016.63
461.99	1877.17
462.19	2091.39
462.40	1845.63
462.61	2394.69
462.81	2130.71
463.02	1805.69
463.23	1860.17
463.43	2008.65
463.64	1880.85
463.85	2800.39
464.05	1816.14
464.26	2331.61
464.47	2102.85
464.67	2016.23
464.88	1936.76
465.09	2013.97
465.29	2167.57
465.50	2207.51
465.71	2122.72
465.91	2034.25
466.12	1995.34
466.33	1929.19
466.53	1905.84
466.74	2166.34
466.94	1976.70
467.15	1890.07
467.36	2058.21
467.56	1817.57
467.77	1983.87
467.98	1896.62
468.18	1824.54
468.39	1899.49
468.60	2196.45
468.80	1905.02
469.01	1808.77
469.21	1997.18
469.42	2152.42
469.63	1917.72
469.83	1856.69
470.04	2086.68
470.25	2207.30
470.45	1933.90
470.66	1856.07
470.86	1982.23
471.07	1907.27
471.28	1936.97
471.48	2006.80
471.69	2004.76
471.90	2570.61
472.10	2116.99
472.31	2159.58
472.51	2171.26
472.72	2253.79
472.93	2167.37
473.13	2362.95
473.34	2384.45
473.54	2331.61
473.75	2187.64
473.96	2192.56
474.16	2044.69
474.37	2113.30
474.57	1968.51
474.78	1871.02
474.99	2029.95
475.19	2001.07
475.40	1843.38
475.60	1874.30
475.81	2387.93
476.02	2213.04
476.22	2224.50
476.43	2336.32
476.63	2132.75
476.84	2212.83
477.05	1803.03
477.25	1891.50
477.46	2374.41
477.66	2006.19
477.87	1803.24
478.08	1872.05
478.28	2094.87
478.49	1913.42
478.69	1820.44
478.90	1862.22
479.10	2030.36
479.31	2141.15
479.52	1922.22
479.72	2285.33
479.93	2659.70
480.13	2701.68
480.34	2704.55
480.54	2833.16
480.75	2414.76
480.96	2389.98
481.16	2038.55
481.37	2128.45
481.57	2174.94
481.78	2122.51
481.98	2188.05
482.19	2026.26
482.40	2256.45
482.60	2075.62
482.81	1921.40
483.01	1810.40
483.22	2050.43
483.42	2074.80
483.63	1952.53
483.83	1947.41
484.04	2043.46
484.24	2269.35
484.45	2162.86
484.66	2033.22
484.86	2163.27
485.07	1967.07
485.27	1981.20
485.48	1886.59
485.68	2156.10
485.89	1912.19
486.09	1994.72
486.30	1908.30
486.50	2011.11
486.71	1976.09
486.91	1964.82
487.12	2389.98
487.33	3004.37
487.53	3201.59
487.74	3114.14
487.94	2995.77
488.15	2684.07
488.35	2431.55
488.56	2214.88
488.76	2100.19
488.97	2156.72
489.17	2207.71
489.38	2017.25
489.58	2035.07
489.79	2122.92
489.99	2076.23
490.20	1953.35
490.40	2006.19
490.61	2044.69
490.81	1909.53
491.02	1910.96
491.22	1966.46
491.43	2044.28
491.63	1952.94
491.84	2012.95
492.04	1788.49
492.25	2032.40
492.45	1936.15
492.66	1928.98
492.86	1856.28
493.07	2006.60
493.27	2338.78
493.48	1809.99
493.68	1929.80
493.89	1964.00
494.09	2046.94
494.30	1852.59
494.50	2126.20
494.71	2014.38
494.91	1784.19
495.12	1880.24
495.32	1937.99
495.53	1985.92
495.73	1896.01
495.94	2088.72
496.14	1987.96
496.35	2464.73
496.55	2152.42
496.76	2000.46
496.96	2008.03
497.17	2012.13
497.37	2053.50
497.58	1876.55
497.78	1817.78
497.98	1943.73
498.19	1945.57
498.39	1926.32
498.60	1948.23
498.80	1736.68
499.01	2019.71
499.21	1803.65
499.42	1887.41
499.62	1925.71
499.83	2245.39
500.03	1830.47
500.24	2078.89
500.44	2299.87
500.64	2312.57
500.85	2084.42
501.05	2193.99
501.26	1897.03
501.46	2223.89
501.67	1911.16
501.87	1842.76
502.08	1896.42
502.28	1954.38
502.48	1986.12
502.69	2028.10
502.89	1794.84
503.10	1860.58
503.30	1928.98
503.51	1886.38
503.71	1820.85
503.92	2021.55
504.12	1949.05
504.32	1900.92
504.53	2052.27
504.73	2077.05
504.94	2004.35
505.14	2085.86
505.35	2120.26
505.55	2150.37
505.75	2094.05
505.96	2201.98
506.16	2448.55
506.37	1986.32
506.57	1895.19
506.78	2013.15
506.98	2137.06
507.18	1821.87
507.39	1854.03
507.59	1943.73
507.80	1884.75
508.00	1973.42
508.20	2078.07
508.41	1930.42
508.61	2122.92
508.82	2070.91
509.02	2017.04
509.22	1848.91
509.43	1831.91
509.63	1894.78
509.84	1911.57
510.04	1796.89
510.24	2137.06
510.45	2070.29
510.65	1802.42
510.86	1944.14
511.06	1825.76
511.26	2037.11
511.47	1984.69
511.67	1834.78
511.88	2002.91
512.08	2081.35
512.28	1796.89
512.49	1961.75
512.69	1973.01
512.90	1989.40
513.10	1874.10
513.30	1929.19
513.51	2047.97
513.71	2229.62
513.91	2079.51
514.12	2086.68
514.32	2176.58
514.53	1986.53
514.73	2015.61
514.93	1916.08
515.14	2010.49
515.34	2171.05
515.54	1959.91
515.75	1985.92
515.95	2101.22
516.15	2131.32
516.36	1976.90
516.56	2000.87
516.77	1707.80
516.97	2028.92
517.17	1897.24
517.38	1981.41
517.58	2150.37
517.78	1925.30
517.99	1978.75
518.19	1961.13
518.39	2173.10
518.60	1974.24
518.80	1887.82
519.00	2015.82
519.21	1952.94
519.41	2183.75
519.61	1847.68
519.82	1955.81
520.02	1962.77
520.22	1962.57
520.43	1898.67
520.63	1873.89
520.83	1855.66
521.04	1760.64
521.24	1946.59
521.44	1872.87
521.65	1853.41
521.85	2016.63
522.05	1843.38
522.26	1860.78
522.46	2174.74
522.66	2007.62
522.87	1869.18
523.07	2000.05
523.27	1889.25
523.48	2110.64
523.68	1930.62
523.88	1917.51
524.09	2096.30
524.29	1987.14
524.49	1740.36
524.70	2011.72
524.90	2112.68
525.10	2010.08
525.31	1816.55
525.51	1779.89
525.71	2064.76
525.91	2008.44
526.12	1866.52
526.32	1796.07
526.52	1870.61
526.73	1850.54
526.93	1937.17
527.13	1771.08
527.34	1918.33
527.54	1942.29
527.74	1870.82
527.94	1781.73
528.15	1824.13
528.35	1969.94
528.55	1976.29
528.76	1968.10
528.96	1752.86
529.16	2065.38
529.36	2039.78
529.57	1781.94
529.77	2085.24
529.97	1817.57
530.18	1987.76
530.38	1863.24
530.58	2008.44
530.78	1941.47
530.99	1867.13
531.19	2019.91
531.39	1865.90
531.60	1961.34
531.80	1878.40
532.00	2029.13
532.20	1967.07
532.41	1848.70
532.61	1873.69
532.81	1890.48
533.01	1904.20
533.22	2012.74
533.42	2033.43
533.62	1777.43
533.82	2119.03
534.03	1955.20
534.23	1956.01
534.43	1835.18
534.63	1915.87
534.84	1990.22
535.04	1958.68
535.24	1936.15
535.44	2317.28
535.65	1907.48
535.85	1863.45
536.05	1876.96
536.25	1977.93
536.46	1871.43
536.66	2080.12
536.86	1924.89
537.06	2024.83
537.27	2103.26
537.47	1991.44
537.67	1866.72
537.87	2130.09
538.08	1936.76
538.28	1832.32
538.48	1803.44
538.68	1950.08
538.88	2006.60
539.09	1774.97
539.29	1923.04
539.49	2038.96
539.69	1989.19
539.90	1963.59
540.10	1831.70
540.30	2106.75
540.50	1894.78
540.70	1806.51
540.91	1899.70
541.11	2048.79
541.31	2161.84
541.51	1974.65
541.72	1983.66
541.92	1994.11
542.12	1872.05
542.32	1882.29
542.52	1881.47
542.73	1887.00
542.93	2027.08
543.13	1920.38
543.33	1984.69
543.53	2060.05
543.74	2051.66
543.94	1888.64
544.14	2067.42
544.34	2132.55
544.54	2012.13
544.75	2021.55
544.95	2156.31
545.15	2113.09
545.35	2210.17
545.55	2059.03
545.75	1891.71
545.96	2257.07
546.16	1901.33
546.36	1922.02
546.56	1955.40
546.76	2113.71
546.97	2191.53
547.17	1931.03
547.37	1984.69
547.57	1902.97
547.77	2085.04
547.97	1954.79
548.18	1963.59
548.38	1961.54
548.58	2130.91
548.78	1879.01
548.98	2020.73
549.18	2151.39
549.39	2232.49
549.59	2046.33
549.79	1998.00
549.99	2200.54
550.19	2128.45
550.39	2025.85
550.60	1937.17
550.80	2012.13
551.00	2055.96
551.20	1907.89
551.40	1886.79
551.60	2044.90
551.80	1976.90
552.01	2044.08
552.21	1909.53
552.41	1996.97
552.61	2190.71
552.81	1990.63
553.01	1898.67
553.21	2023.39
553.42	1859.56
553.62	1884.13
553.82	1859.15
554.02	2144.22
554.22	2066.81
554.42	1818.80
554.62	2008.65
554.83	2172.28
555.03	2197.06
555.23	1997.79
555.43	2259.73
555.63	2138.08
555.83	2093.43
556.03	2022.16
556.23	1876.35
556.44	2031.79
556.64	2154.87
556.84	1739.95
557.04	1943.32
557.24	2031.99
557.44	2003.94
557.64	1952.12
557.84	1826.79
558.04	1905.02
558.25	2062.71
558.45	1839.90
558.65	1918.13
558.85	1949.26
559.05	1735.65
559.25	1892.94
559.45	2002.50
559.65	2259.32
559.85	2659.49
560.05	2034.45
560.26	2043.87
560.46	2096.71
560.66	1995.54
560.86	1962.77
561.06	1884.54
561.26	2165.93
561.46	2054.52
561.66	1929.19
561.86	2030.36
562.06	1868.36
562.26	1927.34
562.47	1943.73
562.67	1826.58
562.87	1982.02
563.07	1798.94
563.27	1941.06
563.47	1947.41
563.67	1898.67
563.87	2037.11
564.07	1888.64
564.27	1964.00
564.47	2017.45
564.67	2064.76
564.87	1917.10
565.08	2025.24
565.28	1943.11
565.48	2036.50
565.68	1996.56
565.88	2000.25
566.08	2232.08
566.28	1963.39
566.48	1812.66
566.68	1920.18
566.88	1921.81
567.08	2067.22
567.28	1935.13
567.48	1933.28
567.68	2016.23
567.88	1800.98
568.08	1989.40
568.28	2076.85
568.48	1957.65
568.68	2088.72
568.89	1966.66
569.09	1777.84
569.29	2047.15
569.49	2048.38
569.69	1845.02
569.89	1835.18
570.09	1748.15
570.29	1881.06
570.49	1763.71
570.69	1847.27
570.89	2056.16
571.09	2187.03
571.29	1781.53
571.49	2083.19
571.69	1987.96
571.89	2014.18
572.09	1910.75
572.29	1880.65
572.49	2053.91
572.69	2047.15
572.89	1938.81
573.09	1708.42
573.29	1965.03
573.49	2001.07
573.69	1924.27
573.89	2062.10
574.09	1933.69
574.29	2130.30
574.49	1890.48
574.69	1886.79
574.89	1824.33
575.09	1865.90
575.29	1846.86
575.49	1949.87
575.69	2017.04
575.89	1810.81
576.09	1955.61
576.29	1983.66
576.49	1831.50
576.69	1947.62
576.89	1859.35
577.09	1946.80
577.29	1788.08
577.49	2213.65
577.69	1880.04
577.89	2038.96
578.09	1970.56
578.29	1789.52
578.49	1957.24
578.69	1858.53
578.89	2064.15
579.09	1994.93
579.29	1835.18
579.49	2061.69
579.69	1921.81
579.89	2195.01
580.09	1736.06
580.29	1762.89
580.49	1888.43
580.69	1841.74
580.89	1903.79
581.09	1906.66
581.29	1877.37
581.49	1934.51
581.69	1829.66
581.89	1844.61
582.09	1867.95
582.28	1856.89
582.48	1989.81
582.68	2097.94
582.88	2150.57
583.08	1936.76
583.28	1915.06
583.48	1944.14
583.68	1872.46
583.88	1968.71
584.08	1967.07
584.28	1953.56
584.48	2210.17
584.68	2013.15
584.88	1924.89
585.08	2064.76
585.28	2093.43
585.48	2139.31
585.68	2038.96
585.87	2024.83
586.07	2049.61
586.27	1963.39
586.47	2051.04
586.67	1939.22
586.87	1949.46
587.07	1904.00
587.27	1832.73
587.47	1986.94
587.67	2234.33
587.87	2354.34
588.07	2102.85
588.27	2017.25
588.46	2193.17
588.66	2216.72
588.86	2007.62
589.06	2073.57
589.26	2099.78
589.46	2116.78
589.66	1886.38
589.86	1857.30
590.06	1952.94
590.26	2071.32
590.46	1946.80
590.66	2103.47
590.85	2026.47
591.05	2117.60
591.25	1933.69
591.45	1952.94
591.65	2081.35
591.85	2031.59
592.05	1990.83
592.25	2084.63
592.45	2147.91
592.64	1962.98
592.84	1980.39
593.04	1884.54
593.24	2321.78
593.44	1928.57
593.64	2028.10
593.84	2033.22
594.04	1942.09
594.24	2191.53
594.43	1908.50
594.63	1961.13
594.83	2105.72
595.03	2060.67
595.23	1874.71
595.43	1804.06
595.63	1867.13
595.83	2047.35
596.02	1718.45
596.22	1915.47
596.42	2014.59
596.62	1957.04
596.82	1877.37
597.02	2016.84
597.22	2120.06
597.41	1975.88
597.61	1914.85
597.81	2028.92
598.01	2060.87
598.21	1916.69
598.41	1913.83
598.61	1875.53
598.80	1992.26
599.00	2030.77
599.20	2075.62
599.40	1898.06
599.60	1921.61
599.80	2079.92
599.99	2107.16
600.19	1964.82
600.39	1993.90
600.59	2039.16
600.79	2028.92
600.99	1996.56
601.19	2171.67
601.38	2223.07
601.58	2009.06
601.78	1794.84
601.98	2085.65
602.18	2188.46
602.37	2413.33
602.57	2285.53
602.77	2436.67
602.97	2407.59
603.17	2494.84
603.37	2326.90
603.56	2428.69
603.76	2342.67
603.96	2281.44
604.16	2272.84
604.36	2347.79
604.56	2254.81
604.75	2014.38
604.95	2089.34
605.15	2249.69
605.35	2194.60
605.55	2030.77
605.74	1953.76
605.94	2183.75
606.14	2026.67
606.34	2037.73
606.54	1998.20
606.73	1956.63
606.93	2063.12
607.13	1889.05
607.33	1989.60
607.53	2142.79
607.72	2093.64
607.92	2019.91
608.12	2039.16
608.32	1969.94
608.51	2037.93
608.71	1838.46
608.91	1990.01
609.11	2062.71
609.31	1943.11
609.50	2019.91
609.70	2143.61
609.90	2129.89
610.10	2095.89
610.29	1957.04
610.49	1925.30
610.69	2106.13
610.89	2027.28
611.09	2031.38
611.28	2124.97
611.48	2129.27
611.68	1986.32
611.88	1919.77
612.07	1875.32
612.27	2093.84
612.47	1892.12
612.67	2002.09
612.86	2071.93
613.06	1968.10
613.26	1746.10
613.46	1895.19
613.65	1950.28
613.85	2358.03
614.05	2076.64
614.25	2042.85
614.44	1913.83
614.64	1945.98
614.84	1922.02
615.04	1874.71
615.23	1857.71
615.43	2043.67
615.63	1999.43
615.83	1852.59
616.02	1821.46
616.22	2079.30
616.42	1868.57
616.62	1904.82
616.81	1974.45
617.01	2061.89
617.21	2000.05
617.41	1890.68
617.60	1940.25
617.80	2020.53
618.00	2062.10
618.19	1988.37
618.39	1984.07
618.59	2029.95
618.79	1947.21
618.98	1746.71
619.18	1925.71
619.38	2215.49
619.57	1910.96
619.77	1899.08
619.97	1904.61
620.17	1856.48
620.36	1812.45
620.56	2037.73
620.76	1814.91
620.95	1843.38
621.15	1927.75
621.35	1851.16
621.54	1915.06
621.74	1974.45
621.94	1862.63
622.14	1816.96
622.33	1784.40
622.53	1926.73
622.73	1898.06
622.92	1754.29
623.12	1919.77
623.32	2202.59
623.51	2067.83
623.71	1802.83
623.91	2069.88
624.10	1862.01
624.30	1975.47
624.50	1834.78
624.69	1834.37
624.89	2433.81
625.09	1912.60
625.29	1744.05
625.48	1825.15
625.68	1978.75
625.88	2084.22
626.07	1971.99
626.27	1826.38
626.47	1855.05
626.66	1755.31
626.86	1897.03
627.06	1899.29
627.25	1953.76
627.45	2172.69
627.64	1906.45
627.84	2099.58
628.04	1857.71
628.23	2211.19
628.43	1827.81
628.63	1848.91
628.82	1912.39
629.02	2193.37
629.22	2073.98
629.41	2100.19
629.61	2001.89
629.81	2227.58
630.00	1898.06
630.20	1858.53
630.40	1993.90
630.59	2052.27
630.79	1942.91
630.98	1932.26
631.18	1945.98
631.38	1945.37
631.57	2063.94
631.77	1794.02
631.97	1967.89
632.16	1979.77
632.36	1939.43
632.56	1925.30
632.75	1981.41
632.95	2077.25
633.14	1816.96
633.34	2108.79
633.54	1722.34
633.73	1874.71
633.93	1872.46
634.12	1770.88
634.32	2264.44
634.52	1946.59
634.71	1818.39
634.91	1960.93
635.11	1797.91
635.30	1865.70
635.50	1979.98
635.69	1814.71
635.89	2181.91
636.09	2070.50
636.28	1819.01
636.48	1884.13
636.67	2016.02
636.87	2041.62
637.07	2005.99
637.26	1881.88
637.46	1991.85
637.65	2094.25
637.85	1989.60
638.04	1908.50
638.24	1949.46
638.44	2028.92
638.63	1947.21
638.83	1927.96
639.02	2017.66
639.22	2052.68
639.42	1933.08
639.61	1973.63
639.81	1983.05
640.00	1935.74
640.20	2036.91
640.39	2030.97
640.59	2340.21
640.79	2259.32
640.98	2188.87
641.18	2174.94
641.37	2178.01
641.57	2084.01
641.76	2076.85
641.96	1900.92
642.15	2096.71
642.35	1993.29
642.55	2037.11
642.74	1901.54
642.94	2070.70
643.13	2169.82
643.33	1949.67
643.52	1890.28
643.72	1920.59
643.91	1986.53
644.11	1880.04
644.31	1868.36
644.50	1872.46
644.70	2137.46
644.89	1950.08
645.09	1990.01
645.28	1944.96
645.48	2037.93
645.67	1865.70
645.87	1769.04
646.06	1933.28
646.26	2002.09
646.45	1752.86
646.65	1736.27
646.84	2190.10
647.04	1922.63
647.24	1815.32
647.43	1974.24
647.63	1982.84
647.82	2172.08
648.02	1836.41
648.21	1878.40
648.41	2134.19
648.60	1936.97
648.80	2065.99
648.99	1959.70
649.19	1912.39
649.38	1784.60
649.58	1937.38
649.77	2002.09
649.97	2097.94
650.16	2026.06
650.36	1752.24
650.55	2073.98
650.75	1987.96
650.94	2188.46
651.14	1971.17
651.33	1972.81
651.53	2171.46
651.72	1880.04
651.92	1945.78
652.11	1770.26
652.31	2051.45
652.50	2004.76
652.70	2004.14
652.89	1841.12
653.09	2152.01
653.28	1946.18
653.48	1759.21
653.67	1789.31
653.87	2375.64
654.06	1986.12
654.25	2093.84
654.45	1876.14
654.64	1934.92
654.84	1942.50
655.03	1719.88
655.23	2037.73
655.42	2050.22
655.62	2203.20
655.81	2004.55
656.01	1864.06
656.20	2069.88
656.40	2160.81
656.59	1965.23
656.79	2058.21
656.98	1978.13
657.17	2057.39
657.37	1956.63
657.56	1877.99
657.76	2013.56
657.95	2081.35
658.15	1657.22
658.34	1903.59
658.54	1960.52
658.73	1829.04
658.92	1893.96
659.12	1975.06
659.31	2039.78
659.51	1871.23
659.70	2014.79
659.90	1918.74
660.09	2113.71
660.29	1991.24
660.48	1848.50
660.67	2103.67
660.87	1911.37
661.06	1999.02
661.26	2041.42
661.45	2008.03
661.65	2037.11
661.84	1891.50
662.03	1870.21
662.23	1898.67
662.42	2218.36
662.62	1829.86
662.81	1839.08
663.00	1922.22
663.20	2030.77
663.39	2116.99
663.59	2156.51
663.78	2048.58
663.97	2072.75
664.17	2207.71
664.36	1908.09
664.56	1927.14
664.75	2128.04
664.94	2103.26
665.14	1998.82
665.33	1974.65
665.53	1995.75
665.72	1966.66
665.91	2114.12
666.11	1968.10
666.30	2023.80
666.50	1985.10
666.69	2068.04
666.88	2039.37
667.08	2103.67
667.27	2088.52
667.47	2149.14
667.66	2064.15
667.85	2221.43
668.05	2101.01
668.24	1990.42
668.43	2167.37
668.63	2002.30
668.82	2181.29
669.02	2073.98
669.21	2006.60
669.40	1872.87
669.60	2215.08
669.79	1818.80
669.98	2429.71
670.18	1866.31
670.37	1811.84
670.56	1900.72
670.76	1958.47
670.95	1931.64
671.15	2068.45
671.34	1995.34
671.53	1942.91
671.73	1887.82
671.92	1885.77
672.11	1832.11
672.31	1899.49
672.50	1988.78
672.69	1799.96
672.89	1684.66
673.08	1886.59
673.27	2044.28
673.47	1999.64
673.66	1973.22
673.85	1828.43
674.05	2063.33
674.24	2192.35
674.43	2157.54
674.63	2434.63
674.82	2744.48
675.01	2244.16
675.21	2436.06
675.40	2260.14
675.59	2205.25
675.79	2424.80
675.98	2117.39
676.17	2246.42
676.37	2164.70
676.56	2057.80
676.75	2061.28
676.95	2034.25
677.14	1966.25
677.33	2103.47
677.52	1836.62
677.72	1886.18
677.91	2000.05
678.10	1751.83
678.30	1823.72
678.49	1821.26
678.68	2218.56
678.88	1735.04
679.07	2061.28
679.26	1891.50
679.45	2175.15
679.65	2070.50
679.84	1738.93
680.03	1761.87
680.23	1912.39
680.42	2231.47
680.61	1784.60
680.81	1873.48
681.00	1940.86
681.19	1964.62
681.38	2001.68
681.58	1979.98
681.77	1876.14
681.96	2049.81
682.15	1865.09
682.35	1934.31
682.54	2008.03
682.73	1803.24
682.93	1828.84
683.12	1831.91
683.31	2016.23
683.50	2289.22
683.70	1849.11
683.89	1970.76
684.08	1820.23
684.27	2052.88
684.47	1751.63
684.66	1937.38
684.85	2220.82
685.04	2112.27
685.24	1892.94
685.43	1943.93
685.62	1761.05
685.81	2025.24
686.01	2090.36
686.20	2117.39
686.39	2141.56
686.58	2586.17
686.78	2377.90
686.97	2329.15
687.16	2370.93
687.35	2232.08
687.55	2118.62
687.74	2126.61
687.93	1997.79
688.12	2120.26
688.32	2081.76
688.51	1888.23
688.70	2064.15
688.89	1871.64
689.08	1828.63
689.28	1854.03
689.47	1991.65
689.66	1967.69
689.85	2030.36
690.05	1893.96
690.24	1881.26
690.43	1975.27
690.62	1962.16
690.81	1867.54
691.01	1941.68
691.20	1892.94
691.39	1829.86
691.58	1973.22
691.77	2166.96
691.97	1972.81
692.16	1982.64
692.35	1909.12
692.54	1927.75
692.73	2074.80
692.93	2047.76
693.12	2093.43
693.31	2147.50
693.50	2129.48
693.69	2140.74
693.89	1998.61
694.08	2190.10
694.27	2203.00
694.46	1926.52
694.65	2020.53
694.85	2079.51
695.04	2148.52
695.23	2317.48
695.42	3709.90
695.61	5057.46
695.80	5961.02
696.00	6804.17
696.19	7249.81
696.38	6354.03
696.57	5152.48
696.76	5032.06
696.95	4595.64
697.15	4472.15
697.34	4155.12
697.53	3662.79
697.72	3429.73
697.91	3075.23
698.10	3025.87
698.30	2478.45
698.49	2276.52
698.68	2207.92
698.87	2031.59
699.06	1903.59
699.25	1959.50
699.45	2129.27
699.64	1972.81
699.83	2022.78
700.02	1833.34
700.21	2010.29
700.40	1890.07
700.59	1907.89
700.79	1893.96
700.98	2014.38
701.17	1851.16
701.36	1861.81
701.55	1836.82
701.74	2117.60
701.93	1920.99
702.12	2162.86
702.32	2142.79
702.51	2379.33
702.70	2400.83
702.89	2207.92
703.08	2081.76
703.27	2264.23
703.46	2163.47
703.65	2040.60
703.85	1904.82
704.04	1972.60
704.23	2177.20
704.42	1894.37
704.61	1924.48
704.80	2173.30
704.99	1870.21
705.18	2002.30
705.37	2130.30
705.57	3139.95
705.76	4579.05
705.95	5100.67
706.14	6125.06
706.33	6609.82
706.52	6457.25
706.71	5043.53
706.90	4598.71
707.09	4399.86
707.28	4123.38
707.47	3699.86
707.67	3622.45
707.86	3267.53
708.05	3270.61
708.24	2813.50
708.43	2562.62
708.62	2282.67
708.81	2092.82
709.00	1932.26
709.19	1930.21
709.38	2100.60
709.57	1855.25
709.76	1995.13
709.96	1924.68
710.15	2157.94
710.34	1979.16
710.53	2069.68
710.72	1963.80
710.91	2110.02
711.10	2028.10
711.29	2027.08
711.48	1900.11
711.67	1819.01
711.86	2032.81
712.05	1859.97
712.24	1867.54
712.43	2018.89
712.62	2122.31
712.81	1943.11
713.00	2045.31
713.19	1824.94
713.39	2022.78
713.58	1940.45
713.77	2192.56
713.96	2356.80
714.15	2332.64
714.34	2354.75
714.53	2232.70
714.72	2483.57
714.91	2142.18
715.10	2180.06
715.29	2050.22
715.48	2541.73
715.67	2212.22
715.86	2106.95
716.05	2045.31
716.24	2009.26
716.43	1937.99
716.62	1852.80
716.81	1816.75
717.00	1888.43
717.19	2132.35
717.38	1956.83
717.57	1904.20
717.76	1784.60
717.95	2069.27
718.14	1931.03
718.33	1887.41
718.52	1723.57
718.71	1779.89
718.90	1800.98
719.09	1889.25
719.28	1946.80
719.47	2057.59
719.66	2039.37
719.85	2040.19
720.04	1984.69
720.23	2028.51
720.42	1949.87
720.61	2040.80
720.80	1831.91
720.99	2016.63
721.18	1941.27
721.37	1891.30
721.56	1925.09
721.75	2049.61
721.94	1854.44
722.13	1958.47
722.32	1947.62
722.51	2036.30
722.70	1926.32
722.89	1998.41
723.08	1943.11
723.27	2072.95
723.46	1959.70
723.65	1925.09
723.84	1898.06
724.03	2104.49
724.22	1796.07
724.41	1957.24
724.60	1915.67
724.79	2053.70
724.98	2005.78
725.16	1893.55
725.35	2036.09
725.54	1860.17
725.73	1949.67
725.92	1982.64
726.11	2177.20
726.30	2694.31
726.49	2673.21
726.68	2983.89
726.87	3127.86
727.06	3181.72
727.25	2672.60
727.44	2689.39
727.63	2579.62
727.82	2492.79
728.01	2457.56
728.20	2472.72
728.38	2518.59
728.57	2265.26
728.76	2179.24
728.95	2271.61
729.14	1941.88
729.33	1915.06
729.52	1798.12
729.71	1886.79
729.90	1881.67
730.09	1924.89
730.28	1980.18
730.47	1967.28
730.66	2208.73
730.84	2086.27
731.03	2097.53
731.22	2088.93
731.41	2048.58
731.60	2093.02
731.79	1814.50
731.98	1900.52
732.17	2090.57
732.36	2034.04
732.55	1926.52
732.73	1857.10
732.92	2134.39
733.11	2052.88
733.30	1905.23
733.49	1834.16
733.68	2073.98
733.87	2031.18
734.06	1931.03
734.25	1954.99
734.43	2036.09
734.62	2176.38
734.81	2109.82
735.00	2085.45
735.19	2063.94
735.38	2141.36
735.57	1946.80
735.76	2124.15
735.94	2171.67
736.13	2503.85
736.32	2396.33
736.51	2396.12
736.70	2744.69
736.89	2829.27
737.08	3100.62
737.27	4871.50
737.45	7276.02
737.64	8382.13
737.83	9721.09
738.02	10388.73
738.21	9734.00
738.40	7774.91
738.59	6958.59
738.77	6462.57
738.96	6007.72
739.15	5609.80
739.34	5264.10
739.53	4791.43
739.72	4499.18
739.90	4080.37
740.09	3365.43
740.28	3047.38
740.47	2752.27
740.66	2475.58
740.85	2143.20
741.03	2140.33
741.22	1995.34
741.41	2025.44
741.60	1897.24
741.79	2055.14
741.98	2201.98
742.16	2275.70
742.35	2101.42
742.54	2031.58
742.73	2354.75
742.92	2091.18
743.10	1980.80
743.29	2054.73
743.48	2444.25
743.67	2052.47
743.86	1941.06
744.05	1941.47
744.23	1973.83
744.42	1967.28
744.61	2041.82
744.80	1907.27
744.99	2008.24
745.17	1865.90
745.36	1879.63
745.55	2092.82
745.74	2084.63
745.93	2012.74
746.11	1956.63
746.30	1962.36
746.49	2208.53
746.68	1956.22
746.86	2031.58
747.05	2011.31
747.24	2153.64
747.43	2149.34
747.62	1917.51
747.80	2001.68
747.99	2240.89
748.18	2207.71
748.37	2145.04
748.56	2152.82
748.74	2282.87
748.93	2360.08
749.12	3767.44
749.31	8110.78
749.49	11948.26
749.68	14496.34
749.87	16878.95
750.06	18033.18
750.24	16919.29
750.43	16094.37
750.62	17751.38
750.81	18222.42
750.99	18895.17
751.18	18372.94
751.37	15408.51
751.56	12772.57
751.74	12271.63
751.93	10967.49
752.12	9097.49
752.31	7883.66
752.49	6786.97
752.68	6010.79
752.87	5097.80
753.06	4411.94
753.24	3788.54
753.43	3430.35
753.62	2752.67
753.81	2467.80
753.99	2533.95
754.18	2266.08
754.37	2042.64
754.55	2084.01
754.74	2318.71
754.93	1881.47
755.12	2005.78
755.30	1919.36
755.49	2148.52
755.68	2061.89
755.86	2045.72
756.05	1887.61
756.24	2201.16
756.43	1871.02
756.61	1877.99
756.80	2039.98
756.99	2179.45
757.17	2000.05
757.36	1860.37
757.55	1961.13
757.74	2060.87
757.92	2011.31
758.11	1898.06
758.30	1832.73
758.48	1994.31
758.67	1921.40
758.86	2065.99
759.04	1944.14
759.23	2047.76
759.42	2107.77
759.60	1981.00
759.79	2043.05
759.98	2001.48
760.16	1908.91
760.35	1934.72
760.54	1875.12
760.73	2043.87
760.91	1847.27
761.10	2020.12
761.29	2029.13
761.47	2011.72
761.66	2302.33
761.85	2099.37
762.03	2463.30
762.22	4739.20
762.41	12180.50
762.59	20910.78
762.78	25319.86
762.97	30811.08
763.15	33231.36
763.34	29941.71
763.52	21792.03
763.71	20013.57
763.90	18231.02
764.08	17112.42
764.27	15499.44
764.46	14220.07
764.64	12400.66
764.83	11008.04
765.02	9704.10
765.20	8160.34
765.39	6641.15
765.58	4946.25
765.76	4008.08
765.95	3259.55
766.13	2768.03
766.32	2449.58
766.51	2305.19
766.69	2757.59
766.88	2166.75
767.07	1971.78
767.25	1842.35
767.44	2135.83
767.62	2161.84
767.81	1934.31
768.00	2014.79
768.18	2006.60
768.37	1918.13
768.56	1824.54
768.74	1922.02
768.93	1809.59
769.11	2012.95
769.30	1996.77
769.49	1876.55
769.67	1931.03
769.86	1918.13
770.04	1900.92
770.23	1924.48
770.42	2136.24
770.60	1985.92
770.79	1882.08
770.97	2069.27
771.16	3008.26
771.35	4980.46
771.53	6806.01
771.72	7975.61
771.90	9323.79
772.09	9861.58
772.27	8731.51
772.46	6593.03
772.65	6552.68
772.83	6017.55
773.02	5730.83
773.20	5224.98
773.39	5034.11
773.58	4614.48
773.76	4017.30
773.95	3767.65
774.13	3521.69
774.32	3047.99
774.50	2647.41
774.69	2460.02
774.87	2212.42
775.06	2418.24
775.25	1962.57
775.43	2011.72
775.62	2019.71
775.80	2066.81
775.99	2022.57
776.17	1892.12
776.36	1993.49
776.54	2126.41
776.73	1928.16
776.92	2055.75
777.10	2114.12
777.29	2029.33
777.47	1876.76
777.66	1934.10
777.84	1986.73
778.03	1957.04
778.21	1856.48
778.40	1959.70
778.58	2030.15
778.77	2089.95
778.95	1820.64
779.14	1877.17
779.32	2144.22
779.51	2055.14
779.70	1908.91
779.88	1795.86
780.07	1889.66
780.25	2239.86
780.44	1882.08
780.62	2028.10
780.81	2024.62
780.99	1981.61
781.18	1883.11
781.36	1904.00
781.55	1922.22
781.73	2159.38
781.92	1808.97
782.10	1827.81
782.29	2016.63
782.47	2148.11
782.66	1961.54
782.84	1776.41
783.03	1879.01
783.21	2112.07
783.40	1930.01
783.58	1891.30
783.77	1856.89
783.95	1935.94
784.14	1858.33
784.32	1911.98
784.51	2101.42
784.69	1868.36
784.88	1772.72
785.06	1895.40
785.24	1773.54
785.43	2045.31
785.61	2005.58
785.80	1823.72
785.98	2011.11
786.17	1956.42
786.35	1842.35
786.54	1996.97
786.72	2051.86
786.91	2096.51
787.09	1935.54
787.28	1840.51
787.46	1992.26
787.65	2087.90
787.83	1831.91
788.01	1985.51
788.20	1855.05
788.38	1987.96
788.57	1935.13
788.75	1977.93
788.94	2258.30
789.12	2161.43
789.31	1996.16
789.49	2058.21
789.67	1922.22
789.86	2054.32
790.04	1877.99
790.23	1791.15
790.41	2290.04
790.60	1977.52
790.78	1977.72
790.96	1953.35
791.15	2112.89
791.33	1958.88
791.52	1941.68
791.70	1876.14
791.89	1984.89
792.07	2065.79
792.25	1968.51
792.44	1814.50
792.62	2135.21
792.81	1986.32
792.99	2015.00
793.17	1962.98
793.36	2036.70
793.54	2847.91
793.73	4293.36
793.91	6091.48
794.10	7261.89
794.28	8484.12
794.46	8828.18
794.65	8451.76
794.83	6693.17
795.01	6069.97
795.20	5931.12
795.38	5500.23
795.57	5195.70
795.75	4953.42
795.93	4467.44
796.12	4167.00
796.30	3955.65
796.49	3659.52
796.67	3195.86
796.85	3065.19
797.04	2751.04
797.22	2604.61
797.40	2232.90
797.59	2263.21
797.77	2243.96
797.96	2087.70
798.14	2071.73
798.32	2037.11
798.51	2182.93
798.69	2357.83
798.87	2060.67
799.06	2042.85
799.24	1990.63
799.42	2717.45
799.61	3748.60
799.79	4625.75
799.98	5473.61
800.16	6137.15
800.34	7772.25
800.53	9750.58
800.71	10334.66
800.89	11916.11
801.08	12494.66
801.26	12302.35
801.44	10296.98
801.63	8362.06
801.81	8200.48
801.99	7401.97
802.18	6881.99
802.36	6481.21
802.54	5949.76
802.73	5121.97
802.91	4671.21
803.09	4261.82
803.28	3892.37
803.46	3504.07
803.64	3269.17
803.83	2601.94
804.01	2391.41
804.19	2204.02
804.38	2346.77
804.56	2248.67
804.74	2126.41
804.92	2124.77
805.11	1994.93
805.29	2204.43
805.47	2004.96
805.66	1910.96
805.84	1893.55
806.02	2200.13
806.21	2016.63
806.39	2181.50
806.57	2174.53
806.76	2166.75
806.94	2088.52
807.12	2041.62
807.30	2108.59
807.49	2234.33
807.67	2206.28
807.85	2275.50
808.04	2260.55
808.22	2377.69
808.40	1958.06
808.58	1936.76
808.77	2144.63
808.95	2433.19
809.13	3039.39
809.31	5791.04
809.50	8797.05
809.68	10504.24
809.86	12094.89
810.05	13242.37
810.23	15180.98
810.41	22636.61
810.59	39143.24
810.78	49116.64
810.96	57099.42
811.14	61828.59
811.32	60952.67
811.51	49737.17
811.69	39000.70
811.87	38439.35
812.05	33367.55
812.24	31266.54
812.42	28520.01
812.60	25326.82
812.78	21590.51
812.97	18213.81
813.15	15999.76
813.33	13545.47
813.51	11363.56
813.70	8923.20
813.88	7017.57
814.06	5355.44
814.24	4206.32
814.42	3262.21
814.61	2904.43
814.79	2841.15
814.97	2266.90
815.15	2269.97
815.34	2285.94
815.52	2309.29
815.70	1998.82
815.88	2029.33
816.06	1965.85
816.25	1993.49
816.43	1942.09
816.61	2074.80
816.79	2195.22
816.98	1823.72
817.16	1880.04
817.34	1856.69
817.52	2011.72
817.70	2159.38
817.89	1911.57
818.07	1842.56
818.25	1948.64
818.43	1970.97
818.61	1901.74
818.80	1876.76
818.98	2159.79
819.16	1962.36
819.34	1805.69
819.52	2120.26
819.70	1863.04
819.89	1906.04
820.07	1771.90
820.25	1755.11
820.43	1952.94
820.61	2042.44
820.80	1911.78
820.98	1836.00
821.16	1769.45
821.34	1780.50
821.52	1872.46
821.70	1926.32
821.89	1948.85
822.07	1904.82
822.25	1884.75
822.43	1806.31
822.61	2142.79
822.79	1976.09
822.98	1880.85
823.16	1719.47
823.34	1983.05
823.52	2071.73
823.70	1990.83
823.88	1741.39
824.06	2012.33
824.25	1933.69
824.43	2003.32
824.61	1790.13
824.79	1936.76
824.97	2002.09
825.15	2212.01
825.33	2925.52
825.52	4199.36
825.70	4864.54
825.88	5352.16
826.06	5932.56
826.24	6051.34
826.42	5379.19
826.60	4473.17
826.78	4456.99
826.97	4011.15
827.15	4080.78
827.33	3588.04
827.51	3560.19
827.69	3235.38
827.87	3109.84
828.05	2926.75
828.23	2641.67
828.41	2727.08
828.60	2576.14
828.78	2191.94
828.96	2251.54
829.14	2031.18
829.32	2036.70
829.50	1956.63
829.68	1926.93
829.86	1918.54
830.04	2036.70
830.22	1967.69
830.41	1823.72
830.59	1928.37
830.77	2034.86
830.95	1868.57
831.13	1871.84
831.31	1831.70
831.49	2033.63
831.67	2017.86
831.85	1981.20
832.03	1893.55
832.21	2025.65
832.39	1801.80
832.57	1781.32
832.76	2010.29
832.94	1903.18
833.12	1714.97
833.30	1877.17
833.48	2066.40
833.66	1971.17
833.84	1841.12
834.02	1899.08
834.20	2031.79
834.38	2025.44
834.56	1727.46
834.74	1795.86
834.92	1765.55
835.10	2167.57
835.28	1943.93
835.46	1886.18
835.64	1924.27
835.82	1847.06
836.01	2103.26
836.19	2028.72
836.37	1894.58
836.55	1808.56
836.73	1820.85
836.91	1798.12
837.09	2013.97
837.27	2144.02
837.45	1779.89
837.63	1827.81
837.81	1810.61
837.99	1937.99
838.17	1890.68
838.35	1843.17
838.53	2275.29
838.71	2076.64
838.89	1884.95
839.07	1881.88
839.25	2003.94
839.43	2185.18
839.61	2522.28
839.79	4505.33
839.97	6757.07
840.15	8031.31
840.33	9208.90
840.51	9903.77
840.69	9588.18
840.87	7754.02
841.05	6836.94
841.23	7409.76
841.41	9610.91
841.59	13917.18
841.77	15778.37
841.95	17264.99
842.13	18558.28
842.31	17771.04
842.49	14134.88
842.67	11700.66
842.85	11493.61
843.03	9934.49
843.21	9297.78
843.39	8524.87
843.57	7566.22
843.75	6794.96
843.93	5816.64
844.11	5064.83
844.29	4610.39
844.47	4190.35
844.65	4010.54
844.83	3444.89
845.01	3089.77
845.19	2846.27
845.36	2449.37
845.54	2302.94
845.72	2151.39
845.90	2167.37
846.08	1897.24
846.26	1940.66
846.44	2031.38
846.62	2035.27
846.80	1933.49
846.98	1831.91
847.16	1915.47
847.34	1977.11
847.52	1793.00
847.70	1817.16
847.88	1924.68
848.06	2114.94
848.24	1952.12
848.41	1772.11
848.59	2056.57
848.77	1966.66
848.95	1875.53
849.13	1837.03
849.31	2013.77
849.49	1977.72
849.67	1808.15
849.85	1774.16
850.03	1967.89
850.21	1965.64
850.39	1824.94
850.57	1975.06
850.74	2122.72
850.92	2311.54
851.10	2787.08
851.28	3685.73
851.46	4378.35
851.64	5032.68
851.82	5057.46
852.00	5099.65
852.18	4634.76
852.36	3943.16
852.53	3739.80
852.71	3556.30
852.89	3498.34
853.07	3335.32
853.25	3016.25
853.43	2797.93
853.61	2804.69
853.79	2637.17
853.97	2387.11
854.14	2261.98
854.32	2490.13
854.50	2349.63
854.68	2107.36
854.86	2048.38
855.04	1965.64
855.22	2084.01
855.40	1808.36
855.57	1841.53
855.75	2016.23
855.93	1931.85
856.11	1723.98
856.29	1809.99
856.47	1812.45
856.65	1934.51
856.82	1791.15
857.00	1729.71
857.18	1881.06
857.36	1844.61
857.54	1900.51
857.72	1975.47
857.89	2004.14
858.07	1942.91
858.25	2017.04
858.43	1749.78
858.61	1886.59
858.79	1918.13
858.97	1799.96
859.14	1922.02
859.32	1892.32
859.50	1868.77
859.68	1926.93
859.86	1817.78
860.03	1927.55
860.21	2002.71
860.39	1850.34
860.57	1950.28
860.75	1954.38
860.93	2155.49
861.10	2007.21
861.28	1828.02
861.46	1956.63
861.64	1991.85
861.82	1871.84
861.99	1941.68
862.17	2039.78
862.35	2017.25
862.53	1911.16
862.71	1868.36
862.88	1916.90
863.06	2000.25
863.24	1855.46
863.42	1836.21
863.60	1900.11
863.77	1980.59
863.95	1716.40
864.13	1857.92
864.31	1875.53
864.49	2005.58
864.66	1754.49
864.84	1809.59
865.02	1944.14
865.20	2266.28
865.37	1921.61
865.55	1858.12
865.73	1873.89
865.91	2205.66
866.09	2309.90
866.26	2341.44
866.44	2500.57
866.62	2406.98
866.80	2230.85
866.97	2240.48
867.15	2210.99
867.33	2206.89
867.51	2185.18
867.68	2113.71
867.86	2077.87
868.04	1982.43
868.22	1823.92
868.39	1937.38
868.57	2041.42
868.75	2133.16
868.93	1801.19
869.10	1864.47
869.28	2198.90
869.46	2112.89
869.64	1903.79
869.81	1855.87
869.99	1910.75
870.17	1938.81
870.35	1779.89
870.52	1789.11
870.70	2038.34
870.88	1819.01
871.05	1771.90
871.23	1643.09
871.41	1878.60
871.59	1901.54
871.76	1820.03
871.94	1793.20
872.12	1905.63
872.29	1721.11
872.47	1801.39
872.65	1773.95
872.83	1930.21
873.00	2072.13
873.18	1858.94
873.36	1778.87
873.53	1961.95
873.71	1719.27
873.89	1781.32
874.06	1877.37
874.24	1924.89
874.42	2061.89
874.60	1935.54
874.77	1863.24
874.95	1804.06
875.13	2019.50
875.30	1799.75
875.48	1826.79
875.66	2099.78
875.83	1823.31
876.01	1840.30
876.19	1976.49
876.36	1751.22
876.54	1905.23
876.72	1782.96
876.89	1895.60
877.07	1956.42
877.25	1673.19
877.42	1889.25
877.60	1856.28
877.78	2151.60
877.95	1856.28
878.13	1801.80
878.31	1927.55
878.48	2009.88
878.66	1961.34
878.84	1810.40
879.01	1858.53
879.19	1940.25
879.37	1951.30
879.54	1809.99
879.72	1751.22
879.90	1661.31
880.07	1989.81
880.25	1602.95
880.42	1927.75
880.60	1921.20
880.78	1992.47
880.95	1818.19
881.13	1835.80
881.31	1881.47
881.48	1811.22
881.66	1799.96
881.83	1886.18
882.01	1831.09
882.19	1725.82
882.36	1868.98
882.54	1828.84
882.72	1965.23
882.89	1914.03
883.07	1751.01
883.24	1863.45
883.42	1972.19
883.60	1893.14
883.77	1772.93
883.95	1828.02
884.12	2005.17
884.30	1923.25
884.48	1957.45
884.65	1869.18
884.83	1902.36
885.00	1915.47
885.18	1733.81
885.36	1809.99
885.53	1964.62
885.71	2060.05
885.88	1746.71
886.06	1800.78
886.23	1942.91
886.41	1833.75
886.59	1811.63
886.76	1818.19
886.94	1958.88
887.11	2255.02
887.29	1843.58
887.47	1713.74
887.64	2032.40
887.82	2076.23
887.99	1715.17
888.17	1880.85
888.34	1854.85
888.52	1756.95
888.69	1876.76
888.87	1781.73
889.05	1832.73
889.22	1854.64
889.40	1784.19
889.57	1966.05
889.75	2102.65
889.92	1848.29
890.10	1760.02
890.27	1830.06
890.45	1833.34
890.62	1687.73
890.80	1757.16
890.98	1719.06
891.15	2078.28
891.33	2006.39
891.50	1797.30
891.68	1723.37
891.85	1988.58
892.03	1985.10
892.20	1819.83
892.38	1748.35
892.55	1974.86
892.73	1968.92
892.90	1748.56
893.08	1787.88
893.25	1821.67
893.43	1827.61
893.60	1914.24
893.78	1636.33
893.95	1950.28
894.13	1876.76
894.30	1763.71
894.48	1854.23
894.65	2001.07
894.83	1901.13
895.00	1669.50
895.18	1666.23
895.35	1983.87
895.53	1982.84
895.70	1723.57
895.88	1916.69
896.05	1917.92
896.23	1730.33
896.40	1795.25
896.58	1871.84
896.75	1987.35
896.93	2033.84
897.10	1790.54
897.28	1719.27
897.45	1934.72
897.63	1977.52
897.80	1950.90
897.98	1821.67
898.15	1928.57
898.33	1792.79
898.50	1877.37
898.67	1843.17
898.85	1820.85
899.02	1956.83
899.20	1995.34
899.37	1868.16
899.55	1901.13
899.72	2064.76
899.90	1790.95
900.07	1776.20
900.25	1938.81
900.42	2045.10
900.59	1804.67
900.77	1927.14
900.94	1969.12
901.12	1940.25
901.29	1798.94
901.47	1923.86
901.64	1957.04
901.82	1878.40
901.99	1628.34
902.16	1779.68
902.34	2038.14
902.51	1908.50
902.69	1832.93
902.86	1884.95
903.03	2366.63
903.21	1904.41
903.38	1842.76
903.56	1792.79
903.73	2019.09
903.91	1859.97
904.08	1737.50
904.25	1663.77
904.43	1784.60
904.60	1978.75
904.78	1837.03
904.95	1748.15
905.12	1857.30
905.30	2087.70
905.47	1910.35
905.65	1955.81
905.82	1882.70
905.99	1960.73
906.17	1873.69
906.34	1760.02
906.52	1789.92
906.69	1975.06
906.86	1948.64
907.04	1907.89
907.21	2030.97
907.38	2003.32
907.56	1802.21
907.73	1801.80
907.91	2073.98
908.08	2019.71
908.25	1770.67
908.43	1775.79
908.60	1975.06
908.77	1945.16
908.95	1831.29
909.12	1792.38
909.30	1997.18
909.47	1743.03
909.64	1867.34
909.82	1981.00
909.99	1898.06
910.16	1913.42
910.34	1782.76
910.51	1840.10
910.68	1936.56
910.86	1945.37
911.03	1925.50
911.20	2658.88
911.38	4706.03
911.55	7738.86
911.72	9224.05
911.90	10297.80
912.07	11143.00
912.24	10881.47
912.42	8346.50
912.59	5867.64
912.76	5505.76
912.94	4653.19
913.11	4139.76
913.28	3714.20
913.46	3498.95
913.63	3410.89
913.80	3438.33
913.98	3067.04
914.15	3149.78
914.32	3068.47
914.49	2853.43
914.67	2687.14
914.84	2810.02
915.01	2843.20
915.19	2672.39
915.36	2457.97
915.53	2526.17
915.71	2343.90
915.88	2170.85
916.05	1980.59
916.22	2144.63
916.40	2003.53
916.57	1835.39
916.74	1947.82
916.92	2124.36
917.09	1806.92
917.26	1795.45
917.43	1747.94
917.61	1890.28
917.78	1698.79
917.95	1675.03
918.13	1774.77
918.30	2198.08
918.47	1927.96
918.64	1791.15
918.82	1796.07
918.99	1929.80
919.16	2174.53
919.33	1877.37
919.51	1823.51
919.68	1907.89
919.85	2069.88
920.02	1728.90
920.20	1857.10
920.37	2101.22
920.54	2020.94
920.71	1803.44
920.89	1826.79
921.06	2135.62
921.23	1834.78
921.40	1939.84
921.58	2551.15
921.75	3401.88
921.92	3113.73
922.09	3366.86
922.27	3403.72
922.44	3273.88
922.61	2833.77
922.78	2432.99
922.96	2332.43
923.13	2263.62
923.30	2378.10
923.47	2022.98
923.64	2090.98
923.82	2174.74
923.99	2164.09
924.16	2092.41
924.33	1933.69
924.50	2056.57
924.68	2240.27
924.85	1893.76
925.02	1949.87
925.19	2137.67
925.36	2043.26
925.54	2002.91
925.71	1944.34
925.88	2376.87
926.05	1909.32
926.22	1779.68
926.40	1873.48
926.57	1944.75
926.74	1990.42
926.91	1793.61
927.08	1972.81
927.26	2018.68
927.43	1908.09
927.60	1760.23
927.77	1826.17
927.94	2128.04
928.11	2045.92
928.29	1752.65
928.46	1872.66
928.63	1819.62
928.80	1882.70
928.97	1927.14
929.14	1777.43
929.32	2184.57
929.49	1917.92
929.66	1778.05
929.83	1702.07
930.00	1809.59
930.17	1929.60
930.35	1733.81
930.52	1781.12
930.69	2082.78
930.86	1758.80
931.03	1887.82
931.20	1638.58
931.37	2027.49
931.55	1895.19
931.72	1856.48
931.89	1722.34
932.06	1778.25
932.23	2104.08
932.40	1904.41
932.57	1874.30
932.74	2056.16
932.92	2009.06
933.09	1938.81
933.26	1579.39
933.43	1809.38
933.60	1938.61
933.77	1821.67
933.94	1893.14
934.11	1840.92
934.29	1888.02
934.46	1756.13
934.63	1902.36
934.80	1812.04
934.97	1944.34
935.14	1891.50
935.31	1756.13
935.48	1849.73
935.65	1980.80
935.82	1898.06
936.00	1745.89
936.17	2096.51
936.34	1876.35
936.51	1905.43
936.68	1726.44
936.85	1916.90
937.02	1932.46
937.19	1889.25
937.36	1857.30
937.53	1914.44
937.70	2010.08
937.87	1836.00
938.05	1912.39
938.22	1895.19
938.39	1769.45
938.56	1841.33
938.73	1757.36
938.90	1869.18
939.07	1823.10
939.24	1857.10
939.41	1683.64
939.58	1958.27
939.75	1933.90
939.92	1752.65
940.09	1978.54
940.26	1853.62
940.43	1998.82
940.60	1783.99
940.77	1783.17
940.95	1925.09
941.12	1945.16
941.29	1785.21
941.46	1841.12
941.63	2029.33
941.80	2049.20
941.97	1681.59
942.14	1702.89
942.31	1983.25
942.48	1876.76
942.65	1901.54
942.82	1809.99
942.99	1953.15
943.16	1882.29
943.33	1718.45
943.50	1789.52
943.67	1986.32
943.84	2019.50
944.01	1789.31
944.18	1757.98
944.35	2031.79
944.52	1768.42
944.69	1855.25
944.86	1693.67
945.03	1968.92
945.20	2167.98
945.37	1634.48
945.54	1812.04
945.71	2037.11
945.88	2079.92
946.05	1746.10
946.22	1739.95
946.39	2042.23
946.56	1894.78
946.73	1705.55
946.90	1748.15
947.07	1845.83
947.24	1853.82
947.41	1668.68
947.58	1904.82
947.75	1933.08
947.92	1907.27
948.09	1608.07
948.26	1695.31
948.43	1892.32
948.60	2126.00
948.77	1766.78
948.94	1795.25
949.11	1992.67
949.27	1924.48
949.44	1769.65
949.61	1770.26
949.78	1926.32
949.95	2038.34
950.12	1727.87
950.29	1703.71
950.46	1816.55
950.63	1990.83
950.80	1785.83
950.97	1814.71
951.14	2023.19
951.31	1838.05
951.48	1774.56
951.65	1711.90
951.82	2115.96
951.99	1920.38
952.15	1714.97
952.32	1810.20
952.49	1817.37
952.66	1808.56
952.83	1773.75
953.00	1741.59
953.17	1858.94
953.34	1998.61
953.51	1824.74
953.68	1795.45
953.85	2008.03
954.02	2027.08
954.18	1812.86
954.35	1793.20
954.52	1797.50
954.69	1908.91
954.86	1657.22
955.03	1832.52
955.20	1957.24
955.37	1881.88
955.54	1789.31
955.71	1774.77
955.87	1932.67
956.04	2102.44
956.21	1782.35
956.38	1746.10
956.55	1894.99
956.72	2222.87
956.89	1823.51
957.06	1760.43
957.23	1812.25
957.39	2012.95
957.56	1774.36
957.73	1722.14
957.90	1630.80
958.07	2114.32
958.24	1850.34
958.41	1778.25
958.57	1999.64
958.74	1888.84
958.91	1737.91
959.08	1757.98
959.25	1961.54
959.42	1849.32
959.59	1839.69
959.75	1792.59
959.92	2031.58
960.09	1987.55
960.26	1745.69
960.43	1841.53
960.60	1928.57
960.76	1853.21
960.93	1708.62
961.10	1866.72
961.27	2008.85
961.44	1853.00
961.61	1698.38
961.77	1722.14
961.94	1880.85
962.11	2011.72
962.28	1786.03
962.45	1708.83
962.62	1871.84
962.78	1990.42
962.95	1729.30
963.12	1770.06
963.29	1965.44
963.46	2223.89
963.62	1844.20
963.79	1797.71
963.96	2209.55
964.13	1881.06
964.30	1863.86
964.46	1798.53
964.63	1814.91
964.80	2360.08
964.97	1900.72
965.14	2263.62
965.30	2481.32
965.47	2578.80
965.64	2498.52
965.81	2438.52
965.98	2529.04
966.14	2244.98
966.31	2021.96
966.48	2026.87
966.65	2258.30
966.81	2134.80
966.98	1973.01
967.15	2022.78
967.32	2039.98
967.49	1948.23
967.65	1812.04
967.82	1763.30
967.99	1997.59
968.16	1818.39
968.32	2015.20
968.49	1881.67
968.66	1956.01
968.83	2174.33
968.99	1926.52
969.16	1812.04
969.33	2143.61
969.50	2040.60
969.66	1953.15
969.83	2033.43
970.00	2019.09
970.17	1981.61
970.33	1784.19
970.50	1721.11
970.67	2080.33
970.84	2048.79
971.00	1719.88
971.17	1702.07
971.34	1962.36
971.50	1884.54
971.67	1896.21
971.84	1822.08
972.01	1753.68
972.17	1655.58
972.34	1745.07
972.51	1902.97
972.67	2029.95
972.84	1924.27
973.01	1712.10
973.18	1734.63
973.34	2001.28
973.51	1778.25
973.68	1810.20
973.84	1806.31
974.01	1820.64
974.18	2120.67
974.34	1848.29
974.51	1867.75
974.68	1811.02
974.85	2164.50
975.01	1890.07
975.18	1813.89
975.35	1882.08
975.51	1764.73
975.68	1681.38
975.85	1945.37
976.01	1800.98
976.18	2060.87
976.35	1796.89
976.51	1769.45
976.68	2090.98
976.85	2033.43
977.01	1838.26
977.18	1861.19
977.35	1964.82
977.51	1743.85
977.68	1651.48
977.85	1764.53
978.01	2046.13
978.18	2008.24
978.35	1872.46
978.51	1881.88
978.68	2079.51
978.85	2136.85
979.01	1790.33
979.18	1828.84
979.34	1915.06
979.51	1952.12
979.68	1747.12
979.84	1837.44
980.01	2225.12
980.18	1933.28
980.34	1775.18
980.51	1870.61
980.67	1981.41
980.84	1979.36
981.01	1798.12
981.17	1883.93
981.34	1700.63
981.51	1964.82
981.67	1747.74
981.84	1911.16
982.00	1969.53
982.17	1874.30
982.34	1699.20
982.50	1603.97
982.67	2075.41
982.83	1814.09
983.00	1703.91
983.17	1633.26
983.33	2030.97
983.50	1689.37
983.66	1705.96
983.83	1587.18
984.00	1815.52
984.16	1907.89
984.33	1628.75
984.49	1627.32
984.66	1797.09
984.83	1970.76
984.99	1679.13
985.16	1610.52
985.32	1985.30
985.49	2020.94
985.65	1738.73
985.82	1596.19
985.99	2085.45
986.15	1915.67
986.32	1693.06
986.48	1667.46
986.65	1837.85
986.81	1982.23
986.98	1628.95
987.14	1694.28
987.31	1900.72
987.48	1718.04
987.64	1556.46
987.81	1565.67
987.97	2136.85
988.14	1785.01
988.30	1630.18
988.47	1513.65
988.63	1913.62
988.80	1745.69
988.96	1693.67
989.13	1748.56
989.30	1851.16
989.46	1978.13
989.63	1600.69
989.79	1577.96
989.96	1853.41
990.12	2086.88
990.29	1648.41
990.45	1685.27
990.62	1863.04
990.78	2034.66
990.95	1742.21
991.11	1665.61
991.28	1793.00
991.44	1932.05
991.61	1539.87
991.77	1705.14
991.94	1925.09
992.10	2016.02
992.27	1716.40
992.43	1666.02
992.60	1942.50
992.76	1833.34
992.93	1787.26
993.09	1610.32
993.26	1982.84
993.42	2148.52
993.59	1642.27
993.75	1568.13
993.92	1780.09
994.08	1781.32
994.25	1722.75
994.41	1605.81
994.58	1966.87
994.74	2049.40
994.91	1626.29
995.07	1732.58
995.24	1823.72
995.40	1858.33
995.56	1754.09
995.73	1740.36
995.89	2071.32
996.06	1857.10
996.22	1624.04
996.39	1557.07
996.55	1891.30
996.72	1941.27
996.88	1581.85
997.05	1611.96
997.21	2139.31
997.37	1961.54
997.54	1720.09
997.70	1682.61
997.87	1928.57
998.03	1861.60
998.20	1549.29
998.36	1547.65
998.52	1966.87
998.69	1992.88
998.85	1573.66
999.02	1666.02
999.18	1996.36
999.35	1986.94
999.51	1680.15
999.67	1668.28
999.84	1742.21
1000.00	1998.00
1000.17	1734.83
1000.33	1608.27
1000.49	1794.43
1000.66	1881.26
1000.82	1651.89
1000.99	1721.93
1001.15	1996.97
1001.31	1828.84
1001.48	1657.01
1001.64	1729.10
1001.81	1825.97
1001.97	2131.73
1002.13	1646.98
1002.30	1658.45
1002.46	2042.85
1002.63	1827.20
1002.79	1739.14
1002.95	1643.90
1003.12	2017.45
1003.28	1926.73
1003.45	1638.58
1003.61	1609.09
1003.77	1909.12
1003.94	1744.46
1004.10	1686.71
1004.26	1718.86
1004.43	1981.61
1004.59	2089.54
1004.75	1627.11
1004.92	1604.79
1005.08	1822.90
1005.25	1906.66
1005.41	1639.60
1005.57	1715.99
1005.74	2011.31
1005.90	1830.27
1006.06	1738.32
1006.23	1633.46
1006.39	1945.37
1006.55	2238.43
1006.72	1806.10
1006.88	1584.92
1007.04	1749.17
1007.21	1837.85
1007.37	1683.43
1007.53	1654.96
1007.70	2059.44
1007.86	1965.85
1008.02	1701.66
1008.19	1627.93
1008.35	1922.02
1008.51	1805.08
1008.68	1669.91
1008.84	1575.71
1009.00	1780.91
1009.17	2012.95
1009.33	1789.72
1009.49	1727.05
1009.65	1783.37
1009.82	1944.55
1009.98	1716.40
1010.14	1586.36
1010.31	1965.64
1010.47	1939.84
1010.63	1726.64
1010.80	1688.76
1010.96	1930.42
1011.12	1852.80
1011.28	1659.88
1011.45	1646.77
1011.61	2208.53
1011.77	1774.77
1011.94	1669.91
1012.10	1605.20
1012.26	1787.47
1012.42	1811.02
1012.59	1674.62
1012.75	1684.45
1012.91	1859.35
1013.07	1981.20
1013.24	1577.14
1013.40	1628.54
1013.56	1917.92
1013.72	1889.46
1013.89	1714.97
1014.05	1713.33
1014.21	2124.77
1014.37	2217.75
1014.54	1667.46
1014.70	1607.86
1014.86	1853.00
1015.02	1736.06
1015.19	1665.20
1015.35	1609.29
1015.51	1852.80
1015.67	1825.35
1015.84	1639.40
1016.00	1626.09
1016.16	2015.20
1016.32	1973.42
1016.49	1655.37
1016.65	1623.02
1016.81	1873.48
1016.97	1946.59
1017.14	1769.04
1017.30	1650.46
1017.46	1814.30
1017.62	1887.82
1017.78	1716.61
1017.95	1618.30
1018.11	1967.07
1018.27	2169.21
1018.43	1756.54
1018.59	1713.13
1018.76	2006.80
1018.92	2194.40
1019.08	1632.03
1019.24	1679.54
1019.40	2041.42
1019.57	1907.89
1019.73	1739.14
1019.89	1648.82
1020.05	1894.99
1020.21	2135.83
1020.38	1642.47
1020.54	1811.02
1020.70	1966.87
1020.86	1957.86
1021.02	1666.02
1021.18	1646.77
1021.35	1815.32
1021.51	1933.69
1021.67	1774.36
1021.83	1650.66
1021.99	1883.31
1022.15	1904.41
1022.32	1729.51
1022.48	1710.46
1022.64	2042.03
1022.80	2056.37
1022.96	1715.58
1023.12	1591.48
1023.29	1976.70
1023.45	1925.71
1023.61	1622.61
1023.77	1829.86
1023.93	1870.61
1024.09	1774.36
1024.25	1618.51
1024.42	1588.20
1024.58	1826.58
1024.74	1910.35
1024.90	1688.55
1025.06	1717.22
1025.22	1815.93
1025.38	2090.77
1025.54	1596.19
1025.71	1735.24
1025.87	1974.65
1026.03	1934.72
1026.19	1602.33
1026.35	1775.79
1026.51	1958.68
1026.67	1853.62
1026.83	1702.89
1026.99	1777.23
1027.16	1951.10
1027.32	1861.19
1027.48	1670.32
1027.64	1625.47
1027.80	1966.87
1027.96	1918.95
1028.12	1666.84
1028.28	1618.10
1028.44	1934.10
1028.60	2042.44
1028.77	1767.40
1028.93	1717.02
1029.09	1827.61
1029.25	1754.70
1029.41	1685.68
1029.57	1756.95
1029.73	1915.26
1029.89	2045.10
1030.05	1801.60
1030.21	1738.73
1030.37	2209.35
1030.53	1957.65
1030.69	1690.60
1030.85	1607.25
1031.02	1769.65
1031.18	1862.42
1031.34	1675.24
1031.50	1703.71
1031.66	1780.71
1031.82	2076.03
1031.98	1674.62
1032.14	1637.35
1032.30	1752.86
1032.46	1981.20
1032.62	1808.15
1032.78	1609.50
1032.94	1806.51
1033.10	1843.79
1033.26	1722.34
1033.42	1753.47
1033.58	2154.67
1033.74	1825.76
1033.90	1641.24
1034.06	1817.78
1034.22	2148.93
1034.38	2021.96
1034.54	1690.60
1034.70	1702.07
1034.86	2092.82
>>>>>End Processed Spectral Data<<<<<
