SpectraSuite Data File
++++++++++++++++++++++++++++++++++++
Date: Thu Mar 30 16:01:28 PDT 2017
User: UCSD _CER
Dark Spectrum Present: No
Reference Spectrum Present: No
Number of Sampled Component Spectra: 1
Spectrometers: USB4C00073
Integration Time (usec): 250000 (USB4C00073)
Spectra Averaged: 10 (USB4C00073)
Boxcar Smoothing: 0 (USB4C00073)
Correct for Electrical Dark: No (USB4C00073)
Strobe/Lamp Enabled: No (USB4C00073)
Correct for Detector Non-linearity: No (USB4C00073)
Correct for Stray Light: No (USB4C00073)
Number of Pixels in Processed Spectrum: 3648
>>>>>Begin Processed Spectral Data<<<<<
345.37	1282.44
345.58	1282.44
345.80	1282.44
346.01	1271.58
346.22	1274.66
346.43	1964.41
346.65	1770.47
346.86	2117.80
347.07	2107.56
347.28	1815.11
347.50	1774.16
347.71	1899.70
347.92	1722.96
348.13	1817.98
348.35	1723.57
348.56	1903.59
348.77	1755.72
348.98	1822.69
349.20	1666.84
349.41	1920.79
349.62	1983.87
349.83	1858.33
350.05	1731.35
350.26	1950.49
350.47	2104.29
350.68	1798.12
350.90	1748.97
351.11	2112.48
351.32	2089.95
351.53	1833.96
351.75	1764.53
351.96	1956.83
352.17	1925.30
352.38	1872.25
352.60	1862.22
352.81	1942.91
353.02	2157.13
353.23	1800.57
353.44	1833.96
353.66	1853.21
353.87	1891.30
354.08	1911.16
354.29	1810.40
354.51	1846.65
354.72	1878.40
354.93	1780.91
355.14	1742.41
355.35	1752.24
355.57	2031.99
355.78	1806.10
355.99	1879.83
356.20	1909.73
356.42	1908.50
356.63	1890.48
356.84	1826.17
357.05	2022.37
357.26	2209.76
357.48	1904.00
357.69	1856.28
357.90	1981.00
358.11	1877.37
358.32	1834.57
358.54	1846.45
358.75	1884.95
358.96	2004.96
359.17	1800.57
359.38	1814.50
359.60	2007.42
359.81	1892.94
360.02	1794.02
360.23	1770.06
360.44	1820.44
360.66	2047.97
360.87	1752.45
361.08	1730.12
361.29	1969.33
361.50	1932.87
361.72	1771.08
361.93	1855.87
362.14	1934.72
362.35	1747.94
362.56	1881.47
362.77	1732.38
362.99	1982.02
363.20	1911.98
363.41	1880.04
363.62	1707.39
363.83	1979.16
364.05	2025.44
364.26	1690.60
364.47	1761.05
364.68	2072.34
364.89	1828.02
365.10	1721.52
365.32	1807.54
365.53	1801.39
365.74	1848.70
365.95	1806.31
366.16	1712.92
366.37	1910.75
366.59	1865.49
366.80	1797.30
367.01	1679.33
367.22	2146.27
367.43	2279.39
367.64	1800.78
367.86	1795.04
368.07	1954.17
368.28	2078.28
368.49	1714.76
368.70	1836.41
368.91	1881.26
369.12	1879.83
369.34	1742.21
369.55	1742.21
369.76	1918.54
369.97	1844.20
370.18	1738.93
370.39	1749.78
370.60	1749.58
370.82	1795.66
371.03	1812.04
371.24	1725.62
371.45	2002.09
371.66	1991.85
371.87	1819.62
372.08	1799.75
372.30	1820.44
372.51	2029.54
372.72	1913.01
372.93	1806.72
373.14	2113.09
373.35	1849.73
373.56	1747.33
373.78	1848.29
373.99	2018.89
374.20	2267.10
374.41	1812.25
374.62	1822.49
374.83	2083.60
375.04	1885.97
375.25	1814.71
375.47	1768.22
375.68	1881.88
375.89	2017.04
376.10	1843.58
376.31	1905.84
376.52	1985.30
376.73	1943.32
376.94	1836.82
377.15	1796.07
377.37	1909.32
377.58	1867.75
377.79	1695.72
378.00	1735.65
378.21	1964.21
378.42	2004.96
378.63	1855.46
378.84	1908.30
379.05	2042.64
379.27	1936.97
379.48	1926.93
379.69	1777.43
379.90	2074.18
380.11	1689.98
380.32	1827.61
380.53	1920.18
380.74	2085.86
380.95	1916.69
381.16	1823.72
381.37	1793.82
381.59	2099.99
381.80	2024.42
382.01	1757.98
382.22	1722.75
382.43	1979.16
382.64	1934.31
382.85	1739.34
383.06	1858.74
383.27	2001.28
383.48	1903.38
383.69	1867.75
383.91	1795.45
384.12	2040.39
384.33	2025.44
384.54	1909.53
384.75	1796.07
384.96	2364.58
385.17	2054.52
385.38	1814.09
385.59	1817.16
385.80	2048.17
386.01	2122.11
386.22	1910.55
386.43	1860.99
386.64	2259.32
386.86	1944.75
387.07	1955.81
387.28	1752.86
387.49	1894.37
387.70	2096.10
387.91	1929.19
388.12	1800.78
388.33	2013.97
388.54	1902.77
388.75	1791.97
388.96	1887.20
389.17	1825.56
389.38	1900.52
389.59	1897.24
389.80	1832.93
390.01	1907.68
390.22	1873.89
390.43	1925.30
390.64	1725.21
390.86	1974.45
391.07	2071.93
391.28	1854.64
391.49	1872.05
391.70	1778.66
391.91	1830.27
392.12	1845.63
392.33	1821.05
392.54	1951.10
392.75	1910.55
392.96	1915.06
393.17	1797.71
393.38	2210.99
393.59	2051.04
393.80	1741.80
394.01	1834.57
394.22	1931.85
394.43	2181.50
394.64	1759.00
394.85	1930.01
395.06	1930.21
395.27	1957.24
395.48	1811.63
395.69	1770.88
395.90	1897.65
396.11	1913.42
396.32	1786.44
396.53	1906.86
396.74	1901.74
396.95	2043.05
397.16	1767.81
397.37	1716.40
397.58	2029.13
397.79	1930.62
398.00	1847.27
398.21	1808.36
398.42	1939.63
398.63	2183.75
398.84	1827.40
399.05	1779.68
399.26	2066.81
399.47	1962.36
399.68	1648.61
399.89	1748.76
400.10	1773.34
400.31	1878.81
400.52	1846.45
400.73	1824.13
400.94	1771.70
401.15	1981.41
401.36	1865.49
401.57	1899.49
401.78	2084.22
401.99	2064.15
402.20	1736.47
402.41	1936.97
402.62	2120.26
402.83	1888.02
403.04	1775.18
403.25	1953.15
403.46	1981.20
403.67	2129.68
403.88	1868.77
404.09	1864.68
404.30	1901.13
404.51	1885.77
404.72	1764.53
404.93	1908.30
405.14	1822.69
405.35	1927.14
405.56	1822.69
405.77	1819.42
405.98	1952.33
406.19	1922.84
406.40	1795.45
406.61	1838.26
406.82	1884.13
407.03	2267.92
407.24	1777.43
407.45	1877.99
407.66	1982.84
407.87	2050.22
408.08	1888.02
408.29	1877.17
408.49	2009.67
408.70	1927.34
408.91	1821.46
409.12	1908.09
409.33	1823.51
409.54	2095.28
409.75	1816.55
409.96	1805.28
410.17	2041.42
410.38	1897.03
410.59	1786.85
410.80	1900.51
411.01	1938.40
411.22	1877.99
411.43	1874.71
411.64	1779.07
411.85	1814.09
412.06	1787.47
412.27	1653.12
412.47	1788.49
412.68	1924.27
412.89	1980.39
413.10	1798.32
413.31	1735.24
413.52	2170.64
413.73	2181.70
413.94	1766.58
414.15	1935.33
414.36	1861.19
414.57	1804.06
414.78	1746.51
414.99	1874.51
415.19	2174.74
415.40	2164.91
415.61	2202.18
415.82	2064.97
416.03	2172.28
416.24	2120.67
416.45	1882.29
416.66	1835.18
416.87	1800.78
417.08	2011.11
417.29	1796.48
417.50	1870.00
417.70	2022.16
417.91	1984.69
418.12	1891.09
418.33	1896.62
418.54	2061.89
418.75	2185.80
418.96	2146.07
419.17	2149.14
419.38	2479.48
419.59	2440.36
419.79	2269.35
420.00	2200.54
420.21	2519.00
420.42	2091.59
420.63	1910.96
420.84	1956.42
421.05	1934.72
421.26	1938.61
421.47	1747.53
421.67	2079.71
421.88	1816.14
422.09	1820.23
422.30	2020.12
422.51	1901.13
422.72	2179.45
422.93	2060.05
423.14	1850.13
423.35	1742.62
423.55	1760.23
423.76	1805.90
423.97	1840.10
424.18	1721.11
424.39	1882.49
424.60	2058.21
424.81	1853.21
425.02	1983.05
425.22	2027.08
425.43	2037.73
425.64	2149.34
425.85	2098.55
426.06	2381.58
426.27	2227.99
426.48	2112.68
426.68	2071.73
426.89	2220.20
427.10	2324.65
427.31	1954.99
427.52	1856.28
427.73	2089.75
427.94	2020.32
428.14	1942.09
428.35	1872.87
428.56	2113.09
428.77	2055.34
428.98	1918.33
429.19	1908.09
429.40	1921.81
429.60	1985.30
429.81	2041.21
430.02	1944.75
430.23	1971.78
430.44	2047.76
430.65	1853.82
430.85	1873.07
431.06	1990.63
431.27	1777.23
431.48	1818.60
431.69	1880.24
431.90	1920.79
432.10	1946.59
432.31	1935.33
432.52	1883.93
432.73	2346.77
432.94	2279.59
433.15	2134.60
433.35	1992.26
433.56	2218.15
433.77	2048.58
433.98	2245.80
434.19	2264.44
434.40	2443.02
434.60	2426.23
434.81	2329.56
435.02	2198.29
435.23	2153.23
435.44	2027.08
435.64	1825.56
435.85	1849.32
436.06	1899.49
436.27	1924.27
436.48	1825.35
436.68	1877.37
436.89	2209.55
437.10	2104.29
437.31	1985.92
437.52	2062.71
437.73	2072.75
437.93	2045.10
438.14	1949.26
438.35	1760.02
438.56	1899.08
438.77	1922.63
438.97	1980.80
439.18	1840.71
439.39	2150.16
439.60	1888.23
439.80	1856.89
440.01	1938.61
440.22	1945.16
440.43	2021.75
440.64	1786.03
440.84	1879.01
441.05	1826.58
441.26	2276.93
441.47	1900.92
441.68	1892.12
441.88	2082.37
442.09	2182.93
442.30	2311.54
442.51	2247.24
442.71	2205.25
442.92	2189.28
443.13	1972.19
443.34	1900.51
443.55	1905.63
443.75	2052.06
443.96	1802.62
444.17	1770.67
444.38	2048.17
444.58	1822.28
444.79	1889.66
445.00	1860.78
445.21	1890.28
445.41	1883.93
445.62	1646.57
445.83	1896.01
446.04	1957.45
446.24	1776.00
446.45	1654.14
446.66	1809.59
446.87	1968.92
447.07	1873.69
447.28	1995.75
447.49	1909.12
447.70	2054.32
447.90	2092.20
448.11	1891.50
448.32	1922.22
448.53	2118.01
448.73	2099.37
448.94	1841.53
449.15	1955.40
449.36	1939.22
449.56	1971.99
449.77	1777.23
449.98	1715.79
450.19	1864.06
450.39	1927.55
450.60	1935.54
450.81	1910.35
451.02	1998.41
451.22	2180.06
451.43	1824.94
451.64	1820.03
451.84	1906.66
452.05	2106.54
452.26	1906.04
452.47	1845.83
452.67	1862.42
452.88	2130.91
453.09	1778.46
453.30	1715.79
453.50	2010.90
453.71	2213.24
453.92	1930.82
454.12	2063.12
454.33	2005.78
454.54	2014.38
454.75	1847.47
454.95	1812.86
455.16	1945.78
455.37	1994.31
455.57	1903.38
455.78	1846.24
455.99	1905.02
456.19	1928.57
456.40	1775.79
456.61	1858.33
456.82	1909.12
457.02	2061.28
457.23	2010.90
457.44	2140.54
457.64	2021.14
457.85	2120.67
458.06	1959.09
458.26	2067.22
458.47	1973.83
458.68	2090.36
458.89	1849.73
459.09	2050.43
459.30	2206.69
459.51	1976.70
459.71	1767.81
459.92	1846.45
460.13	2098.14
460.33	2326.70
460.54	1929.19
460.75	1933.49
460.95	1910.35
461.16	2059.03
461.37	1869.18
461.57	1904.61
461.78	1955.40
461.99	1829.45
462.19	2039.37
462.40	1823.72
462.61	2205.46
462.81	2067.01
463.02	1789.11
463.23	1828.63
463.43	2004.14
463.64	1847.88
463.85	2747.15
464.05	1822.49
464.26	2315.23
464.47	2099.37
464.67	1980.18
464.88	1881.88
465.09	1935.74
465.29	2065.58
465.50	2120.47
465.71	1995.95
465.91	1952.53
466.12	1967.69
466.33	1937.99
466.53	1868.36
466.74	2114.32
466.94	1897.03
467.15	1887.20
467.36	2031.79
467.56	1808.97
467.77	1935.33
467.98	1908.91
468.18	1786.03
468.39	1852.39
468.60	2167.98
468.80	1875.73
469.01	1777.84
469.21	2016.02
469.42	2015.61
469.63	1836.62
469.83	1797.09
470.04	2040.80
470.25	2140.33
470.45	1916.69
470.66	1806.92
470.86	1950.08
471.07	1869.18
471.28	1947.41
471.48	1976.29
471.69	1990.01
471.90	2521.05
472.10	1976.70
472.31	2026.87
472.51	2063.94
472.72	2074.59
472.93	1961.75
473.13	2143.61
473.34	2156.31
473.54	2095.28
473.75	1987.96
473.96	2068.65
474.16	1967.89
474.37	2006.80
474.57	1879.42
474.78	1817.16
474.99	2034.86
475.19	1956.42
475.40	1796.68
475.60	1829.45
475.81	2277.55
476.02	2096.30
476.22	2063.12
476.43	2172.28
476.63	2016.43
476.84	2148.93
477.05	1775.79
477.25	1862.83
477.46	2351.07
477.66	1947.62
477.87	1759.00
478.08	1854.85
478.28	2055.75
478.49	1881.88
478.69	1785.83
478.90	1829.25
479.10	1974.24
479.31	2102.44
479.52	1919.36
479.72	2079.71
479.93	2235.15
480.13	2182.32
480.34	2155.28
480.54	2243.75
480.75	2032.40
480.96	2211.60
481.16	1889.66
481.37	2003.94
481.57	2078.28
481.78	2051.86
481.98	2068.45
482.19	1944.75
482.40	2206.48
482.60	2021.75
482.81	1922.84
483.01	1797.50
483.22	1981.00
483.42	2020.12
483.63	1913.21
483.83	1905.43
484.04	1911.16
484.24	2115.14
484.45	2026.06
484.66	1861.19
484.86	2045.31
485.07	1856.28
485.27	1906.04
485.48	1827.61
485.68	2119.65
485.89	1868.77
486.09	1944.34
486.30	1863.24
486.50	1950.08
486.71	1924.68
486.91	1920.79
487.12	2183.75
487.33	2607.88
487.53	2685.50
487.74	2571.63
487.94	2476.20
488.15	2339.19
488.35	2227.78
488.56	2019.30
488.76	1976.49
488.97	2034.04
489.17	2093.43
489.38	1938.81
489.58	1957.04
489.79	2054.73
489.99	2019.91
490.20	1910.35
490.40	1975.06
490.61	1987.35
490.81	1880.04
491.02	1892.12
491.22	1920.18
491.43	2016.84
491.63	1902.77
491.84	1976.49
492.04	1750.19
492.25	1981.82
492.45	1910.35
492.66	1864.68
492.86	1782.55
493.07	1943.73
493.27	2236.59
493.48	1755.52
493.68	1879.42
493.89	1921.81
494.09	2018.48
494.30	1820.03
494.50	2071.52
494.71	2006.80
494.91	1752.04
495.12	1822.28
495.32	1916.90
495.53	1953.76
495.73	1801.19
495.94	2003.12
496.14	1906.04
496.35	2330.18
496.55	2070.09
496.76	1944.55
496.96	1967.28
497.17	1961.13
497.37	1993.90
497.58	1838.67
497.78	1783.78
497.98	1907.27
498.19	1916.49
498.39	1882.08
498.60	1916.08
498.80	1724.39
499.01	2006.80
499.21	1775.38
499.42	1882.08
499.62	1877.17
499.83	2215.70
500.03	1764.94
500.24	1975.88
500.44	2171.26
500.64	2166.14
500.85	1911.16
501.05	2032.61
501.26	1824.33
501.46	2150.98
501.67	1873.07
501.87	1786.65
502.08	1838.26
502.28	1911.98
502.48	1951.30
502.69	1987.96
502.89	1740.36
503.10	1857.71
503.30	1909.32
503.51	1867.75
503.71	1792.18
503.92	1990.22
504.12	1934.92
504.32	1859.35
504.53	2029.74
504.73	2029.33
504.94	1971.99
505.14	2044.49
505.35	2044.28
505.55	2027.28
505.75	1939.02
505.96	2049.81
506.16	2256.25
506.37	1906.25
506.57	1822.69
506.78	1928.37
506.98	2074.80
507.18	1796.89
507.39	1794.23
507.59	1900.92
507.80	1856.48
508.00	1971.78
508.20	2013.77
508.41	1904.20
508.61	2075.62
508.82	2019.71
509.02	1993.49
509.22	1811.43
509.43	1816.34
509.63	1844.40
509.84	1866.31
510.04	1781.94
510.24	2104.49
510.45	2032.81
510.65	1785.42
510.86	1904.41
511.06	1788.29
511.26	2013.77
511.47	1935.54
511.67	1804.47
511.88	1979.98
512.08	2055.75
512.28	1747.53
512.49	1968.92
512.69	1963.18
512.90	1950.28
513.10	1814.50
513.30	1902.97
513.51	2007.62
513.71	2150.16
513.91	1984.89
514.12	1942.09
514.32	2047.35
514.53	1870.41
514.73	1953.97
514.93	1886.38
515.14	1962.98
515.34	2117.80
515.54	1882.29
515.75	1942.70
515.95	2006.19
516.15	2092.00
516.36	1916.69
516.56	1946.39
516.77	1701.45
516.97	2017.25
517.17	1846.04
517.38	1948.64
517.58	2130.30
517.78	1867.34
517.99	1898.06
518.19	1907.68
518.39	2092.41
518.60	1860.58
518.80	1800.16
519.00	1971.99
519.21	1915.87
519.41	2192.56
519.61	1812.66
519.82	1943.93
520.02	1930.01
520.22	1916.08
520.43	1869.80
520.63	1867.54
520.83	1821.05
521.04	1737.50
521.24	1940.25
521.44	1830.27
521.65	1811.22
521.85	1998.61
522.05	1781.94
522.26	1837.23
522.46	2136.85
522.66	2058.41
522.87	1846.86
523.07	2010.08
523.27	1878.81
523.48	2097.94
523.68	1915.87
523.88	1914.44
524.09	2068.45
524.29	1946.39
524.49	1717.22
524.70	1968.30
524.90	2092.41
525.10	1973.83
525.31	1739.14
525.51	1783.99
525.71	2024.83
525.91	2018.07
526.12	1792.38
526.32	1776.41
526.52	1867.13
526.73	1854.03
526.93	1917.10
527.13	1773.54
527.34	1905.43
527.54	1878.40
527.74	1820.85
527.94	1785.83
528.15	1791.97
528.35	1945.37
528.55	1973.42
528.76	1931.64
528.96	1744.87
529.16	2044.49
529.36	2009.06
529.57	1777.84
529.77	2082.37
529.97	1788.29
530.18	1939.43
530.38	1831.50
530.58	1988.78
530.78	1912.39
530.99	1856.69
531.19	1952.33
531.39	1838.46
531.60	1920.59
531.80	1847.68
532.00	2001.28
532.20	1919.56
532.41	1843.38
532.61	1848.50
532.81	1881.88
533.01	1880.24
533.22	1988.99
533.42	2000.25
533.62	1730.74
533.82	2071.73
534.03	1885.36
534.23	1947.00
534.43	1814.71
534.63	1885.36
534.84	1951.30
535.04	1925.71
535.24	1899.90
535.44	2257.27
535.65	1890.89
535.85	1836.41
536.05	1824.13
536.25	1942.09
536.46	1824.33
536.66	2038.55
536.86	1920.99
537.06	2015.00
537.27	2085.45
537.47	1974.04
537.67	1864.88
537.87	2106.34
538.08	1882.49
538.28	1797.91
538.48	1774.36
538.68	1924.68
538.88	2033.22
539.09	1761.66
539.29	1860.17
539.49	2048.38
539.69	1950.69
539.90	1964.21
540.10	1808.77
540.30	2100.81
540.50	1874.51
540.70	1767.81
540.91	1873.07
541.11	2011.51
541.31	2120.88
541.51	1944.14
541.72	1936.56
541.92	1968.71
542.12	1864.27
542.32	1860.58
542.52	1841.74
542.73	1849.11
542.93	1983.46
543.13	1894.99
543.33	1966.46
543.53	2044.90
543.74	1982.84
543.94	1858.33
544.14	1975.47
544.34	2090.77
544.54	1951.30
544.75	1985.10
544.95	2111.46
545.15	2026.47
545.35	2149.55
545.55	2007.21
545.75	1824.74
545.96	2245.19
546.16	1880.85
546.36	1901.33
546.56	1889.87
546.76	2078.28
546.97	2161.22
547.17	1871.02
547.37	1968.51
547.57	1868.98
547.77	2019.30
547.97	1931.23
548.18	1950.69
548.38	1903.38
548.58	2097.53
548.78	1825.15
548.98	1934.51
549.18	2052.68
549.39	2136.24
549.59	1984.07
549.79	1896.83
549.99	2114.73
550.19	2062.92
550.39	2004.96
550.60	1903.18
550.80	1963.80
551.00	2013.36
551.20	1870.21
551.40	1868.77
551.60	1977.52
551.80	1951.10
552.01	1997.79
552.21	1907.89
552.41	1926.32
552.61	2133.37
552.81	1936.56
553.01	1807.13
553.21	1988.37
553.42	1830.47
553.62	1833.34
553.82	1839.08
554.02	2120.47
554.22	2035.89
554.42	1807.33
554.62	1928.98
554.83	2135.21
555.03	2128.25
555.23	1921.61
555.43	2125.79
555.63	2027.49
555.83	1955.61
556.03	1950.49
556.23	1782.96
556.44	1969.53
556.64	2087.70
556.84	1692.44
557.04	1878.81
557.24	1978.95
557.44	1979.16
557.64	1921.81
557.84	1795.04
558.04	1868.57
558.25	2020.32
558.45	1854.03
558.65	1913.21
558.85	1909.53
559.05	1720.91
559.25	1895.19
559.45	1941.88
559.65	2186.41
559.85	2588.43
560.05	1942.91
560.26	1969.74
560.46	1981.41
560.66	1901.74
560.86	1888.23
561.06	1836.21
561.26	2112.68
561.46	1983.87
561.66	1879.01
561.86	1976.90
562.06	1818.39
562.26	1908.50
562.47	1905.02
562.67	1783.99
562.87	1981.20
563.07	1780.50
563.27	1908.91
563.47	1903.18
563.67	1842.35
563.87	2022.57
564.07	1863.45
564.27	1911.57
564.47	1957.24
564.67	1989.40
564.87	1831.29
565.08	1969.33
565.28	1879.22
565.48	1985.71
565.68	1959.09
565.88	1980.18
566.08	2164.91
566.28	1931.44
566.48	1791.36
566.68	1879.63
566.88	1916.08
567.08	2058.41
567.28	1893.76
567.48	1864.27
567.68	1995.13
567.88	1789.11
568.08	1955.20
568.28	2054.93
568.48	1911.78
568.68	2060.26
568.89	1935.13
569.09	1759.41
569.29	2039.57
569.49	2047.76
569.69	1815.52
569.89	1806.10
570.09	1732.58
570.29	1855.46
570.49	1759.21
570.69	1839.08
570.89	2021.35
571.09	2196.24
571.29	1750.19
571.49	2030.15
571.69	1967.89
571.89	2015.20
572.09	1861.81
572.29	1853.41
572.49	2037.93
572.69	2018.48
572.89	1915.06
573.09	1661.11
573.29	1929.39
573.49	1939.22
573.69	1889.05
573.89	2019.09
574.09	1896.62
574.29	2099.99
574.49	1873.89
574.69	1848.29
574.89	1798.32
575.09	1829.66
575.29	1803.24
575.49	1908.09
575.69	1955.40
575.89	1770.26
576.09	1932.05
576.29	1930.42
576.49	1789.92
576.69	1933.90
576.89	1831.09
577.09	1901.13
577.29	1768.42
577.49	2140.95
577.69	1847.47
577.89	1988.37
578.09	1922.22
578.29	1759.41
578.49	1910.14
578.69	1832.93
578.89	2053.50
579.09	1937.99
579.29	1822.90
579.49	2016.23
579.69	1886.38
579.89	2173.71
580.09	1723.78
580.29	1750.60
580.49	1870.21
580.69	1801.19
580.89	1893.76
581.09	1883.52
581.29	1873.07
581.49	1931.03
581.69	1805.90
581.89	1850.75
582.09	1809.99
582.28	1819.62
582.48	1998.41
582.68	2042.23
582.88	2073.36
583.08	1915.47
583.28	1880.24
583.48	1909.12
583.68	1833.96
583.88	1931.03
584.08	1928.57
584.28	1907.27
584.48	2209.35
584.68	2011.31
584.88	1882.29
585.08	2046.74
585.28	2047.35
585.48	2094.66
585.68	1980.80
585.87	1987.96
586.07	1998.20
586.27	1943.52
586.47	1985.51
586.67	1923.66
586.87	1926.32
587.07	1909.53
587.27	1787.06
587.47	1926.52
587.67	2157.74
587.87	2292.91
588.07	1982.64
588.27	1932.46
588.46	2072.75
588.66	2081.76
588.86	1949.26
589.06	2008.44
589.26	2076.03
589.46	2047.15
589.66	1837.64
589.86	1793.00
590.06	1906.45
590.26	1998.00
590.46	1906.45
590.66	2013.36
590.85	1907.89
591.05	2041.01
591.25	1875.32
591.45	1874.71
591.65	2030.36
591.85	1949.05
592.05	1898.47
592.25	2012.13
592.45	2076.85
592.64	1908.50
592.84	1936.15
593.04	1843.99
593.24	2254.81
593.44	1882.70
593.64	1988.99
593.84	1982.64
594.04	1875.94
594.24	2122.11
594.43	1910.96
594.63	1924.89
594.83	2081.35
595.03	2025.24
595.23	1842.56
595.43	1768.63
595.63	1843.38
595.83	2048.38
596.02	1740.57
596.22	1885.16
596.42	1972.60
596.62	1905.23
596.82	1837.44
597.02	1975.68
597.22	2089.34
597.41	1967.07
597.61	1826.38
597.81	1973.01
598.01	2035.48
598.21	1897.44
598.41	1860.58
598.61	1810.81
598.80	1964.00
599.00	1976.09
599.20	2045.10
599.40	1873.07
599.60	1897.65
599.80	2029.33
599.99	2064.35
600.19	1920.18
600.39	1952.94
600.59	1983.05
600.79	1944.75
600.99	1924.68
601.19	2181.70
601.38	2201.16
601.58	1986.12
601.78	1703.09
601.98	2011.51
602.18	2076.44
602.37	2255.02
602.57	2064.15
602.77	2204.02
602.97	2157.13
603.17	2235.56
603.37	2097.73
603.56	2188.46
603.76	2185.39
603.96	2065.58
604.16	2075.62
604.36	2170.85
604.56	2134.60
604.75	1905.84
604.95	1964.21
605.15	2142.99
605.35	2092.41
605.55	1921.20
605.74	1846.24
605.94	2082.17
606.14	1963.39
606.34	1968.10
606.54	1940.45
606.73	1893.76
606.93	2026.87
607.13	1856.07
607.33	1946.39
607.53	2124.36
607.72	2069.68
607.92	2015.61
608.12	2005.99
608.32	1897.65
608.51	1984.07
608.71	1825.76
608.91	1949.05
609.11	2003.53
609.31	1883.52
609.50	1919.77
609.70	2087.29
609.90	2039.78
610.10	2047.76
610.29	1896.42
610.49	1837.23
610.69	2005.58
610.89	1941.06
611.09	1963.59
611.28	2060.05
611.48	2079.92
611.68	1909.53
611.88	1887.00
612.07	1835.59
612.27	2022.98
612.47	1852.59
612.67	1937.58
612.86	2027.49
613.06	1936.35
613.26	1742.21
613.46	1871.43
613.65	1930.62
613.85	2288.20
614.05	2014.38
614.25	1960.11
614.44	1901.54
614.64	1899.70
614.84	1855.66
615.04	1833.34
615.23	1854.03
615.43	1982.43
615.63	1996.36
615.83	1841.12
616.02	1762.89
616.22	2032.61
616.42	1795.25
616.62	1801.60
616.81	1884.54
617.01	1991.65
617.21	1943.11
617.41	1839.90
617.60	1891.50
617.80	1987.14
618.00	2015.82
618.19	1978.13
618.39	1958.27
618.59	1993.49
618.79	1910.75
618.98	1720.91
619.18	1882.49
619.38	2185.80
619.57	1886.18
619.77	1904.00
619.97	1899.08
620.17	1859.56
620.36	1781.53
620.56	2028.72
620.76	1758.80
620.95	1798.12
621.15	1876.14
621.35	1791.56
621.54	1858.33
621.74	1926.11
621.94	1840.71
622.14	1799.35
622.33	1755.52
622.53	1922.43
622.73	1873.07
622.92	1742.21
623.12	1889.05
623.32	2173.71
623.51	2014.18
623.71	1762.48
623.91	2016.63
624.10	1812.86
624.30	1954.99
624.50	1801.39
624.69	1786.65
624.89	2427.25
625.09	1883.93
625.29	1707.39
625.48	1775.59
625.68	1960.11
625.88	2061.49
626.07	1957.86
626.27	1783.17
626.47	1881.06
626.66	1754.90
626.86	1901.33
627.06	1872.87
627.25	1942.09
627.45	2127.43
627.64	1892.94
627.84	2081.15
628.04	1837.44
628.23	2184.16
628.43	1814.50
628.63	1837.03
628.82	1890.07
629.02	2172.28
629.22	2003.73
629.41	2084.22
629.61	1943.93
629.81	2153.85
630.00	1813.48
630.20	1794.43
630.40	1968.10
630.59	2005.58
630.79	1904.61
630.98	1917.51
631.18	1927.75
631.38	1920.99
631.57	2036.70
631.77	1767.60
631.97	1945.57
632.16	1938.40
632.36	1917.92
632.56	1930.42
632.75	1941.88
632.95	2027.28
633.14	1802.42
633.34	2075.00
633.54	1724.39
633.73	1876.35
633.93	1850.13
634.12	1749.17
634.32	2249.69
634.52	1935.13
634.71	1800.57
634.91	1987.76
635.11	1783.58
635.30	1868.36
635.50	1936.56
635.69	1813.68
635.89	2145.25
636.09	2030.77
636.28	1789.52
636.48	1851.77
636.67	2022.98
636.87	2001.89
637.07	1955.40
637.26	1857.10
637.46	1968.51
637.65	2047.35
637.85	1923.45
638.04	1856.07
638.24	1900.31
638.44	1998.00
638.63	1907.07
638.83	1883.52
639.02	1985.71
639.22	1989.19
639.42	1902.36
639.61	1908.91
639.81	1935.74
640.00	1893.55
640.20	1997.18
640.39	1981.41
640.59	2203.82
640.79	2078.28
640.98	2036.50
641.18	1980.18
641.37	2010.90
641.57	1959.29
641.76	1975.68
641.96	1797.50
642.15	1988.99
642.35	1892.53
642.55	1940.04
642.74	1807.13
642.94	2056.98
643.13	2122.31
643.33	1905.02
643.52	1838.26
643.72	1882.49
643.91	1956.63
644.11	1881.26
644.31	1831.09
644.50	1864.27
644.70	2086.68
644.89	1917.10
645.09	1992.06
645.28	1944.34
645.48	2006.39
645.67	1836.21
645.87	1769.85
646.06	1873.07
646.26	1990.01
646.45	1683.84
646.65	1677.49
646.84	2171.26
647.04	1882.29
647.24	1803.24
647.43	1918.74
647.63	1940.86
647.82	2120.06
648.02	1775.38
648.21	1830.68
648.41	2076.23
648.60	1892.94
648.80	1999.02
648.99	1946.18
649.19	1878.60
649.38	1767.40
649.58	1935.13
649.77	1942.29
649.97	2079.10
650.16	2018.48
650.36	1722.55
650.55	2018.89
650.75	1990.01
650.94	2147.09
651.14	1893.76
651.33	1983.46
651.53	2154.46
651.72	1867.34
651.92	1911.78
652.11	1734.02
652.31	1998.20
652.50	2004.96
652.70	1958.88
652.89	1795.04
653.09	2131.94
653.28	1899.08
653.48	1735.65
653.67	1752.24
653.87	2335.91
654.06	1942.09
654.25	2068.65
654.45	1868.98
654.64	1881.47
654.84	1901.33
655.03	1702.07
655.23	2012.95
655.42	2026.87
655.62	2171.87
655.81	1946.18
656.01	1840.51
656.20	2042.85
656.40	2147.91
656.59	1902.56
656.79	2071.11
656.98	1990.01
657.17	2054.11
657.37	1937.17
657.56	1846.45
657.76	1988.99
657.95	2088.52
658.15	1600.49
658.34	1908.71
658.54	1933.08
658.73	1805.49
658.92	1871.43
659.12	1930.82
659.31	2016.23
659.51	1826.58
659.70	2002.91
659.90	1891.91
660.09	2062.71
660.29	1939.84
660.48	1846.24
660.67	2063.74
660.87	1876.14
661.06	1972.40
661.26	2014.59
661.45	2003.73
661.65	1999.43
661.84	1865.09
662.03	1864.68
662.23	1865.09
662.42	2179.04
662.62	1791.15
662.81	1827.20
663.00	1892.12
663.20	1966.46
663.39	2032.20
663.59	2045.72
663.78	1941.27
663.97	1955.81
664.17	2080.33
664.36	1803.85
664.56	1881.88
664.75	2057.59
664.94	2050.22
665.14	1965.03
665.33	1920.38
665.53	1959.91
665.72	1939.84
665.91	2014.79
666.11	1936.56
666.30	1965.44
666.50	1929.19
666.69	1992.88
666.88	1951.30
667.08	2007.83
667.27	1970.15
667.47	2011.72
667.66	1947.41
667.85	2123.13
668.05	1997.59
668.24	1883.93
668.43	2109.41
668.63	1918.54
668.82	2108.59
669.02	2020.94
669.21	1933.90
669.40	1806.10
669.60	2182.32
669.79	1784.80
669.98	2358.24
670.18	1822.49
670.37	1762.07
670.56	1889.25
670.76	1930.62
670.95	1892.32
671.15	2025.65
671.34	1973.83
671.53	1905.43
671.73	1857.10
671.92	1840.10
672.11	1782.14
672.31	1873.07
672.50	1975.27
672.69	1802.01
672.89	1682.00
673.08	1861.81
673.27	2013.77
673.47	1938.61
673.66	1963.18
673.85	1803.85
674.05	1967.48
674.24	2028.10
674.43	1964.21
674.63	2172.69
674.82	2421.72
675.01	1937.38
675.21	2175.15
675.40	2034.25
675.59	1991.24
675.79	2235.56
675.98	1960.11
676.17	2081.35
676.37	2065.58
676.56	1941.27
676.75	1971.37
676.95	1940.04
677.14	1904.41
677.33	2050.84
677.52	1822.28
677.72	1876.55
677.91	1959.09
678.10	1774.56
678.30	1796.89
678.49	1795.04
678.68	2172.69
678.88	1701.45
679.07	2034.45
679.26	1847.88
679.45	2141.56
679.65	2061.08
679.84	1694.28
680.03	1729.30
680.23	1882.70
680.42	2232.49
680.61	1774.16
680.81	1844.40
681.00	1899.49
681.19	1961.95
681.38	1988.37
681.58	1959.91
681.77	1867.13
681.96	2002.91
682.15	1849.11
682.35	1909.53
682.54	1991.44
682.73	1802.42
682.93	1829.66
683.12	1818.80
683.31	1992.06
683.50	2287.17
683.70	1826.58
683.89	1926.52
684.08	1785.42
684.27	2009.47
684.47	1747.94
684.66	1908.50
684.85	2158.35
685.04	2062.71
685.24	1843.79
685.43	1900.72
685.62	1727.46
685.81	1973.83
686.01	1984.07
686.20	1956.63
686.39	1897.44
686.58	2364.99
686.78	2124.77
686.97	2129.68
687.16	2176.17
687.35	2061.49
687.55	1955.81
687.74	1967.07
687.93	1873.48
688.12	1972.60
688.32	1950.90
688.51	1816.96
688.70	1982.02
688.89	1810.40
689.08	1762.89
689.28	1821.26
689.47	1918.74
689.66	1933.90
689.85	1986.73
690.05	1868.57
690.24	1840.92
690.43	1952.94
690.62	1923.25
690.81	1850.75
691.01	1918.95
691.20	1899.29
691.39	1814.30
691.58	1946.18
691.77	2153.03
691.97	1924.48
692.16	1947.00
692.35	1883.72
692.54	1853.62
692.73	1979.16
692.93	1960.32
693.12	1971.58
693.31	2027.28
693.50	1997.38
693.69	2055.55
693.89	1910.96
694.08	2122.72
694.27	2130.09
694.46	1849.52
694.65	1934.31
694.85	2028.72
695.04	2027.49
695.23	2038.34
695.42	2861.63
695.61	3563.67
695.80	4072.39
696.00	4554.89
696.19	4808.43
696.38	4243.80
696.57	3684.91
696.76	3602.17
696.95	3338.39
697.15	3355.19
697.34	3167.59
697.53	2803.26
697.72	2726.05
697.91	2463.09
698.10	2576.34
698.30	2179.24
698.49	2078.48
698.68	2000.66
698.87	1933.90
699.06	1837.44
699.25	1930.62
699.45	2065.99
699.64	1944.14
699.83	2001.68
700.02	1801.60
700.21	1961.13
700.40	1857.92
700.59	1855.46
700.79	1850.75
700.98	1982.02
701.17	1815.11
701.36	1832.73
701.55	1815.32
701.74	2068.45
701.93	1826.58
702.12	1992.26
702.32	1949.87
702.51	2201.57
702.70	2164.09
702.89	2030.56
703.08	1922.84
703.27	2132.75
703.46	2050.63
703.65	1925.30
703.85	1836.00
704.04	1896.42
704.23	2090.77
704.42	1840.30
704.61	1869.59
704.80	2116.17
704.99	1839.90
705.18	1955.61
705.37	1972.19
705.57	2559.14
705.76	3395.94
705.95	3562.24
706.14	4218.20
706.33	4521.71
706.52	4500.00
706.71	3597.46
706.90	3301.94
707.09	3284.12
707.28	3089.98
707.47	2825.17
707.67	2841.15
707.86	2613.00
708.05	2670.14
708.24	2343.70
708.43	2236.18
708.62	2101.63
708.81	1942.09
709.00	1863.04
709.19	1857.30
709.38	2020.53
709.57	1808.56
709.76	1945.37
709.96	1873.48
710.15	2108.38
710.34	1917.72
710.53	1993.90
710.72	1923.45
710.91	2050.84
711.10	1999.64
711.29	1986.94
711.48	1833.55
711.67	1804.47
711.86	1955.40
712.05	1792.79
712.24	1822.49
712.43	1971.78
712.62	2083.60
712.81	1905.23
713.00	2031.59
713.19	1782.96
713.39	1965.85
713.58	1851.16
713.77	2018.27
713.96	2151.80
714.15	2106.34
714.34	2085.04
714.53	1979.36
714.72	2314.00
714.91	1961.54
715.10	2031.79
715.29	1889.05
715.48	2397.97
715.67	2082.37
715.86	1971.78
716.05	1940.04
716.24	1926.32
716.43	1898.88
716.62	1810.40
716.81	1773.34
717.00	1863.86
717.19	2093.23
717.38	1896.62
717.57	1852.80
717.76	1732.79
717.95	2018.68
718.14	1902.97
718.33	1888.02
718.52	1705.34
718.71	1722.34
718.90	1740.98
719.09	1842.56
719.28	1879.22
719.47	2042.85
719.66	1996.36
719.85	1986.73
720.04	1872.05
720.23	1977.72
720.42	1863.24
720.61	1982.23
720.80	1765.96
720.99	1970.35
721.18	1884.13
721.37	1812.86
721.56	1871.43
721.75	2030.97
721.94	1814.91
722.13	1877.17
722.32	1874.30
722.51	2013.56
722.70	1887.00
722.89	1951.51
723.08	1912.39
723.27	2063.12
723.46	1908.71
723.65	1865.09
723.84	1837.03
724.03	2087.49
724.22	1774.56
724.41	1930.42
724.60	1836.41
724.79	2003.12
724.98	1960.73
725.16	1863.04
725.35	1995.54
725.54	1790.33
725.73	1918.54
725.92	1921.81
726.11	2041.62
726.30	2348.00
726.49	2231.88
726.68	2432.17
726.87	2576.34
727.06	2666.05
727.25	2283.08
727.44	2324.85
727.63	2242.32
727.82	2159.38
728.01	2178.22
728.20	2181.91
728.38	2282.26
728.57	2066.40
728.76	2044.08
728.95	2108.18
729.14	1863.04
729.33	1844.81
729.52	1718.04
729.71	1842.35
729.90	1806.10
730.09	1861.81
730.28	1912.60
730.47	1855.66
730.66	2089.34
730.84	2000.05
731.03	1946.18
731.22	1990.83
731.41	1962.36
731.60	2001.68
731.79	1762.89
731.98	1849.73
732.17	2013.15
732.36	2001.07
732.55	1855.46
732.73	1791.77
732.92	2099.17
733.11	1987.35
733.30	1893.14
733.49	1773.95
733.68	2002.50
733.87	1974.04
734.06	1862.42
734.25	1852.39
734.43	1897.24
734.62	2036.70
734.81	1945.78
735.00	1958.68
735.19	1935.74
735.38	2021.96
735.57	1813.48
735.76	1991.24
735.94	2037.32
736.13	2321.99
736.32	2156.10
736.51	2130.91
736.70	2388.75
736.89	2444.46
737.08	2567.95
737.27	3499.77
737.45	4862.90
737.64	5351.75
737.83	6155.17
738.02	6469.33
738.21	6168.07
738.40	5105.38
738.59	4591.55
738.77	4385.11
738.96	4065.42
739.15	3911.83
739.34	3736.31
739.53	3412.12
739.72	3374.85
739.90	3079.53
740.09	2623.86
740.28	2509.58
740.47	2388.14
740.66	2231.06
740.85	1992.26
741.03	1987.35
741.22	1883.72
741.41	1924.48
741.60	1791.77
741.79	1970.56
741.98	2100.60
742.16	2164.09
742.35	1988.99
742.54	1935.74
742.73	2252.56
742.92	1960.73
743.10	1869.18
743.29	1942.09
743.48	2331.20
743.67	1911.78
743.86	1799.75
744.05	1835.39
744.23	1853.62
744.42	1882.08
744.61	1913.21
744.80	1821.05
744.99	1880.24
745.17	1732.38
745.36	1799.96
745.55	1985.71
745.74	1974.04
745.93	1903.38
746.11	1887.20
746.30	1880.24
746.49	2092.61
746.68	1874.51
746.86	1935.94
747.05	1941.47
747.24	2042.64
747.43	2069.06
747.62	1828.22
747.80	1886.59
747.99	2149.55
748.18	2093.84
748.37	2027.08
748.56	2047.35
748.74	2116.58
748.93	2123.95
749.12	2880.26
749.31	5219.86
749.49	7261.07
749.68	8481.25
749.87	9847.04
750.06	10319.92
750.24	9822.47
750.43	9471.24
750.62	10285.72
750.81	10564.45
750.99	10986.53
751.18	10763.30
751.37	9122.06
751.56	7704.25
751.74	7584.45
751.93	6960.23
752.12	5709.33
752.31	5095.76
752.49	4526.63
752.68	4255.47
752.87	3663.20
753.06	3200.77
753.24	2926.55
753.43	2762.51
753.62	2324.85
753.81	2138.49
753.99	2309.90
754.18	2141.15
754.37	1902.77
754.55	1993.29
754.74	2205.66
754.93	1760.84
755.12	1890.48
755.30	1863.45
755.49	2085.86
755.68	1972.19
755.86	1979.57
756.05	1807.95
756.24	2141.56
756.43	1816.96
756.61	1830.88
756.80	1971.99
756.99	2117.39
757.17	1939.84
757.36	1856.07
757.55	1925.50
757.74	1996.77
757.92	1948.44
758.11	1811.02
758.30	1765.35
758.48	1915.06
758.67	1841.12
758.86	1945.78
759.04	1841.74
759.23	1938.40
759.42	1976.70
759.60	1905.84
759.79	1953.76
759.98	1916.08
760.16	1860.99
760.35	1873.28
760.54	1812.25
760.73	1964.62
760.91	1782.14
761.10	1982.64
761.29	1934.92
761.47	1922.63
761.66	2263.82
761.85	1996.77
762.03	2215.49
762.22	3482.37
762.41	7608.00
762.59	12320.78
762.78	14765.04
762.97	17793.57
763.15	18851.96
763.34	17219.12
763.52	12782.19
763.71	11872.07
763.90	10876.35
764.08	10173.49
764.27	9421.89
764.46	8763.26
764.64	7656.74
764.83	6936.67
765.02	6148.82
765.20	5409.71
765.39	4511.88
765.58	3528.24
765.76	3060.07
765.95	2652.53
766.13	2375.23
766.32	2157.94
766.51	2082.37
766.69	2583.10
766.88	2070.91
767.07	1874.10
767.25	1741.39
767.44	2082.99
767.62	2098.55
767.81	1878.40
768.00	1937.58
768.18	1961.75
768.37	1855.87
768.56	1740.98
768.74	1867.34
768.93	1769.65
769.11	1979.57
769.30	1902.97
769.49	1856.07
769.67	1891.50
769.86	1859.56
770.04	1877.17
770.23	1861.19
770.42	2076.44
770.60	1903.79
770.79	1832.11
770.97	1919.56
771.16	2549.72
771.35	3548.52
771.53	4518.84
771.72	5081.83
771.90	5883.20
772.09	6292.79
772.27	5580.51
772.46	4493.04
772.65	4555.30
772.83	4208.78
773.02	4012.99
773.20	3687.16
773.39	3608.52
773.58	3379.56
773.76	2965.66
773.95	2899.31
774.13	2786.06
774.32	2467.80
774.50	2235.36
774.69	2201.36
774.87	2045.72
775.06	2310.31
775.25	1900.51
775.43	1914.65
775.62	2002.30
775.80	2004.14
775.99	1949.46
776.17	1849.11
776.36	1941.06
776.54	2083.81
776.73	1852.39
776.92	1954.79
777.10	2063.33
777.29	1988.17
777.47	1839.49
777.66	1841.94
777.84	1925.50
778.03	1914.03
778.21	1832.11
778.40	1901.95
778.58	1956.01
778.77	2039.16
778.95	1750.40
779.14	1830.88
779.32	2137.26
779.51	2019.09
779.70	1851.77
779.88	1748.15
780.07	1863.65
780.25	2239.04
780.44	1844.40
780.62	2010.70
780.81	1977.31
780.99	1944.34
781.18	1832.32
781.36	1867.75
781.55	1890.48
781.73	2095.48
781.92	1794.64
782.10	1755.72
782.29	1955.61
782.47	2105.72
782.66	1882.49
782.84	1756.13
783.03	1844.20
783.21	2066.40
783.40	1859.97
783.58	1874.51
783.77	1840.71
783.95	1892.32
784.14	1793.82
784.32	1900.52
784.51	2086.68
784.69	1817.57
784.88	1742.82
785.06	1868.98
785.24	1737.09
785.43	1999.02
785.61	1961.95
785.80	1797.91
785.98	1973.63
786.17	1909.53
786.35	1823.31
786.54	1925.71
786.72	2007.62
786.91	2058.21
787.09	1882.90
787.28	1784.80
787.46	1955.20
787.65	2042.03
787.83	1795.45
788.01	1944.96
788.20	1811.63
788.38	1932.46
788.57	1849.52
788.75	1891.30
788.94	2158.97
789.12	2071.32
789.31	1927.14
789.49	1982.64
789.67	1910.35
789.86	1975.06
790.04	1799.55
790.23	1733.81
790.41	2214.26
790.60	1897.85
790.78	1889.46
790.96	1901.33
791.15	2003.73
791.33	1886.79
791.52	1887.20
791.70	1805.28
791.89	1917.92
792.07	2030.15
792.25	1909.12
792.44	1768.42
792.62	2042.23
792.81	1883.11
792.99	1934.10
793.17	1874.51
793.36	1901.95
793.54	2476.61
793.73	3181.93
793.91	4118.87
794.10	4822.35
794.28	5523.78
794.46	5577.85
794.65	5454.56
794.83	4413.37
795.01	4162.50
795.20	4113.75
795.38	3859.40
795.57	3692.90
795.75	3548.72
795.93	3271.43
796.12	3114.96
796.30	3002.32
796.49	2901.15
796.67	2514.91
796.85	2533.54
797.04	2345.33
797.22	2301.10
797.40	1973.01
797.59	2057.80
797.77	2070.09
797.96	1906.04
798.14	1917.10
798.32	1916.69
798.51	2073.16
798.69	2227.37
798.87	1948.64
799.06	1938.81
799.24	1842.56
799.42	2375.85
799.61	2884.77
799.79	3339.01
799.98	3908.75
800.16	4102.90
800.34	5023.67
800.53	6124.45
800.71	6525.44
800.89	7440.68
801.08	7638.10
801.26	7590.59
801.44	6460.32
801.63	5422.82
801.81	5322.26
801.99	4912.05
802.18	4600.35
802.36	4393.71
802.54	4090.20
802.73	3626.95
802.91	3412.12
803.09	3195.65
803.28	2976.93
803.46	2787.90
803.64	2738.75
803.83	2218.77
804.01	2086.27
804.19	1979.57
804.38	2153.64
804.56	2111.05
804.74	1966.87
804.92	1995.54
805.11	1862.63
805.29	2118.21
805.47	1896.83
805.66	1815.32
805.84	1805.90
806.02	2098.14
806.21	1875.32
806.39	2046.33
806.57	2075.21
806.76	2091.59
806.94	1984.48
807.12	1906.45
807.30	1927.75
807.49	2029.95
807.67	2029.33
807.85	2107.16
808.04	2104.49
808.22	2279.39
808.40	1849.73
808.58	1841.94
808.77	2039.57
808.95	2263.82
809.13	2494.84
809.31	4107.61
809.50	5741.48
809.68	6632.76
809.86	7371.87
810.05	7994.04
810.23	9206.85
810.41	13316.51
810.59	22363.82
810.78	27873.88
810.96	32758.28
811.14	35637.93
811.32	35113.45
811.51	28206.47
811.69	22331.46
811.87	22166.19
812.05	19253.16
812.24	18094.01
812.42	16714.29
812.60	14902.04
812.78	12684.71
812.97	10861.20
813.15	9686.89
813.33	8260.69
813.51	7155.60
813.70	5759.30
813.88	4640.90
814.06	3837.69
814.24	3178.24
814.42	2591.50
814.61	2457.97
814.79	2494.02
814.97	2036.30
815.15	2065.58
815.34	2123.74
815.52	2139.31
815.70	1883.93
815.88	1946.59
816.06	1874.71
816.25	1909.53
816.43	1841.33
816.61	2007.83
816.79	2103.88
816.98	1775.79
817.16	1843.79
817.34	1787.06
817.52	1975.47
817.70	2093.02
817.89	1864.27
818.07	1770.47
818.25	1899.70
818.43	1931.44
818.61	1867.13
818.80	1853.41
818.98	2120.67
819.16	1933.08
819.34	1765.35
819.52	2104.49
819.70	1807.95
819.89	1894.17
820.07	1722.14
820.25	1747.33
820.43	1928.16
820.61	1992.88
820.80	1883.11
820.98	1785.83
821.16	1717.43
821.34	1782.96
821.52	1845.83
821.70	1921.81
821.89	1911.78
822.07	1870.82
822.25	1857.51
822.43	1774.36
822.61	2085.45
822.79	1914.03
822.98	1852.18
823.16	1694.90
823.34	1946.80
823.52	2061.89
823.70	1961.75
823.88	1733.61
824.06	1968.51
824.25	1895.40
824.43	1992.67
824.61	1777.23
824.79	1888.43
824.97	1933.90
825.15	2053.09
825.33	2497.91
825.52	3152.85
825.70	3507.56
825.88	3729.97
826.06	4045.56
826.24	4130.55
826.42	3765.80
826.60	3294.98
826.78	3313.82
826.97	3022.19
827.15	3085.67
827.33	2745.10
827.51	2763.12
827.69	2560.78
827.87	2540.10
828.05	2479.68
828.23	2208.73
828.41	2368.48
828.60	2291.27
828.78	1948.44
828.96	2096.51
829.14	1921.61
829.32	1947.00
829.50	1885.97
829.68	1857.92
829.86	1881.06
830.04	1986.73
830.22	1890.28
830.41	1783.37
830.59	1894.17
830.77	1976.70
830.95	1829.66
831.13	1814.30
831.31	1822.69
831.49	1995.34
831.67	2010.49
831.85	1975.47
832.03	1864.68
832.21	1993.70
832.39	1754.49
832.57	1773.13
832.76	1998.41
832.94	1870.41
833.12	1702.48
833.30	1858.53
833.48	2041.82
833.66	1945.37
833.84	1803.85
834.02	1873.69
834.20	1996.97
834.38	1983.05
834.56	1709.23
834.74	1740.16
834.92	1748.76
835.10	2109.82
835.28	1907.89
835.46	1868.36
835.64	1880.44
835.82	1809.99
836.01	2077.05
836.19	1989.40
836.37	1859.15
836.55	1816.14
836.73	1805.69
836.91	1755.72
837.09	2002.09
837.27	2095.28
837.45	1749.58
837.63	1755.72
837.81	1754.70
837.99	1892.12
838.17	1839.49
838.35	1783.99
838.53	2206.07
838.71	1986.12
838.89	1832.11
839.07	1831.91
839.25	1936.56
839.43	2067.01
839.61	2181.70
839.79	3373.41
839.97	4591.96
840.15	5266.35
840.33	5826.27
840.51	6323.51
840.69	6059.73
840.87	5076.10
841.05	4620.01
841.23	4888.50
841.41	6112.78
841.59	8422.48
841.77	9477.59
841.95	10301.69
842.13	11128.66
842.31	10653.33
842.49	8587.34
842.67	7312.68
842.85	7178.13
843.03	6246.92
843.21	5971.26
843.39	5596.07
843.57	5043.74
843.75	4605.88
843.93	4044.94
844.11	3656.65
844.29	3428.71
844.47	3128.68
844.65	3077.48
844.83	2736.91
845.01	2490.13
845.19	2477.43
845.36	2170.03
845.54	2138.49
845.72	2021.14
845.90	2071.32
846.08	1798.53
846.26	1898.26
846.44	1998.61
846.62	1981.61
846.80	1906.86
846.98	1811.63
847.16	1895.60
847.34	1938.81
847.52	1755.11
847.70	1768.22
847.88	1875.73
848.06	2071.11
848.24	1904.61
848.41	1730.53
848.59	2051.04
848.77	1944.14
848.95	1814.91
849.13	1809.59
849.31	1971.58
849.49	1941.06
849.67	1754.29
849.85	1760.23
850.03	1954.38
850.21	1922.84
850.39	1801.60
850.57	1923.04
850.74	2061.49
850.92	2177.61
851.10	2348.41
851.28	2826.61
851.46	3258.93
851.64	3718.70
851.82	3561.83
852.00	3592.14
852.18	3446.94
852.36	3061.10
852.53	2893.78
852.71	2818.82
852.89	2781.76
853.07	2707.01
853.25	2446.71
853.43	2307.45
853.61	2377.69
853.79	2323.83
853.97	2101.83
854.14	2034.66
854.32	2257.48
854.50	2186.21
854.68	1967.07
854.86	1921.81
855.04	1873.69
855.22	1993.49
855.40	1765.35
855.57	1831.91
855.75	1983.05
855.93	1949.87
856.11	1686.50
856.29	1783.58
856.47	1800.16
856.65	1924.27
856.82	1778.66
857.00	1718.66
857.18	1881.06
857.36	1830.47
857.54	1864.06
857.72	1967.69
857.89	1961.75
858.07	1917.72
858.25	1975.06
858.43	1743.64
858.61	1838.46
858.79	1891.09
858.97	1783.99
859.14	1907.48
859.32	1889.46
859.50	1868.77
859.68	1892.53
859.86	1780.30
860.03	1890.89
860.21	1965.64
860.39	1791.97
860.57	1914.24
860.75	1945.37
860.93	2107.36
861.10	1976.70
861.28	1782.76
861.46	1937.99
861.64	1941.47
861.82	1849.73
861.99	1927.34
862.17	2008.44
862.35	2019.50
862.53	1867.54
862.71	1863.45
862.88	1924.07
863.06	1959.91
863.24	1825.76
863.42	1786.65
863.60	1860.37
863.77	1952.33
863.95	1685.27
864.13	1854.44
864.31	1858.94
864.49	1985.92
864.66	1735.86
864.84	1831.70
865.02	1919.56
865.20	2241.09
865.37	1901.54
865.55	1803.85
865.73	1795.66
865.91	2140.74
866.09	2097.12
866.26	2089.95
866.44	2224.71
866.62	2142.18
866.80	1987.55
866.97	2025.03
867.15	2023.39
867.33	2059.64
867.51	2035.89
867.68	1985.71
867.86	1952.33
868.04	1892.32
868.22	1745.69
868.39	1866.11
868.57	1964.41
868.75	2080.33
868.93	1724.80
869.10	1812.04
869.28	2161.22
869.46	2069.27
869.64	1850.75
869.81	1852.18
869.99	1911.16
870.17	1926.52
870.35	1793.41
870.52	1772.93
870.70	2014.79
870.88	1809.99
871.05	1732.17
871.23	1638.78
871.41	1862.83
871.59	1880.24
871.76	1822.69
871.94	1764.73
872.12	1888.84
872.29	1708.62
872.47	1810.20
872.65	1754.70
872.83	1881.47
873.00	2053.91
873.18	1825.15
873.36	1785.83
873.53	1951.51
873.71	1706.16
873.89	1776.61
874.06	1877.17
874.24	1917.51
874.42	2043.26
874.60	1932.67
874.77	1877.78
874.95	1807.95
875.13	2029.95
875.30	1798.12
875.48	1811.43
875.66	2049.61
875.83	1779.07
876.01	1838.46
876.19	1953.97
876.36	1747.53
876.54	1879.22
876.72	1755.11
876.89	1923.04
877.07	1947.00
877.25	1688.55
877.42	1889.25
877.60	1824.74
877.78	2142.99
877.95	1821.67
878.13	1798.94
878.31	1906.86
878.48	1989.81
878.66	1958.88
878.84	1811.63
879.01	1842.97
879.19	1917.10
879.37	1949.46
879.54	1807.95
879.72	1714.35
879.90	1641.24
880.07	1948.44
880.25	1608.68
880.42	1947.82
880.60	1880.85
880.78	1951.30
880.95	1793.61
881.13	1842.56
881.31	1880.44
881.48	1806.31
881.66	1784.80
881.83	1886.59
882.01	1795.66
882.19	1743.64
882.36	1854.23
882.54	1841.12
882.72	1957.65
882.89	1918.54
883.07	1748.15
883.24	1823.10
883.42	1978.34
883.60	1872.66
883.77	1733.81
883.95	1800.16
884.12	1983.05
884.30	1897.24
884.48	1942.29
884.65	1837.64
884.83	1893.96
885.00	1899.29
885.18	1735.86
885.36	1799.35
885.53	1945.57
885.71	2047.35
885.88	1739.75
886.06	1811.43
886.23	1943.73
886.41	1829.04
886.59	1786.24
886.76	1774.56
886.94	1964.82
887.11	2228.39
887.29	1843.99
887.47	1722.75
887.64	2011.51
887.82	2041.42
887.99	1687.73
888.17	1873.69
888.34	1850.34
888.52	1741.80
888.69	1867.95
888.87	1785.62
889.05	1839.49
889.22	1818.60
889.40	1814.30
889.57	1952.33
889.75	2099.58
889.92	1845.02
890.10	1743.44
890.27	1815.32
890.45	1810.20
890.62	1685.07
890.80	1754.49
890.98	1697.56
891.15	2085.45
891.33	1995.95
891.50	1794.64
891.68	1727.26
891.85	1975.06
892.03	1940.45
892.20	1783.17
892.38	1746.92
892.55	1977.93
892.73	1982.43
892.90	1749.99
893.08	1778.87
893.25	1789.92
893.43	1826.79
893.60	1916.49
893.78	1654.55
893.95	1908.30
894.13	1859.35
894.30	1750.40
894.48	1843.17
894.65	1983.66
894.83	1898.06
895.00	1669.91
895.18	1658.24
895.35	2002.30
895.53	1943.32
895.70	1712.72
895.88	1889.87
896.05	1946.59
896.23	1722.34
896.40	1789.11
896.58	1857.10
896.75	1969.33
896.93	2055.96
897.10	1782.76
897.28	1734.22
897.45	1911.78
897.63	1963.59
897.80	1930.82
897.98	1814.30
898.15	1926.73
898.33	1806.51
898.50	1854.23
898.67	1852.80
898.85	1860.37
899.02	1920.79
899.20	1976.29
899.37	1790.95
899.55	1883.93
899.72	2055.55
899.90	1774.56
900.07	1773.75
900.25	1932.05
900.42	2040.39
900.59	1762.07
900.77	1912.80
900.94	1959.29
901.12	1925.50
901.29	1776.41
901.47	1927.96
901.64	1942.50
901.82	1871.02
901.99	1634.69
902.16	1768.83
902.34	2017.04
902.51	1930.62
902.69	1799.75
902.86	1857.92
903.03	2334.68
903.21	1889.25
903.38	1849.73
903.56	1786.65
903.73	2016.84
903.91	1829.86
904.08	1723.98
904.25	1654.35
904.43	1798.94
904.60	1985.92
904.78	1797.50
904.95	1712.72
905.12	1849.11
905.30	2063.53
905.47	1904.20
905.65	1937.38
905.82	1863.24
905.99	1947.82
906.17	1842.15
906.34	1779.89
906.52	1772.31
906.69	1941.88
906.86	1936.76
907.04	1868.57
907.21	1992.67
907.38	1997.18
907.56	1793.00
907.73	1766.99
907.91	2053.50
908.08	2018.89
908.25	1781.94
908.43	1754.29
908.60	1965.03
908.77	1900.11
908.95	1820.64
909.12	1760.02
909.30	1939.43
909.47	1696.54
909.64	1847.88
909.82	1955.81
909.99	1857.10
910.16	1899.29
910.34	1772.31
910.51	1808.36
910.68	1915.06
910.86	1897.65
911.03	1864.27
911.20	2250.92
911.38	3473.15
911.55	5129.34
911.72	5950.78
911.90	6415.47
912.07	7004.46
912.24	6893.05
912.42	5397.63
912.59	4079.96
912.76	3930.87
912.94	3417.24
913.11	3087.52
913.28	2828.86
913.46	2679.97
913.63	2704.75
913.80	2812.27
913.98	2464.94
914.15	2609.93
914.32	2588.22
914.49	2376.67
914.67	2251.13
914.84	2410.05
915.01	2425.41
915.19	2304.17
915.36	2141.36
915.53	2279.18
915.71	2150.78
915.88	2057.59
916.05	1858.53
916.22	2075.62
916.40	1964.82
916.57	1773.54
916.74	1909.12
916.92	2080.53
917.09	1778.66
917.26	1760.64
917.43	1739.75
917.61	1845.63
917.78	1710.46
917.95	1675.03
918.13	1741.18
918.30	2175.15
918.47	1902.15
918.64	1750.40
918.82	1752.65
918.99	1875.94
919.16	2086.27
919.33	1860.99
919.51	1787.26
919.68	1852.80
919.85	2030.77
920.02	1704.73
920.20	1816.14
920.37	2060.26
920.54	1973.42
920.71	1767.19
920.89	1816.96
921.06	2109.41
921.23	1795.45
921.40	1835.39
921.58	2198.49
921.75	2859.99
921.92	2471.08
922.09	2611.16
922.27	2638.40
922.44	2594.37
922.61	2416.81
922.78	2146.89
922.96	2088.52
923.13	2042.23
923.30	2164.70
923.47	1867.13
923.64	1926.11
923.82	2056.98
923.99	2010.70
924.16	2000.05
924.33	1850.75
924.50	1953.76
924.68	2145.25
924.85	1806.92
925.02	1862.63
925.19	2039.57
925.36	1968.30
925.54	1921.61
925.71	1885.56
925.88	2318.10
926.05	1851.36
926.22	1774.77
926.40	1866.93
926.57	1936.76
926.74	1944.34
926.91	1765.96
927.08	1985.10
927.26	2005.17
927.43	1894.37
927.60	1741.80
927.77	1804.47
927.94	2079.92
928.11	2025.44
928.29	1721.73
928.46	1843.38
928.63	1780.09
928.80	1834.98
928.97	1918.74
929.14	1795.04
929.32	2180.06
929.49	1877.58
929.66	1756.95
929.83	1712.31
930.00	1816.14
930.17	1923.86
930.35	1721.52
930.52	1753.06
930.69	2070.29
930.86	1753.68
931.03	1873.07
931.20	1656.60
931.37	1999.23
931.55	1841.33
931.72	1884.13
931.89	1674.01
932.06	1768.42
932.23	2099.37
932.40	1889.46
932.57	1893.55
932.74	2024.83
932.92	2034.66
933.09	1915.87
933.26	1551.13
933.43	1802.01
933.60	1899.29
933.77	1826.38
933.94	1852.39
934.11	1860.99
934.29	1867.34
934.46	1734.22
934.63	1885.56
934.80	1757.16
934.97	1896.62
935.14	1842.35
935.31	1717.22
935.48	1796.89
935.65	1922.43
935.82	1874.51
936.00	1719.27
936.17	2072.34
936.34	1871.23
936.51	1909.53
936.68	1723.98
936.85	1914.85
937.02	1884.75
937.19	1880.04
937.36	1820.23
937.53	1922.43
937.70	1976.49
937.87	1823.92
938.05	1905.43
938.22	1898.47
938.39	1756.95
938.56	1822.08
938.73	1745.69
938.90	1839.90
939.07	1794.84
939.24	1845.02
939.41	1656.60
939.58	1897.65
939.75	1942.29
939.92	1743.44
940.09	1936.97
940.26	1823.10
940.43	1985.30
940.60	1765.96
940.77	1797.50
940.95	1898.06
941.12	1977.31
941.29	1800.98
941.46	1824.94
941.63	2010.70
941.80	2072.95
941.97	1681.59
942.14	1697.97
942.31	1955.20
942.48	1858.94
942.65	1873.69
942.82	1816.96
942.99	1969.33
943.16	1894.58
943.33	1744.46
943.50	1774.36
943.67	1959.70
943.84	1997.59
944.01	1773.95
944.18	1737.50
944.35	2053.50
944.52	1757.57
944.69	1855.66
944.86	1667.66
945.03	1952.33
945.20	2183.54
945.37	1653.53
945.54	1812.86
945.71	2039.57
945.88	2091.39
946.05	1704.11
946.22	1724.18
946.39	2045.92
946.56	1844.61
946.73	1704.32
946.90	1746.51
947.07	1813.48
947.24	1851.36
947.41	1635.92
947.58	1894.37
947.75	1956.83
947.92	1919.56
948.09	1599.26
948.26	1678.31
948.43	1889.25
948.60	2119.65
948.77	1748.56
948.94	1790.74
949.11	1966.87
949.27	1908.30
949.44	1746.51
949.61	1767.19
949.78	1915.26
949.95	2007.62
950.12	1729.71
950.29	1690.19
950.46	1819.01
950.63	1998.61
950.80	1760.84
950.97	1819.42
951.14	2010.90
951.31	1850.34
951.48	1751.83
951.65	1731.97
951.82	2069.47
951.99	1902.77
952.15	1698.18
952.32	1793.20
952.49	1842.15
952.66	1810.81
952.83	1755.93
953.00	1736.68
953.17	1891.71
953.34	1962.57
953.51	1842.76
953.68	1781.32
953.85	2015.00
954.02	2023.60
954.18	1795.25
954.35	1825.56
954.52	1794.43
954.69	1896.01
954.86	1664.38
955.03	1818.39
955.20	1967.28
955.37	1867.95
955.54	1769.85
955.71	1738.52
955.87	1926.32
956.04	2104.49
956.21	1785.62
956.38	1736.88
956.55	1908.09
956.72	2172.08
956.89	1825.35
957.06	1738.11
957.23	1813.48
957.39	2035.68
957.56	1788.29
957.73	1719.88
957.90	1641.65
958.07	2098.55
958.24	1837.23
958.41	1799.35
958.57	1941.68
958.74	1885.36
958.91	1720.91
959.08	1757.57
959.25	1953.35
959.42	1862.01
959.59	1824.54
959.75	1747.74
959.92	2031.18
960.09	2010.90
960.26	1735.04
960.43	1858.53
960.60	1908.30
960.76	1861.19
960.93	1706.16
961.10	1825.76
961.27	2024.21
961.44	1857.92
961.61	1704.52
961.77	1721.52
961.94	1918.74
962.11	1966.46
962.28	1786.03
962.45	1698.38
962.62	1851.98
962.78	1992.06
962.95	1732.38
963.12	1768.22
963.29	1952.33
963.46	2266.49
963.62	1851.57
963.79	1779.28
963.96	2198.49
964.13	1864.06
964.30	1859.76
964.46	1814.50
964.63	1770.67
964.80	2287.79
964.97	1756.54
965.14	2075.62
965.30	2189.28
965.47	2273.86
965.64	2189.28
965.81	2147.50
965.98	2321.17
966.14	2098.76
966.31	1905.43
966.48	1910.96
966.65	2163.88
966.81	2028.51
966.98	1893.76
967.15	1889.25
967.32	1949.67
967.49	1866.52
967.65	1737.29
967.82	1695.92
967.99	1925.09
968.16	1756.34
968.32	1987.55
968.49	1828.02
968.66	1906.04
968.83	2085.86
968.99	1881.26
969.16	1761.66
969.33	2103.06
969.50	1980.39
969.66	1900.72
969.83	2001.68
970.00	1995.34
970.17	1947.82
970.33	1821.46
970.50	1713.13
970.67	2079.10
970.84	2058.21
971.00	1720.70
971.17	1712.10
971.34	1945.16
971.50	1863.04
971.67	1894.37
971.84	1831.70
972.01	1731.97
972.17	1641.65
972.34	1724.39
972.51	1893.14
972.67	2018.68
972.84	1899.90
973.01	1740.57
973.18	1782.76
973.34	1978.95
973.51	1777.23
973.68	1772.72
973.84	1794.64
974.01	1854.44
974.18	2090.57
974.34	1833.75
974.51	1857.71
974.68	1799.14
974.85	2128.66
975.01	1901.54
975.18	1808.56
975.35	1899.70
975.51	1831.09
975.68	1674.42
975.85	1903.59
976.01	1820.85
976.18	2011.51
976.35	1791.97
976.51	1751.83
976.68	2096.71
976.85	2034.04
977.01	1837.85
977.18	1872.66
977.35	1936.76
977.51	1740.77
977.68	1638.38
977.85	1734.42
978.01	2013.97
978.18	1971.17
978.35	1841.33
978.51	1855.46
978.68	2021.96
978.85	2093.02
979.01	1778.87
979.18	1819.62
979.34	1846.65
979.51	1893.96
979.68	1749.99
979.84	1822.69
980.01	2205.25
980.18	1893.96
980.34	1761.25
980.51	1853.41
980.67	1994.72
980.84	1969.53
981.01	1805.49
981.17	1869.59
981.34	1668.07
981.51	1976.70
981.67	1753.88
981.84	1898.26
982.00	1953.76
982.17	1872.66
982.34	1677.29
982.50	1581.24
982.67	2073.77
982.83	1812.86
983.00	1703.30
983.17	1616.05
983.33	1987.35
983.50	1697.36
983.66	1713.54
983.83	1611.14
984.00	1827.20
984.16	1866.93
984.33	1618.51
984.49	1598.03
984.66	1769.85
984.83	1975.47
984.99	1657.63
985.16	1612.98
985.32	1961.95
985.49	1969.53
985.65	1734.83
985.82	1594.75
985.99	2065.58
986.15	1885.16
986.32	1702.68
986.48	1676.26
986.65	1823.10
986.81	1950.49
986.98	1616.67
987.14	1692.85
987.31	1859.97
987.48	1718.45
987.64	1549.49
987.81	1584.10
987.97	2134.19
988.14	1770.88
988.30	1604.79
988.47	1500.14
988.63	1896.42
988.80	1735.45
988.96	1699.61
989.13	1715.38
989.30	1848.09
989.46	1977.93
989.63	1612.57
989.79	1578.37
989.96	1844.81
990.12	2076.23
990.29	1670.32
990.45	1657.42
990.62	1872.05
990.78	2026.26
990.95	1756.54
991.11	1646.57
991.28	1811.43
991.44	1916.08
991.61	1528.19
991.77	1694.90
991.94	1873.07
992.10	2001.48
992.27	1695.51
992.43	1654.14
992.60	1914.85
992.76	1819.21
992.93	1796.27
993.09	1608.88
993.26	2006.39
993.42	2106.54
993.59	1653.33
993.75	1564.44
993.92	1769.85
994.08	1775.79
994.25	1700.22
994.41	1626.09
994.58	1962.77
994.74	2045.31
994.91	1598.85
995.07	1720.70
995.24	1844.81
995.40	1875.32
995.56	1783.99
995.73	1717.43
995.89	2086.27
996.06	1829.25
996.22	1643.90
996.39	1576.94
996.55	1837.85
996.72	1902.56
996.88	1578.78
997.05	1636.74
997.21	2139.72
997.37	1940.45
997.54	1729.30
997.70	1677.49
997.87	1928.16
998.03	1851.98
998.20	1568.74
998.36	1583.90
998.52	1953.97
998.69	1988.58
998.85	1571.00
999.02	1684.45
999.18	1968.10
999.35	1973.42
999.51	1677.29
999.67	1673.40
999.84	1742.21
1000.00	1953.97
1000.17	1731.97
1000.33	1619.94
1000.49	1807.54
1000.66	1833.96
1000.82	1641.04
1000.99	1699.61
1001.15	2025.44
1001.31	1847.68
1001.48	1646.57
1001.64	1712.92
1001.81	1825.35
1001.97	2104.90
1002.13	1626.09
1002.30	1676.26
1002.46	2016.43
1002.63	1807.95
1002.79	1722.14
1002.95	1626.09
1003.12	1967.07
1003.28	1934.31
1003.45	1623.22
1003.61	1597.01
1003.77	1897.85
1003.94	1738.52
1004.10	1642.47
1004.26	1715.38
1004.43	1944.55
1004.59	2072.54
1004.75	1630.39
1004.92	1623.02
1005.08	1792.59
1005.25	1922.43
1005.41	1646.16
1005.57	1710.26
1005.74	2009.67
1005.90	1818.19
1006.06	1738.93
1006.23	1648.41
1006.39	1927.34
1006.55	2206.48
1006.72	1770.67
1006.88	1583.69
1007.04	1770.26
1007.21	1831.09
1007.37	1647.18
1007.53	1661.11
1007.70	2040.60
1007.86	1965.64
1008.02	1702.68
1008.19	1631.21
1008.35	1892.73
1008.51	1781.32
1008.68	1688.96
1008.84	1589.43
1009.00	1772.72
1009.17	1997.18
1009.33	1789.92
1009.49	1691.83
1009.65	1779.68
1009.82	1914.65
1009.98	1711.90
1010.14	1573.86
1010.31	1963.39
1010.47	1947.00
1010.63	1709.03
1010.80	1697.36
1010.96	1937.79
1011.12	1818.80
1011.28	1664.18
1011.45	1630.18
1011.61	2222.25
1011.77	1769.65
1011.94	1625.27
1012.10	1571.20
1012.26	1755.11
1012.42	1812.66
1012.59	1711.69
1012.75	1706.16
1012.91	1879.42
1013.07	1979.36
1013.24	1598.85
1013.40	1612.98
1013.56	1907.27
1013.72	1846.86
1013.89	1701.04
1014.05	1712.51
1014.21	2083.81
1014.37	2187.23
1014.54	1689.57
1014.70	1614.21
1014.86	1840.30
1015.02	1722.14
1015.19	1660.90
1015.35	1578.57
1015.51	1840.51
1015.67	1805.28
1015.84	1632.03
1016.00	1648.00
1016.16	2009.06
1016.32	1950.28
1016.49	1624.65
1016.65	1621.79
1016.81	1858.74
1016.97	1910.55
1017.14	1752.45
1017.30	1659.47
1017.46	1805.90
1017.62	1897.65
1017.78	1677.70
1017.95	1621.38
1018.11	1989.40
1018.27	2146.27
1018.43	1770.06
1018.59	1707.60
1018.76	1967.28
1018.92	2207.51
1019.08	1636.12
1019.24	1646.77
1019.40	2031.38
1019.57	1897.65
1019.73	1740.77
1019.89	1650.25
1020.05	1924.48
1020.21	2125.79
1020.38	1627.73
1020.54	1806.72
1020.70	1972.60
1020.86	1969.74
1021.02	1670.73
1021.18	1653.12
1021.35	1805.69
1021.51	1937.99
1021.67	1784.40
1021.83	1675.03
1021.99	1880.65
1022.15	1932.05
1022.32	1738.52
1022.48	1696.13
1022.64	2065.17
1022.80	2062.10
1022.96	1710.26
1023.12	1607.86
1023.29	2002.71
1023.45	1916.08
1023.61	1651.48
1023.77	1804.67
1023.93	1878.40
1024.09	1796.68
1024.25	1629.16
1024.42	1584.51
1024.58	1825.76
1024.74	1927.14
1024.90	1645.54
1025.06	1723.98
1025.22	1822.08
1025.38	2071.11
1025.54	1597.42
1025.71	1748.15
1025.87	1969.12
1026.03	1940.04
1026.19	1615.23
1026.35	1788.49
1026.51	1929.80
1026.67	1864.88
1026.83	1715.79
1026.99	1728.08
1027.16	1935.54
1027.32	2009.67
1027.48	1688.35
1027.64	1629.77
1027.80	1939.22
1027.96	1888.02
1028.12	1664.18
1028.28	1641.65
1028.44	1911.78
1028.60	2066.40
1028.77	1766.99
1028.93	1712.10
1029.09	1808.15
1029.25	1748.56
1029.41	1694.08
1029.57	1767.81
1029.73	1891.71
1029.89	2065.38
1030.05	1765.76
1030.21	1724.59
1030.37	2152.62
1030.53	1936.15
1030.69	1662.95
1030.85	1616.05
1031.02	1753.47
1031.18	1893.55
1031.34	1688.76
1031.50	1739.14
1031.66	1765.14
1031.82	2064.56
1031.98	1691.01
1032.14	1635.30
1032.30	1766.37
1032.46	1963.80
1032.62	1784.19
1032.78	1637.56
1032.94	1805.28
1033.10	1819.83
1033.26	1710.26
1033.42	1754.90
1033.58	2159.58
1033.74	1822.08
1033.90	1644.93
1034.06	1820.23
1034.22	2149.34
1034.38	2005.37
1034.54	1680.97
1034.70	1698.18
1034.86	2096.71
>>>>>End Processed Spectral Data<<<<<
