SpectraSuite Data File
++++++++++++++++++++++++++++++++++++
Date: Thu Mar 30 16:04:01 PDT 2017
User: UCSD _CER
Dark Spectrum Present: No
Reference Spectrum Present: No
Number of Sampled Component Spectra: 1
Spectrometers: USB4C00073
Integration Time (usec): 250000 (USB4C00073)
Spectra Averaged: 10 (USB4C00073)
Boxcar Smoothing: 0 (USB4C00073)
Correct for Electrical Dark: No (USB4C00073)
Strobe/Lamp Enabled: No (USB4C00073)
Correct for Detector Non-linearity: No (USB4C00073)
Correct for Stray Light: No (USB4C00073)
Number of Pixels in Processed Spectrum: 3648
>>>>>Begin Processed Spectral Data<<<<<
345.37	1284.28
345.58	1284.28
345.80	1284.28
346.01	1269.33
346.22	1275.27
346.43	1982.23
346.65	1768.83
346.86	2133.16
347.07	2109.20
347.28	1800.37
347.50	1806.92
347.71	1917.31
347.92	1727.05
348.13	1805.90
348.35	1720.29
348.56	1922.02
348.77	1786.03
348.98	1804.67
349.20	1655.37
349.41	1905.02
349.62	1973.22
349.83	1835.39
350.05	1710.87
350.26	1950.08
350.47	2056.37
350.68	1792.18
350.90	1693.06
351.11	2094.87
351.32	2075.41
351.53	1814.91
351.75	1711.69
351.96	1948.64
352.17	1881.06
352.38	1849.52
352.60	1862.22
352.81	1923.25
353.02	2105.11
353.23	1766.58
353.44	1791.77
353.66	1841.74
353.87	1868.16
354.08	1884.13
354.29	1817.57
354.51	1835.80
354.72	1900.31
354.93	1781.73
355.14	1745.07
355.35	1711.49
355.57	2039.16
355.78	1820.23
355.99	1867.13
356.20	1924.68
356.42	1894.99
356.63	1882.90
356.84	1844.20
357.05	2005.99
357.26	2221.02
357.48	1897.65
357.69	1822.08
357.90	1951.51
358.11	1863.86
358.32	1799.96
358.54	1848.91
358.75	1854.03
358.96	1983.05
359.17	1770.47
359.38	1817.16
359.60	1988.58
359.81	1884.34
360.02	1796.48
360.23	1752.86
360.44	1838.05
360.66	2026.87
360.87	1745.69
361.08	1752.24
361.29	1941.68
361.50	1935.33
361.72	1783.99
361.93	1848.50
362.14	1934.10
362.35	1720.91
362.56	1884.95
362.77	1740.77
362.99	1970.15
363.20	1912.60
363.41	1863.65
363.62	1722.14
363.83	1983.66
364.05	2039.57
364.26	1704.93
364.47	1770.06
364.68	2046.13
364.89	1820.03
365.10	1720.09
365.32	1806.92
365.53	1824.13
365.74	1871.64
365.95	1802.62
366.16	1698.38
366.37	1904.20
366.59	1875.32
366.80	1798.53
367.01	1675.65
367.22	2174.94
367.43	2278.98
367.64	1818.19
367.86	1785.83
368.07	1942.50
368.28	2045.10
368.49	1740.16
368.70	1851.77
368.91	1892.32
369.12	1872.87
369.34	1703.50
369.55	1722.96
369.76	1876.76
369.97	1858.12
370.18	1740.77
370.39	1738.32
370.60	1739.34
370.82	1772.93
371.03	1801.39
371.24	1759.41
371.45	1966.87
371.66	1973.22
371.87	1790.95
372.08	1771.08
372.30	1774.16
372.51	1991.24
372.72	1871.23
372.93	1763.51
373.14	2073.57
373.35	1805.69
373.56	1727.26
373.78	1798.12
373.99	2027.49
374.20	2257.48
374.41	1816.55
374.62	1826.17
374.83	2091.80
375.04	1867.75
375.25	1820.44
375.47	1745.28
375.68	1855.46
375.89	2010.29
376.10	1821.87
376.31	1911.37
376.52	1972.60
376.73	1953.15
376.94	1822.90
377.15	1766.78
377.37	1924.27
377.58	1875.32
377.79	1689.57
378.00	1720.50
378.21	1935.74
378.42	1997.79
378.63	1823.10
378.84	1866.31
379.05	2016.43
379.27	1904.41
379.48	1904.82
379.69	1764.73
379.90	2049.20
380.11	1664.79
380.32	1799.75
380.53	1879.63
380.74	2086.68
380.95	1933.08
381.16	1799.75
381.37	1808.77
381.59	2093.02
381.80	1988.99
382.01	1756.95
382.22	1694.28
382.43	1979.98
382.64	1927.55
382.85	1754.29
383.06	1859.56
383.27	2010.70
383.48	1868.77
383.69	1838.67
383.91	1749.99
384.12	1965.03
384.33	1965.03
384.54	1804.06
384.75	1684.86
384.96	2282.67
385.17	2014.18
385.38	1769.24
385.59	1767.19
385.80	1970.15
386.01	2089.34
386.22	1881.26
386.43	1796.68
386.64	2202.80
386.86	1892.53
387.07	1918.95
387.28	1688.35
387.49	1829.25
387.70	2052.47
387.91	1862.42
388.12	1745.07
388.33	1959.09
388.54	1822.49
388.75	1783.17
388.96	1863.86
389.17	1830.27
389.38	1915.67
389.59	1851.16
389.80	1834.98
390.01	1909.32
390.22	1859.56
390.43	1908.71
390.64	1687.94
390.86	1960.11
391.07	2041.01
391.28	1808.15
391.49	1840.10
391.70	1746.51
391.91	1794.02
392.12	1812.45
392.33	1788.70
392.54	1918.95
392.75	1877.78
392.96	1875.53
393.17	1740.77
393.38	2187.23
393.59	2037.11
393.80	1747.53
394.01	1856.28
394.22	1957.24
394.43	2240.07
394.64	1836.41
394.85	1989.40
395.06	1962.57
395.27	1967.07
395.48	1834.78
395.69	1737.70
395.90	1876.55
396.11	1907.27
396.32	1778.66
396.53	1896.83
396.74	1877.37
396.95	2065.58
397.16	1780.09
397.37	1714.97
397.58	1982.64
397.79	1927.34
398.00	1855.46
398.21	1798.53
398.42	1953.56
398.63	2146.07
398.84	1793.41
399.05	1789.72
399.26	2063.33
399.47	1930.21
399.68	1621.38
399.89	1727.46
400.10	1767.40
400.31	1849.11
400.52	1807.54
400.73	1797.50
400.94	1711.28
401.15	1950.49
401.36	1805.69
401.57	1832.32
401.78	2023.80
401.99	2038.55
402.20	1695.92
402.41	1924.27
402.62	2078.69
402.83	1864.47
403.04	1743.44
403.25	1934.92
403.46	1955.20
403.67	2154.46
403.88	1898.67
404.09	1903.38
404.30	1952.53
404.51	1925.50
404.72	1823.31
404.93	1947.00
405.14	1842.35
405.35	1904.00
405.56	1816.34
405.77	1808.56
405.98	1927.75
406.19	1867.13
406.40	1758.80
406.61	1772.31
406.82	1806.10
407.03	2174.94
407.24	1706.98
407.45	1834.16
407.66	1959.29
407.87	2010.90
408.08	1845.22
408.29	1871.02
408.49	1972.19
408.70	1896.21
408.91	1804.67
409.12	1870.82
409.33	1773.75
409.54	2050.63
409.75	1758.80
409.96	1798.12
410.17	2016.63
410.38	1871.64
410.59	1756.75
410.80	1876.96
411.01	1898.88
411.22	1884.34
411.43	1850.75
411.64	1751.63
411.85	1785.21
412.06	1802.42
412.27	1651.69
412.47	1790.54
412.68	1893.55
412.89	1964.21
413.10	1781.32
413.31	1713.74
413.52	2142.79
413.73	2150.16
413.94	1758.80
414.15	1880.04
414.36	1853.21
414.57	1796.68
414.78	1778.05
414.99	2083.60
415.19	2517.16
415.40	2609.52
415.61	2774.18
415.82	2597.44
416.03	2551.36
416.24	2370.73
416.45	2093.02
416.66	1874.92
416.87	1798.32
417.08	1998.41
417.29	1818.19
417.50	1925.09
417.70	2118.21
417.91	2097.94
418.12	2017.86
418.33	2135.83
418.54	2242.12
418.75	2419.88
418.96	2412.10
419.17	2586.99
419.38	3060.28
419.59	3052.09
419.79	2910.16
420.00	2805.31
420.21	2976.72
420.42	2343.70
420.63	2089.34
420.84	2033.22
421.05	1949.46
421.26	1942.50
421.47	1729.30
421.67	2039.37
421.88	1808.15
422.09	1779.48
422.30	1940.45
422.51	1818.60
422.72	2123.95
422.93	1966.87
423.14	1823.51
423.35	1683.23
423.55	1694.49
423.76	1799.75
423.97	1811.63
424.18	1705.34
424.39	1907.48
424.60	2071.52
424.81	1856.28
425.02	2043.67
425.22	2131.53
425.43	2117.19
425.64	2278.98
425.85	2234.13
426.06	2543.37
426.27	2404.52
426.48	2379.33
426.68	2347.79
426.89	2446.30
427.10	2537.43
427.31	2117.80
427.52	1906.86
427.73	2116.99
427.94	2031.18
428.14	1909.94
428.35	1821.26
428.56	2078.69
428.77	2010.29
428.98	1894.37
429.19	2003.73
429.40	2061.08
429.60	2138.08
429.81	2207.92
430.02	2120.67
430.23	2053.50
430.44	2116.99
430.65	1847.06
430.85	1854.85
431.06	1978.54
431.27	1738.73
431.48	1803.24
431.69	1834.57
431.90	1908.09
432.10	1904.20
432.31	1879.01
432.52	1907.27
432.73	2450.39
432.94	2391.41
433.15	2237.00
433.35	2173.51
433.56	2318.30
433.77	2146.27
433.98	2099.78
434.19	1950.90
434.40	2023.60
434.60	1984.07
434.81	1847.27
435.02	1913.21
435.23	1910.55
435.44	1838.05
435.64	1715.38
435.85	1759.21
436.06	1881.67
436.27	1842.76
436.48	1720.09
436.68	1765.14
436.89	2121.90
437.10	2010.49
437.31	1826.99
437.52	1904.82
437.73	1920.99
437.93	1912.19
438.14	1858.53
438.35	1696.54
438.56	1825.15
438.77	1864.88
438.97	1954.79
439.18	1743.85
439.39	2033.63
439.60	1747.12
439.80	1723.78
440.01	1792.38
440.22	1835.59
440.43	1976.70
440.64	1709.03
440.84	1826.99
441.05	1757.36
441.26	2277.34
441.47	1853.62
441.68	1785.83
441.88	1868.77
442.09	1875.12
442.30	1946.80
442.51	1842.97
442.71	1841.94
442.92	1917.51
443.13	1755.52
443.34	1751.83
443.55	1776.82
443.75	1971.99
443.96	1760.84
444.17	1730.12
444.38	2018.48
444.58	1804.06
444.79	1879.42
445.00	1823.51
445.21	1872.46
445.41	1862.22
445.62	1600.28
445.83	1873.89
446.04	1900.52
446.24	1743.85
446.45	1629.36
446.66	1783.17
446.87	1941.06
447.07	1835.18
447.28	1971.17
447.49	1829.25
447.70	2019.91
447.90	2024.62
448.11	1784.40
448.32	1897.44
448.53	2084.01
448.73	2073.57
448.94	1791.56
449.15	1907.27
449.36	1932.67
449.56	1959.91
449.77	1777.23
449.98	1740.16
450.19	1900.11
450.39	1991.04
450.60	1988.37
450.81	1940.45
451.02	2011.92
451.22	2170.03
451.43	1834.37
451.64	1852.59
451.84	1917.72
452.05	2111.66
452.26	1906.45
452.47	1856.07
452.67	1875.94
452.88	2120.26
453.09	1798.94
453.30	1716.20
453.50	1992.47
453.71	2120.26
453.92	1773.13
454.12	1911.98
454.33	1824.33
454.54	1889.66
454.75	1752.45
454.95	1763.51
455.16	1918.54
455.37	1957.86
455.57	1839.28
455.78	1795.25
455.99	1875.12
456.19	1886.79
456.40	1734.63
456.61	1821.87
456.82	1865.70
457.02	2010.90
457.23	1855.87
457.44	1950.69
457.64	1812.66
457.85	1970.35
458.06	1840.71
458.26	1844.20
458.47	1901.74
458.68	2049.20
458.89	1755.52
459.09	1995.54
459.30	2221.23
459.51	1984.89
459.71	1746.71
459.92	1820.85
460.13	2008.65
460.33	2200.75
460.54	1777.84
460.75	1795.04
460.95	1769.24
461.16	1974.86
461.37	1801.39
461.57	1831.70
461.78	1920.79
461.99	1780.30
462.19	2012.95
462.40	1814.30
462.61	2362.54
462.81	2087.49
463.02	1769.85
463.23	1813.27
463.43	2017.66
463.64	1865.49
463.85	2782.17
464.05	1803.03
464.26	2314.82
464.47	2114.73
464.67	1984.28
464.88	1896.01
465.09	1825.56
465.29	1929.80
465.50	1933.49
465.71	1833.96
465.91	1839.69
466.12	1882.70
466.33	1893.96
466.53	1801.19
466.74	2088.11
466.94	1873.48
467.15	1833.75
467.36	2010.08
467.56	1784.19
467.77	1942.70
467.98	1853.62
468.18	1785.83
468.39	1827.20
468.60	2153.44
468.80	1858.12
469.01	1763.30
469.21	1984.48
469.42	2064.15
469.63	1874.71
469.83	1817.16
470.04	2076.64
470.25	2155.90
470.45	1940.04
470.66	1816.34
470.86	1971.78
471.07	1896.01
471.28	1922.43
471.48	1971.58
471.69	1957.24
471.90	2382.40
472.10	1803.44
472.31	1808.77
472.51	1821.05
472.72	1811.22
472.93	1742.00
473.13	1941.68
473.34	1955.81
473.54	1879.42
473.75	1847.47
473.96	2002.71
474.16	1893.76
474.37	2016.02
474.57	1926.32
474.78	1845.42
474.99	2023.80
475.19	2015.20
475.40	1822.69
475.60	1751.63
475.81	2100.19
476.02	1904.61
476.22	1913.62
476.43	2011.92
476.63	1966.05
476.84	2119.44
477.05	1735.86
477.25	1810.40
477.46	2314.20
477.66	1928.57
477.87	1706.78
478.08	1845.02
478.28	2070.50
478.49	1927.75
478.69	1792.38
478.90	1819.62
479.10	1995.13
479.31	2113.30
479.52	1878.40
479.72	1933.28
479.93	1967.48
480.13	1876.96
480.34	1809.59
480.54	1887.82
480.75	1822.69
480.96	2063.12
481.16	1773.13
481.37	1882.70
481.57	2013.36
481.78	1940.66
481.98	2007.62
482.19	1867.54
482.40	2162.65
482.60	2020.53
482.81	1954.99
483.01	1856.28
483.22	2061.89
483.42	2085.24
483.63	1988.78
483.83	1914.24
484.04	1854.03
484.24	2020.53
484.45	1910.35
484.66	1733.40
484.86	1973.42
485.07	1843.79
485.27	1892.32
485.48	1808.97
485.68	2068.86
485.89	1806.51
486.09	1909.94
486.30	1834.78
486.50	1944.55
486.71	1937.38
486.91	1977.31
487.12	2031.79
487.33	2241.50
487.53	2264.23
487.74	2111.66
487.94	1992.67
488.15	2094.46
488.35	2181.70
488.56	2056.16
488.76	2008.03
488.97	2052.88
489.17	2099.58
489.38	1949.67
489.58	1907.07
489.79	1977.11
489.99	1981.00
490.20	1894.99
490.40	1967.28
490.61	1984.28
490.81	1878.19
491.02	1873.69
491.22	1934.72
491.43	2031.79
491.63	1950.49
491.84	1984.28
492.04	1766.78
492.25	1984.28
492.45	1882.90
492.66	1812.04
492.86	1750.81
493.07	1881.47
493.27	2194.19
493.48	1694.08
493.68	1884.54
493.89	1900.31
494.09	2019.91
494.30	1827.40
494.50	2095.69
494.71	2015.00
494.91	1815.73
495.12	1934.72
495.32	2022.37
495.53	1988.37
495.73	1789.72
495.94	1867.75
496.14	1711.69
496.35	2161.43
496.55	1877.37
496.76	1852.80
496.96	1887.61
497.17	1939.63
497.37	1979.77
497.58	1847.47
497.78	1779.28
497.98	1902.56
498.19	1921.40
498.39	1908.71
498.60	1964.00
498.80	1748.76
499.01	2032.81
499.21	1809.79
499.42	1889.25
499.62	1870.00
499.83	2216.11
500.03	1735.86
500.24	1909.94
500.44	2109.82
500.64	2015.41
500.85	1803.65
501.05	1947.82
501.26	1752.04
501.46	2048.38
501.67	1806.92
501.87	1761.25
502.08	1803.44
502.28	1897.03
502.48	1945.57
502.69	2003.53
502.89	1790.54
503.10	1868.57
503.30	1906.45
503.51	1913.62
503.71	1810.81
503.92	2052.47
504.12	1997.38
504.32	1910.35
504.53	2094.25
504.73	2158.15
504.94	2105.11
505.14	2193.37
505.35	2241.91
505.55	2180.47
505.75	2122.51
505.96	2198.08
506.16	2343.90
506.37	1992.06
506.57	1916.49
506.78	1987.35
506.98	2119.44
507.18	1833.55
507.39	1834.98
507.59	1928.57
507.80	1898.88
508.00	1995.75
508.20	2067.63
508.41	1940.25
508.61	2117.19
508.82	2074.80
509.02	1986.53
509.22	1778.05
509.43	1800.37
509.63	1839.08
509.84	1876.14
510.04	1731.97
510.24	2092.61
510.45	2037.93
510.65	1749.58
510.86	1896.83
511.06	1833.75
511.26	2053.50
511.47	1998.00
511.67	1846.86
511.88	2027.08
512.08	2086.06
512.28	1783.78
512.49	1945.37
512.69	1956.63
512.90	1959.09
513.10	1825.97
513.30	1898.06
513.51	1966.87
513.71	2126.61
513.91	1924.27
514.12	1927.75
514.32	2083.60
514.53	1982.64
514.73	2083.81
514.93	2010.08
515.14	2114.73
515.34	2341.03
515.54	2189.07
515.75	2284.51
515.95	2438.11
516.15	2461.86
516.36	2196.04
516.56	2104.70
516.77	1811.63
516.97	2092.20
517.17	1960.73
517.38	2038.14
517.58	2252.77
517.78	2076.44
517.99	2224.91
518.19	2296.80
518.39	2521.87
518.60	2376.87
518.80	2252.15
519.00	2218.97
519.21	2111.66
519.41	2286.35
519.61	1905.23
519.82	2004.35
520.02	1988.78
520.22	1979.16
520.43	1965.64
520.63	1972.81
520.83	1924.68
521.04	1838.05
521.24	2213.04
521.44	2166.75
521.65	2244.78
521.85	2482.55
522.05	2240.27
522.26	2136.65
522.46	2375.44
522.66	2161.02
522.87	1933.28
523.07	2117.80
523.27	1945.37
523.48	2178.83
523.68	1997.59
523.88	1987.76
524.09	2163.68
524.29	2063.33
524.49	1895.19
524.70	2207.10
524.90	2369.09
525.10	2274.06
525.31	1994.52
525.51	2035.89
525.71	2138.08
525.91	2067.63
526.12	1858.33
526.32	1797.30
526.52	1867.75
526.73	1858.74
526.93	1927.55
527.13	1768.63
527.34	1914.85
527.54	1954.58
527.74	1892.73
527.94	1839.49
528.15	1854.44
528.35	1981.20
528.55	1989.60
528.76	1943.52
528.96	1741.80
529.16	2062.51
529.36	1997.59
529.57	1783.99
529.77	2071.93
529.97	1784.80
530.18	1959.29
530.38	1860.58
530.58	2024.83
530.78	1943.52
530.99	1871.02
531.19	1994.11
531.39	1859.56
531.60	1947.82
531.80	1880.04
532.00	2027.08
532.20	1971.17
532.41	1849.32
532.61	1848.91
532.81	1858.53
533.01	1872.25
533.22	1980.39
533.42	1984.89
533.62	1721.52
533.82	2114.12
534.03	1932.26
534.23	1961.95
534.43	1839.49
534.63	1902.56
534.84	1950.28
535.04	1913.62
535.24	1906.25
535.44	2244.37
535.65	1851.16
535.85	1806.31
536.05	1831.29
536.25	1905.43
536.46	1862.83
536.66	2076.85
536.86	1992.47
537.06	2076.03
537.27	2155.69
537.47	2011.31
537.67	1902.15
537.87	2120.26
538.08	1924.27
538.28	1805.49
538.48	1814.09
538.68	1923.04
538.88	2075.62
539.09	1782.76
539.29	1901.74
539.49	2038.75
539.69	1973.63
539.90	1968.51
540.10	1828.84
540.30	2129.07
540.50	1896.62
540.70	1826.58
540.91	1972.60
541.11	2108.38
541.31	2286.56
541.51	2107.56
541.72	2184.77
541.92	2193.99
542.12	2044.08
542.32	1985.30
542.52	1928.57
542.73	1895.19
542.93	2077.87
543.13	1947.00
543.33	2034.86
543.53	2139.31
543.74	2159.58
543.94	2040.39
544.14	2189.07
544.34	2354.34
544.54	2256.04
544.75	2342.47
544.95	2477.02
545.15	2395.10
545.35	2419.06
545.55	2256.86
545.75	2040.60
545.96	2340.62
546.16	1932.46
546.36	2009.06
546.56	1982.02
546.76	2176.79
546.97	2214.06
547.17	1948.03
547.37	1999.64
547.57	1887.20
547.77	2035.48
547.97	1949.05
548.18	1974.86
548.38	1999.23
548.58	2463.09
548.78	2482.55
548.98	2795.07
549.18	3104.11
549.39	3273.68
549.59	2916.10
549.79	2641.67
549.99	2748.78
550.19	2562.62
550.39	2430.94
550.60	2223.27
550.80	2222.25
551.00	2218.56
551.20	2017.45
551.40	1980.80
551.60	2068.04
551.80	2067.83
552.01	2097.73
552.21	1998.20
552.41	2059.64
552.61	2216.31
552.81	2019.50
553.01	1858.74
553.21	2011.72
553.42	1862.63
553.62	1885.56
553.82	1856.69
554.02	2130.50
554.22	2041.21
554.42	1823.92
554.62	1962.16
554.83	2290.45
555.03	2531.49
555.23	2469.85
555.43	2858.96
555.63	2845.04
555.83	2670.35
556.03	2402.06
556.23	2238.63
556.44	2429.10
556.64	2482.14
556.84	2097.73
557.04	2301.10
557.24	2294.95
557.44	2179.86
557.64	2094.25
557.84	1938.40
558.04	1975.47
558.25	2124.97
558.45	1911.57
558.65	1997.59
558.85	2040.80
559.05	1846.45
559.25	1994.72
559.45	2132.14
559.65	2529.65
559.85	2996.79
560.05	2462.68
560.26	2568.36
560.46	2545.42
560.66	2406.98
560.86	2242.94
561.06	2103.88
561.26	2347.38
561.46	2224.30
561.66	2025.65
561.86	2138.69
562.06	1968.30
562.26	2037.52
562.47	2011.92
562.67	1826.58
562.87	2031.38
563.07	1826.38
563.27	1991.24
563.47	2004.35
563.67	1949.05
563.87	2109.41
564.07	1995.54
564.27	2118.21
564.47	2208.53
564.67	2275.29
564.87	2160.20
565.08	2253.99
565.28	2107.77
565.48	2150.57
565.68	2136.24
565.88	2096.10
566.08	2253.18
566.28	1994.11
566.48	1828.43
566.68	1915.06
566.88	1907.27
567.08	2055.96
567.28	1938.61
567.48	1942.09
567.68	2088.52
567.88	1894.78
568.08	2076.03
568.28	2146.27
568.48	2029.74
568.68	2243.96
568.89	2022.98
569.09	1815.11
569.29	2097.32
569.49	2062.30
569.69	1867.34
569.89	1818.80
570.09	1719.06
570.29	1855.25
570.49	1776.61
570.69	1844.40
570.89	2031.99
571.09	2165.32
571.29	1756.34
571.49	1997.59
571.69	1951.51
571.89	1978.34
572.09	1842.15
572.29	1849.11
572.49	1986.12
572.69	1996.77
572.89	1934.51
573.09	1765.96
573.29	2035.89
573.49	2098.35
573.69	2091.80
573.89	2171.26
574.09	1955.61
574.29	2164.91
574.49	1914.03
574.69	1870.21
574.89	1833.14
575.09	1805.08
575.29	1815.73
575.49	1927.75
575.69	1959.29
575.89	1777.23
576.09	1905.43
576.29	1953.15
576.49	1833.75
576.69	1973.63
576.89	1915.67
577.09	1966.05
577.29	1830.06
577.49	2214.26
577.69	1853.41
577.89	2007.83
578.09	1956.01
578.29	1762.07
578.49	1923.66
578.69	1804.87
578.89	2029.95
579.09	1948.03
579.29	1832.52
579.49	2025.24
579.69	1915.47
579.89	2237.61
580.09	1758.18
580.29	1780.91
580.49	1865.09
580.69	1794.23
580.89	1886.79
581.09	1876.76
581.29	1856.89
581.49	1886.79
581.69	1769.85
581.89	1797.91
582.09	1821.05
582.28	1807.74
582.48	2031.58
582.68	2138.90
582.88	2178.63
583.08	2018.07
583.28	2009.88
583.48	1987.14
583.68	1880.24
583.88	1990.01
584.08	1951.51
584.28	1925.50
584.48	2190.92
584.68	1985.51
584.88	1860.37
585.08	2071.93
585.28	2100.19
585.48	2130.50
585.68	1993.90
585.87	2021.75
586.07	2021.14
586.27	1948.64
586.47	1996.77
586.67	1944.75
586.87	1927.14
587.07	1884.13
587.27	1821.26
587.47	1963.80
587.67	2282.87
587.87	2571.63
588.07	2414.96
588.27	2413.12
588.46	2645.77
588.66	2639.83
588.86	2370.32
589.06	2345.54
589.26	2306.22
589.46	2222.66
589.66	1960.93
589.86	1925.09
590.06	2004.55
590.26	2181.29
590.46	2111.87
590.66	2248.26
590.85	2179.04
591.05	2266.08
591.25	2037.52
591.45	2051.86
591.65	2171.67
591.85	2153.64
592.05	2141.56
592.25	2261.98
592.45	2391.00
592.64	2224.09
592.84	2164.09
593.04	2001.89
593.24	2429.51
593.44	2045.92
593.64	2132.75
593.84	2161.63
594.04	2065.17
594.24	2254.61
594.43	1944.75
594.63	1982.43
594.83	2112.89
595.03	2096.51
595.23	1862.63
595.43	1780.71
595.63	1839.90
595.83	2052.88
596.02	1737.09
596.22	1936.15
596.42	1999.23
596.62	1963.80
596.82	1894.78
597.02	2053.91
597.22	2146.68
597.41	1994.93
597.61	1907.27
597.81	2055.14
598.01	2118.01
598.21	1986.94
598.41	1996.36
598.61	1938.40
598.80	2056.37
599.00	2073.16
599.20	2127.84
599.40	1992.06
599.60	2033.63
599.80	2164.09
599.99	2159.38
600.19	1967.89
600.39	2058.00
600.59	2083.60
600.79	2019.91
600.99	2030.97
601.19	2192.15
601.38	2240.48
601.58	2061.28
601.78	1834.57
601.98	2284.51
602.18	2978.16
602.37	3583.54
602.57	3761.09
602.77	4150.41
602.97	4246.26
603.17	4031.63
603.37	3819.87
603.56	3837.07
603.76	3745.73
603.96	3598.90
604.16	3378.53
604.36	3204.05
604.56	2934.74
604.75	2568.97
604.95	2522.89
605.15	2566.92
605.35	2452.03
605.55	2237.20
605.74	2128.04
605.94	2302.74
606.14	2120.06
606.34	2106.95
606.54	2012.95
606.73	1961.13
606.93	2065.79
607.13	1858.74
607.33	1947.21
607.53	2134.60
607.72	2101.42
607.92	2022.57
608.12	2060.46
608.32	1958.68
608.51	2092.82
608.71	1901.33
608.91	2077.87
609.11	2136.03
609.31	2119.03
609.50	2212.63
609.70	2382.40
609.90	2366.43
610.10	2383.22
610.29	2217.54
610.49	2098.14
610.69	2237.61
610.89	2124.77
611.09	2093.64
611.28	2175.56
611.48	2136.24
611.68	2010.08
611.88	1949.67
612.07	1901.95
612.27	2099.99
612.47	1924.68
612.67	2000.66
612.86	2062.10
613.06	1939.22
613.26	1754.49
613.46	1959.91
613.65	2059.85
613.85	2466.16
614.05	2229.42
614.25	2217.13
614.44	2102.24
614.64	2119.03
614.84	2057.80
615.04	2052.06
615.23	2029.74
615.43	2163.88
615.63	2132.96
615.83	1939.63
616.02	1930.42
616.22	2276.73
616.42	2130.91
616.62	2198.29
616.81	2286.35
617.01	2364.79
617.21	2265.26
617.41	2060.46
617.60	2103.88
617.80	2162.25
618.00	2144.02
618.19	2068.65
618.39	2001.28
618.59	2020.94
618.79	1938.20
618.98	1710.05
619.18	1908.50
619.38	2193.58
619.57	1889.46
619.77	1889.46
619.97	1902.15
620.17	1904.61
620.36	1924.07
620.56	2225.94
620.76	2044.08
620.95	2101.01
621.15	2145.04
621.35	2041.01
621.54	2085.65
621.74	2112.27
621.94	1970.76
622.14	1902.56
622.33	1823.10
622.53	1973.83
622.73	1928.98
622.92	1773.34
623.12	1925.91
623.32	2165.73
623.51	1990.01
623.71	1770.06
623.91	2017.86
624.10	1816.55
624.30	1935.33
624.50	1799.75
624.69	1788.29
624.89	2410.66
625.09	1892.73
625.29	1690.19
625.48	1758.18
625.68	1926.11
625.88	2040.19
626.07	1928.16
626.27	1784.40
626.47	1840.51
626.66	1730.12
626.86	1853.62
627.06	1864.06
627.25	1889.25
627.45	2124.15
627.64	1872.66
627.84	2063.33
628.04	1806.72
628.23	2165.11
628.43	1793.82
628.63	1873.89
628.82	1941.88
629.02	2299.46
629.22	2122.92
629.41	2203.20
629.61	2105.52
629.81	2392.03
630.00	2081.97
630.20	2054.11
630.40	2167.57
630.59	2221.43
630.79	2093.02
630.98	2049.81
631.18	2013.77
631.38	1981.82
631.57	2107.97
631.77	1802.21
631.97	1962.98
632.16	1974.65
632.36	1937.17
632.56	1906.45
632.75	1976.90
632.95	2027.49
633.14	1765.35
633.34	2020.73
633.54	1708.21
633.73	1855.25
633.93	1815.93
634.12	1734.63
634.32	2224.30
634.52	1887.20
634.71	1773.95
634.91	1944.96
635.11	1749.37
635.30	1825.15
635.50	1941.68
635.69	1812.25
635.89	2175.97
636.09	2082.78
636.28	1860.78
636.48	1879.01
636.67	2056.57
636.87	2058.82
637.07	2030.77
637.26	1888.43
637.46	2012.74
637.65	2120.26
637.85	2024.42
638.04	1904.61
638.24	1955.20
638.44	2020.32
638.63	1925.91
638.83	1907.89
639.02	1995.34
639.22	2019.50
639.42	1886.79
639.61	1929.80
639.81	1925.91
640.00	1887.41
640.20	1965.85
640.39	1998.41
640.59	2358.85
640.79	2372.37
640.98	2408.41
641.18	2371.55
641.37	2473.54
641.57	2257.89
641.76	2232.08
641.96	2006.19
642.15	2175.56
642.35	2054.11
642.55	2052.68
642.74	1884.95
642.94	2092.20
643.13	2134.39
643.33	1908.50
643.52	1860.99
643.72	1834.57
643.91	1916.69
644.11	1828.63
644.31	1766.17
644.50	1797.09
644.70	2047.15
644.89	1866.31
645.09	1937.79
645.28	1923.86
645.48	1964.62
645.67	1774.97
645.87	1705.34
646.06	1873.48
646.26	1968.30
646.45	1702.07
646.65	1706.16
646.84	2138.69
647.04	1854.64
647.24	1746.10
647.43	1903.38
647.63	1930.82
647.82	2084.42
648.02	1756.13
648.21	1835.39
648.41	2091.18
648.60	1847.88
648.80	2002.50
648.99	1901.33
649.19	1820.85
649.38	1706.98
649.58	1900.92
649.77	1905.84
649.97	2034.86
650.16	1944.34
650.36	1677.08
650.55	1989.60
650.75	1946.59
650.94	2086.06
651.14	1875.12
651.33	1904.20
651.53	2122.11
651.72	1815.93
651.92	1877.17
652.11	1707.39
652.31	1978.13
652.50	1949.67
652.70	1925.91
652.89	1786.65
653.09	2124.97
653.28	1939.02
653.48	1736.88
653.67	1736.68
653.87	2312.16
654.06	1953.15
654.25	2054.93
654.45	1831.09
654.64	1873.69
654.84	1890.68
655.03	1685.07
655.23	1975.47
655.42	1982.64
655.62	2121.29
655.81	1895.80
656.01	1769.85
656.20	1992.88
656.40	2089.13
656.59	1883.52
656.79	2020.94
656.98	1908.09
657.17	2007.83
657.37	1901.95
657.56	1834.98
657.76	1964.00
657.95	2033.22
658.15	1587.79
658.34	1866.31
658.54	1909.12
658.73	1783.78
658.92	1855.46
659.12	1894.17
659.31	1989.60
659.51	1853.41
659.70	2007.42
659.90	1938.20
660.09	2099.17
660.29	1993.29
660.48	1869.80
660.67	2062.92
660.87	1878.19
661.06	1975.88
661.26	2003.73
661.45	1971.99
661.65	1977.52
661.84	1860.78
662.03	1867.54
662.23	1844.20
662.42	2147.09
662.62	1766.17
662.81	1779.28
663.00	1840.10
663.20	1906.66
663.39	1943.11
663.59	1946.39
663.78	1799.35
663.97	1841.94
664.17	2000.66
664.36	1755.52
664.56	1778.87
664.75	1977.72
664.94	1974.65
665.14	1904.82
665.33	1898.26
665.53	1979.16
665.72	1942.50
665.91	2090.36
666.11	1950.08
666.30	1985.30
666.50	1907.07
666.69	1956.01
666.88	1900.31
667.08	1928.78
667.27	1881.88
667.47	1928.57
667.66	1866.72
667.85	2042.85
668.05	1903.18
668.24	1804.47
668.43	2016.23
668.63	1844.40
668.82	2062.10
669.02	1950.28
669.21	1889.66
669.40	1785.01
669.60	2174.53
669.79	1760.23
669.98	2352.09
670.18	1772.31
670.37	1791.15
670.56	1847.88
670.76	1930.21
670.95	1889.46
671.15	2042.44
671.34	1969.94
671.53	1937.99
671.73	1912.80
671.92	1843.17
672.11	1771.08
672.31	1893.96
672.50	1987.55
672.69	1781.73
672.89	1691.83
673.08	1851.16
673.27	2000.87
673.47	1966.25
673.66	1929.39
673.85	1790.54
674.05	2037.93
674.24	2245.60
674.43	2304.37
674.63	2691.44
674.82	3026.28
675.01	2551.77
675.21	2688.78
675.40	2445.89
675.59	2385.47
675.79	2578.80
675.98	2268.74
676.17	2398.99
676.37	2295.36
676.56	2124.77
676.75	2087.70
676.95	2030.36
677.14	1968.30
677.33	2115.96
677.52	1812.25
677.72	1881.06
677.91	1967.89
678.10	1729.10
678.30	1783.37
678.49	1768.22
678.68	2172.69
678.88	1702.89
679.07	2029.54
679.26	1850.75
679.45	2126.00
679.65	2050.22
679.84	1706.78
680.03	1707.39
680.23	1848.91
680.42	2195.42
680.61	1758.18
680.81	1830.47
681.00	1899.90
681.19	1943.73
681.38	1999.02
681.58	1967.07
681.77	1896.01
681.96	2032.81
682.15	1861.81
682.35	1938.40
682.54	2008.44
682.73	1808.56
682.93	1843.99
683.12	1813.07
683.31	2000.25
683.50	2261.78
683.70	1821.46
683.89	1909.73
684.08	1772.31
684.27	2054.93
684.47	1717.22
684.66	1904.41
684.85	2171.26
685.04	2053.50
685.24	1825.76
685.43	1892.73
685.62	1694.28
685.81	1976.49
686.01	2050.43
686.20	2113.09
686.39	2140.33
686.58	2651.51
686.78	2451.42
686.97	2414.15
687.16	2401.04
687.35	2296.59
687.55	2172.28
687.74	2187.23
687.93	2096.30
688.12	2163.68
688.32	2148.11
688.51	1938.61
688.70	2114.53
688.89	1901.54
689.08	1848.70
689.28	1878.40
689.47	1961.75
689.66	1946.80
689.85	1988.17
690.05	1858.94
690.24	1805.49
690.43	1952.12
690.62	1925.09
690.81	1848.91
691.01	1886.79
691.20	1876.96
691.39	1774.36
691.58	1898.88
691.77	2112.89
691.97	1922.22
692.16	1938.40
692.35	1878.60
692.54	1882.29
692.73	2043.67
692.93	2051.04
693.12	2106.34
693.31	2164.91
693.50	2108.59
693.69	2133.98
693.89	2016.63
694.08	2197.47
694.27	2210.17
694.46	1930.82
694.65	1985.92
694.85	2093.02
695.04	2091.80
695.23	2022.37
695.42	2516.75
695.61	2822.92
695.80	3077.48
696.00	3337.37
696.19	3398.40
696.38	3009.29
696.57	2835.62
696.76	2802.24
696.95	2607.06
697.15	2704.14
697.34	2625.09
697.53	2298.84
697.72	2316.87
697.91	2163.27
698.10	2338.99
698.30	2011.72
698.49	1987.14
698.68	2039.57
698.87	1935.74
699.06	1842.15
699.25	1915.87
699.45	2052.27
699.64	1960.93
699.83	1991.04
700.02	1814.09
700.21	1976.09
700.40	1824.54
700.59	1854.64
700.79	1839.28
700.98	1987.35
701.17	1812.66
701.36	1818.39
701.55	1820.64
701.74	2097.12
701.93	2067.63
702.12	2359.67
702.32	2428.48
702.51	2729.53
702.70	2754.31
702.89	2533.75
703.08	2294.34
703.27	2518.39
703.46	2376.26
703.65	2198.70
703.85	2065.58
704.04	2084.01
704.23	2245.19
704.42	1978.13
704.61	1976.49
704.80	2155.28
704.99	1867.34
705.18	1996.16
705.37	1941.68
705.57	2301.30
705.76	2812.27
705.95	2879.44
706.14	3427.69
706.33	3602.79
706.52	3707.44
706.71	3067.45
706.90	2811.86
707.09	2785.44
707.28	2679.56
707.47	2443.43
707.67	2507.33
707.86	2325.47
708.05	2425.41
708.24	2208.53
708.43	2123.95
708.62	2018.89
708.81	1902.56
709.00	1833.14
709.19	1834.78
709.38	2036.50
709.57	1846.04
709.76	1985.71
709.96	1940.66
710.15	2186.62
710.34	2029.54
710.53	2109.20
710.72	1986.12
710.91	2120.06
711.10	2031.79
711.29	2016.43
711.48	1891.50
711.67	1860.17
711.86	2024.62
712.05	1861.81
712.24	1885.36
712.43	2061.08
712.62	2117.60
712.81	1948.44
713.00	2060.87
713.19	1770.88
713.39	1981.41
713.58	1792.38
713.77	1941.27
713.96	2067.83
714.15	1962.36
714.34	1948.64
714.53	1802.83
714.72	2246.83
714.91	1876.76
715.10	1992.67
715.29	1882.49
715.48	2400.63
715.67	2129.07
715.86	2004.76
716.05	1962.36
716.24	1921.40
716.43	1902.97
716.62	1833.75
716.81	1803.44
717.00	1891.91
717.19	2144.63
717.38	1935.33
717.57	1892.12
717.76	1741.18
717.95	2033.43
718.14	1913.21
718.33	1846.86
718.52	1688.35
718.71	1725.82
718.90	1765.76
719.09	1812.25
719.28	1916.90
719.47	2042.03
719.66	2054.52
719.85	2091.80
720.04	2028.10
720.23	2107.56
720.42	2009.47
720.61	2076.03
720.80	1881.88
720.99	2033.84
721.18	1948.64
721.37	1888.84
721.56	1931.23
721.75	2083.19
721.94	1837.44
722.13	1901.95
722.32	1915.47
722.51	2034.25
722.70	1895.60
722.89	1935.94
723.08	1892.73
723.27	2000.87
723.46	1906.45
723.65	1853.21
723.84	1853.00
724.03	2079.92
724.22	1745.48
724.41	1923.86
724.60	1876.14
724.79	1991.44
724.98	1933.69
725.16	1843.79
725.35	1967.89
725.54	1771.49
725.73	1898.26
725.92	1897.44
726.11	1962.77
726.30	2196.65
726.49	2054.11
726.68	2169.62
726.87	2267.72
727.06	2353.12
727.25	2037.93
727.44	2171.67
727.63	2077.66
727.82	2026.06
728.01	2080.53
728.20	2114.12
728.38	2177.40
728.57	1978.34
728.76	1949.87
728.95	2017.45
729.14	1779.28
729.33	1805.90
729.52	1696.74
729.71	1806.31
729.90	1820.85
730.09	1885.97
730.28	1975.68
730.47	1950.69
730.66	2210.37
730.84	2125.59
731.03	2082.17
731.22	2088.93
731.41	2071.11
731.60	2076.03
731.79	1811.43
731.98	1883.31
732.17	2059.85
732.36	2031.79
732.55	1900.31
732.73	1808.97
732.92	2097.94
733.11	1963.80
733.30	1833.14
733.49	1780.09
733.68	1996.77
733.87	1946.18
734.06	1852.39
734.25	1959.29
734.43	2137.06
734.62	2279.80
734.81	2317.69
735.00	2270.99
735.19	2240.07
735.38	2211.60
735.57	2010.29
735.76	2174.94
735.94	2280.00
736.13	2812.07
736.32	2791.79
736.51	2870.64
736.70	3250.33
736.89	3284.74
737.08	3108.41
737.27	3390.62
737.45	4089.79
737.64	4132.60
737.83	4553.45
738.02	4646.64
738.21	4512.70
738.40	3982.68
738.59	3553.84
738.77	3483.59
738.96	3211.42
739.15	3104.52
739.34	2967.92
739.53	2779.30
739.72	2777.05
739.90	2616.89
740.09	2258.50
740.28	2263.82
740.47	2243.34
740.66	2194.40
740.85	1950.90
741.03	1994.72
741.22	1884.75
741.41	1965.03
741.60	1846.04
741.79	2031.18
741.98	2164.50
742.16	2270.58
742.35	2083.19
742.54	2049.40
742.73	2411.69
742.92	2165.93
743.10	2072.34
743.29	2111.66
743.48	2464.73
743.67	2016.63
743.86	1905.23
744.05	1908.71
744.23	1915.67
744.42	1898.47
744.61	1978.95
744.80	1863.04
744.99	1905.63
745.17	1760.02
745.36	1763.92
745.55	1954.38
745.74	1901.13
745.93	1815.73
746.11	1817.37
746.30	1795.45
746.49	2031.38
746.68	1801.19
746.86	1882.29
747.05	1856.28
747.24	1971.17
747.43	2017.45
747.62	1833.55
747.80	1905.23
747.99	2141.97
748.18	2112.68
748.37	2026.67
748.56	2005.78
748.74	2108.18
748.93	2018.27
749.12	2203.41
749.31	2751.24
749.49	3168.00
749.68	3535.82
749.87	3803.69
750.06	3846.49
750.24	3974.49
750.43	4187.69
750.62	4552.22
750.81	4817.44
750.99	5093.91
751.18	5078.35
751.37	4375.28
751.56	3968.14
751.74	4157.17
751.93	3995.79
752.12	3252.99
752.31	3019.53
752.49	2883.34
752.68	2971.19
752.87	2627.95
753.06	2441.59
753.24	2325.26
753.43	2367.66
753.62	2062.51
753.81	1974.45
753.99	2205.05
754.18	2048.79
754.37	1848.91
754.55	1936.76
754.74	2202.39
754.93	1722.14
755.12	1836.62
755.30	1826.17
755.49	2029.95
755.68	1960.11
755.86	1954.99
756.05	1756.54
756.24	2095.28
756.43	1782.55
756.61	1779.28
756.80	1928.57
756.99	2066.61
757.17	1884.95
757.36	1788.08
757.55	1875.53
757.74	1975.06
757.92	1898.67
758.11	1756.13
758.30	1708.62
758.48	1856.89
758.67	1758.39
758.86	1866.93
759.04	1747.53
759.23	1854.23
759.42	1905.23
759.60	1832.52
759.79	1893.35
759.98	1864.27
760.16	1795.86
760.35	1792.18
760.54	1757.16
760.73	1925.71
760.91	1740.36
761.10	1907.27
761.29	1924.89
761.47	1896.01
761.66	2187.03
761.85	1926.73
762.03	2069.06
762.22	2668.91
762.41	4535.23
762.59	6528.31
762.78	7550.86
762.97	9121.45
763.15	9613.37
763.34	8841.90
763.52	6806.83
763.71	6454.79
763.90	6157.63
764.08	5663.66
764.27	5292.77
764.46	5134.46
764.64	4564.51
764.83	4191.99
765.02	3835.44
765.20	3508.78
765.39	3175.79
765.58	2571.84
765.76	2464.32
765.95	2301.30
766.13	2142.38
766.32	2036.91
766.51	2022.16
766.69	2553.20
766.88	1982.23
767.07	1836.00
767.25	1725.82
767.44	2026.06
767.62	2072.54
767.81	1845.02
768.00	1932.46
768.18	1931.23
768.37	1847.88
768.56	1758.18
768.74	1867.13
768.93	1785.21
769.11	1946.18
769.30	1894.99
769.49	1828.84
769.67	1889.66
769.86	1831.29
770.04	1871.64
770.23	1846.86
770.42	2070.09
770.60	1904.41
770.79	1800.16
770.97	1857.30
771.16	2281.44
771.35	2729.94
771.53	3203.02
771.72	3534.38
771.90	3991.70
772.09	4271.86
772.27	3884.79
772.46	3172.92
772.65	3329.18
772.83	3112.30
773.02	3010.10
773.20	2748.58
773.39	2824.35
773.58	2742.64
773.76	2369.70
773.95	2381.58
774.13	2346.97
774.32	2174.53
774.50	1998.82
774.69	2023.19
774.87	1927.55
775.06	2222.25
775.25	1832.93
775.43	1872.25
775.62	1927.75
775.80	1976.70
775.99	1925.30
776.17	1814.09
776.36	1911.98
776.54	2017.04
776.73	1815.32
776.92	1917.72
777.10	2015.20
777.29	1961.13
777.47	1775.79
777.66	1823.72
777.84	1916.08
778.03	1898.06
778.21	1772.93
778.40	1896.21
778.58	1968.71
778.77	2015.82
778.95	1738.93
779.14	1823.10
779.32	2099.99
779.51	2006.39
779.70	1849.93
779.88	1762.48
780.07	1827.81
780.25	2216.11
780.44	1830.27
780.62	1972.19
780.81	1983.05
780.99	1968.30
781.18	1808.36
781.36	1825.76
781.55	1890.07
781.73	2043.46
781.92	1743.44
782.10	1749.58
782.29	1976.09
782.47	2087.90
782.66	1890.48
782.84	1715.58
783.03	1792.79
783.21	2053.70
783.40	1856.48
783.58	1834.78
783.77	1814.50
783.95	1891.91
784.14	1755.11
784.32	1880.04
784.51	2070.70
784.69	1844.81
784.88	1744.66
785.06	1892.73
785.24	1788.49
785.43	2039.78
785.61	1979.36
785.80	1800.57
785.98	1997.38
786.17	1942.70
786.35	1793.20
786.54	1942.50
786.72	2036.91
786.91	2020.53
787.09	1886.18
787.28	1755.11
787.46	1899.70
787.65	2027.49
787.83	1794.64
788.01	1895.80
788.20	1782.55
788.38	1967.07
788.57	1863.65
788.75	1912.60
788.94	2200.54
789.12	2101.83
789.31	1932.26
789.49	2007.42
789.67	1869.39
789.86	1959.29
790.04	1828.43
790.23	1758.59
790.41	2231.88
790.60	1932.67
790.78	1883.93
790.96	1912.39
791.15	2023.60
791.33	1909.53
791.52	1866.72
791.70	1800.37
791.89	1920.38
792.07	2006.19
792.25	1888.23
792.44	1772.93
792.62	2011.51
792.81	1859.35
792.99	1896.21
793.17	1788.29
793.36	1829.25
793.54	2256.45
793.73	2465.34
793.91	2805.31
794.10	3271.02
794.28	3594.59
794.46	3488.51
794.65	3488.31
794.83	2995.77
795.01	2885.59
795.20	2982.87
795.38	2790.36
795.57	2747.35
795.75	2649.05
795.93	2459.41
796.12	2448.96
796.30	2429.30
796.49	2361.31
796.67	2074.39
796.85	2190.92
797.04	2097.32
797.22	2136.03
797.40	1824.74
797.59	1952.74
797.77	1951.10
797.96	1848.29
798.14	1826.79
798.32	1815.93
798.51	2004.76
798.69	2151.60
798.87	1859.76
799.06	1828.22
799.24	1753.47
799.42	2173.10
799.61	2331.00
799.79	2534.36
799.98	2927.78
800.16	2897.06
800.34	3422.57
800.53	3982.07
800.71	4246.46
800.89	4885.02
801.08	4889.12
801.26	4864.74
801.44	4272.68
801.63	3660.33
801.81	3618.76
801.99	3473.76
802.18	3277.77
802.36	3194.83
802.54	3050.04
802.73	2731.58
802.91	2694.10
803.09	2605.02
803.28	2497.50
803.46	2418.24
803.64	2432.58
803.83	2025.44
804.01	1959.09
804.19	1849.52
804.38	2097.12
804.56	2039.57
804.74	1953.15
804.92	1987.14
805.11	1827.20
805.29	2092.41
805.47	1889.66
805.66	1776.82
805.84	1816.75
806.02	2061.28
806.21	1865.90
806.39	2012.33
806.57	2037.11
806.76	2011.92
806.94	1935.13
807.12	1855.46
807.30	1876.35
807.49	1993.49
807.67	1974.65
807.85	2062.92
808.04	2088.11
808.22	2258.50
808.40	1798.94
808.58	1805.90
808.77	1995.75
808.95	2167.98
809.13	2213.65
809.31	3126.02
809.50	4067.88
809.68	4602.81
809.86	4871.30
810.05	5239.93
810.23	5760.73
810.41	7032.52
810.59	10706.78
810.78	12960.78
810.96	14928.87
811.14	16211.31
811.32	15747.45
811.51	12928.83
811.69	10602.33
811.87	10536.18
812.05	9224.46
812.24	8786.81
812.42	8240.62
812.60	7502.53
812.78	6430.21
812.97	5636.01
813.15	5323.69
813.33	4644.38
813.51	4158.40
813.70	3453.08
813.88	3021.78
814.06	2749.19
814.24	2465.96
814.42	2130.09
814.61	2158.56
814.79	2286.56
814.97	1832.93
815.15	1932.46
815.34	1991.65
815.52	2050.02
815.70	1812.86
815.88	1865.70
816.06	1802.83
816.25	1862.42
816.43	1807.13
816.61	1988.58
816.79	2125.38
816.98	1732.99
817.16	1863.65
817.34	1823.92
817.52	1984.07
817.70	2130.09
817.89	1871.64
818.07	1809.79
818.25	1912.19
818.43	1953.97
818.61	1864.47
818.80	1841.74
818.98	2137.26
819.16	1927.34
819.34	1793.41
819.52	2073.36
819.70	1808.97
819.89	1882.90
820.07	1728.28
820.25	1753.47
820.43	1903.18
820.61	2005.78
820.80	1869.80
820.98	1757.36
821.16	1723.98
821.34	1748.76
821.52	1828.22
821.70	1888.02
821.89	1881.06
822.07	1840.71
822.25	1851.77
822.43	1761.66
822.61	2075.00
822.79	1929.39
822.98	1849.93
823.16	1670.53
823.34	1911.37
823.52	2029.95
823.70	1942.50
823.88	1697.97
824.06	1955.40
824.25	1899.90
824.43	2010.90
824.61	1798.53
824.79	1956.22
824.97	1976.09
825.15	2076.23
825.33	2325.67
825.52	2659.90
825.70	2741.82
825.88	2808.99
826.06	3014.20
826.24	3055.57
826.42	2950.92
826.60	2619.35
826.78	2661.34
826.97	2423.16
827.15	2537.43
827.33	2245.60
827.51	2353.94
827.69	2210.17
827.87	2221.84
828.05	2197.47
828.23	2002.09
828.41	2187.85
828.60	2119.03
828.78	1812.86
828.96	1969.33
829.14	1873.28
829.32	1898.26
829.50	1840.92
829.68	1838.05
829.86	1858.33
830.04	1987.96
830.22	1905.02
830.41	1779.07
830.59	1883.93
830.77	1954.99
830.95	1819.42
831.13	1812.25
831.31	1778.46
831.49	1992.67
831.67	1985.71
831.85	1957.45
832.03	1854.03
832.21	1984.07
832.39	1786.65
832.57	1767.60
832.76	2047.35
832.94	1896.83
833.12	1716.20
833.30	1856.89
833.48	2028.10
833.66	1949.87
833.84	1789.52
834.02	1874.71
834.20	2002.30
834.38	1971.78
834.56	1687.12
834.74	1755.11
834.92	1745.48
835.10	2106.95
835.28	1925.09
835.46	1845.02
835.64	1865.90
835.82	1824.33
836.01	2049.61
836.19	1993.08
836.37	1828.02
836.55	1757.77
836.73	1786.65
836.91	1758.39
837.09	1970.56
837.27	2075.41
837.45	1706.37
837.63	1749.78
837.81	1758.80
837.99	1930.01
838.17	1910.96
838.35	1856.07
838.53	2255.02
838.71	2060.46
838.89	1895.60
839.07	1886.18
839.25	1981.00
839.43	2088.72
839.61	2081.35
839.79	2787.70
839.97	3391.85
840.15	3793.86
840.33	3979.82
840.51	4336.57
840.69	4109.86
840.87	3584.15
841.05	3401.27
841.23	3474.38
841.41	4096.35
841.59	5388.41
841.77	5861.90
841.95	6261.66
842.13	6818.92
842.31	6470.97
842.49	5423.64
842.67	4851.84
842.85	4767.26
843.03	4177.24
843.21	4062.76
843.39	3949.92
843.57	3666.07
843.75	3455.74
843.93	3072.36
844.11	2864.08
844.29	2768.24
844.47	2591.09
844.65	2634.71
844.83	2319.94
845.01	2242.12
845.19	2252.97
845.36	2065.17
845.54	2035.48
845.72	2006.39
845.90	2036.30
846.08	1822.28
846.26	1851.98
846.44	1958.27
846.62	1956.01
846.80	1892.94
846.98	1803.24
847.16	1854.23
847.34	1898.26
847.52	1748.15
847.70	1755.72
847.88	1855.25
848.06	2072.34
848.24	1913.21
848.41	1712.72
848.59	2008.03
848.77	1940.66
848.95	1811.84
849.13	1789.52
849.31	1947.00
849.49	1905.63
849.67	1748.15
849.85	1762.28
850.03	1938.40
850.21	1932.46
850.39	1795.04
850.57	1933.69
850.74	2064.76
850.92	2076.03
851.10	2121.70
851.28	2296.59
851.46	2515.93
851.64	2873.71
851.82	2620.38
852.00	2680.79
852.18	2707.62
852.36	2480.70
852.53	2277.14
852.71	2329.77
852.89	2316.25
853.07	2293.93
853.25	2090.57
853.43	1998.41
853.61	2097.53
853.79	2097.32
853.97	1945.78
854.14	1877.58
854.32	2133.78
854.50	2056.98
854.68	1872.25
854.86	1850.34
855.04	1823.72
855.22	2005.78
855.40	1728.69
855.57	1810.81
855.75	1989.60
855.93	1938.40
856.11	1690.80
856.29	1793.20
856.47	1837.03
856.65	1901.74
856.82	1795.45
857.00	1708.42
857.18	1870.41
857.36	1817.16
857.54	1885.16
857.72	1937.79
857.89	1967.48
858.07	1933.69
858.25	1990.01
858.43	1708.21
858.61	1881.26
858.79	1888.84
858.97	1785.83
859.14	1882.90
859.32	1857.30
859.50	1824.33
859.68	1904.20
859.86	1825.76
860.03	1939.63
860.21	2006.39
860.39	1821.26
860.57	1920.79
860.75	1958.06
860.93	2139.31
861.10	2034.04
861.28	1808.15
861.46	1942.91
861.64	1976.70
861.82	1844.20
861.99	1943.11
862.17	2017.25
862.35	2029.33
862.53	1879.83
862.71	1888.84
862.88	1941.27
863.06	1967.07
863.24	1840.51
863.42	1783.37
863.60	1865.90
863.77	1962.36
863.95	1669.71
864.13	1867.54
864.31	1864.27
864.49	1980.18
864.66	1750.19
864.84	1794.23
865.02	1883.11
865.20	2201.77
865.37	1869.39
865.55	1796.89
865.73	1746.92
865.91	2053.29
866.09	1999.84
866.26	1992.88
866.44	2114.32
866.62	1971.37
866.80	1839.49
866.97	1928.37
867.15	1930.42
867.33	1998.82
867.51	1977.31
867.68	1921.20
867.86	1865.90
868.04	1834.16
868.22	1711.49
868.39	1837.85
868.57	1940.45
868.75	2092.00
868.93	1720.91
869.10	1800.98
869.28	2121.90
869.46	2057.39
869.64	1848.70
869.81	1833.96
869.99	1935.13
870.17	1891.71
870.35	1793.00
870.52	1770.88
870.70	2011.72
870.88	1817.78
871.05	1721.52
871.23	1661.52
871.41	1883.11
871.59	1879.42
871.76	1804.47
871.94	1766.37
872.12	1886.18
872.29	1735.86
872.47	1807.13
872.65	1739.54
872.83	1913.42
873.00	2068.04
873.18	1818.60
873.36	1778.46
873.53	1957.04
873.71	1751.63
873.89	1760.43
874.06	1870.00
874.24	1934.92
874.42	2045.92
874.60	1939.02
874.77	1876.35
874.95	1816.14
875.13	2019.91
875.30	1787.47
875.48	1827.20
875.66	2105.31
875.83	1833.55
876.01	1841.74
876.19	1953.97
876.36	1790.54
876.54	1904.61
876.72	1763.30
876.89	1898.88
877.07	1984.48
877.25	1670.12
877.42	1907.89
877.60	1853.62
877.78	2125.18
877.95	1850.75
878.13	1810.81
878.31	1888.02
878.48	1980.39
878.66	1967.48
878.84	1779.89
879.01	1857.10
879.19	1928.16
879.37	1957.86
879.54	1817.98
879.72	1736.68
879.90	1664.79
880.07	1982.23
880.25	1607.25
880.42	1910.75
880.60	1892.32
880.78	1974.86
880.95	1805.49
881.13	1823.72
881.31	1898.26
881.48	1830.27
881.66	1753.47
881.83	1860.17
882.01	1788.49
882.19	1723.78
882.36	1846.24
882.54	1817.57
882.72	1978.54
882.89	1890.89
883.07	1756.34
883.24	1821.05
883.42	1980.59
883.60	1882.70
883.77	1763.71
883.95	1784.60
884.12	2049.40
884.30	1979.77
884.48	1994.93
884.65	1923.66
884.83	2002.09
885.00	1990.01
885.18	1797.30
885.36	1837.64
885.53	1987.14
885.71	2048.99
885.88	1743.44
886.06	1827.61
886.23	1957.04
886.41	1849.11
886.59	1807.13
886.76	1790.13
886.94	1946.18
887.11	2252.36
887.29	1837.64
887.47	1707.19
887.64	2018.07
887.82	2051.25
887.99	1703.09
888.17	1848.29
888.34	1842.76
888.52	1754.49
888.69	1850.54
888.87	1736.27
889.05	1819.21
889.22	1850.34
889.40	1774.56
889.57	1967.89
889.75	2083.60
889.92	1825.76
890.10	1729.30
890.27	1809.59
890.45	1815.73
890.62	1686.09
890.80	1737.29
890.98	1691.01
891.15	2050.02
891.33	1967.89
891.50	1771.90
891.68	1708.01
891.85	1970.97
892.03	1951.92
892.20	1757.77
892.38	1741.80
892.55	1938.40
892.73	1977.52
892.90	1751.42
893.08	1788.49
893.25	1778.05
893.43	1801.60
893.60	1920.18
893.78	1642.47
893.95	1930.62
894.13	1873.89
894.30	1758.18
894.48	1809.38
894.65	1959.91
894.83	1884.75
895.00	1658.65
895.18	1654.96
895.35	2011.72
895.53	1960.93
895.70	1742.62
895.88	1902.56
896.05	1936.56
896.23	1746.51
896.40	1806.72
896.58	1851.36
896.75	1979.57
896.93	2078.48
897.10	1790.33
897.28	1724.80
897.45	1886.59
897.63	1968.51
897.80	1907.48
897.98	1830.68
898.15	1917.72
898.33	1785.21
898.50	1870.21
898.67	1835.18
898.85	1888.84
899.02	1922.22
899.20	1967.48
899.37	1817.78
899.55	1870.00
899.72	2015.61
899.90	1761.05
900.07	1750.60
900.25	1949.67
900.42	2003.53
900.59	1804.06
900.77	1900.52
900.94	1948.85
901.12	1921.20
901.29	1764.53
901.47	1918.33
901.64	1933.90
901.82	1872.87
901.99	1631.41
902.16	1774.36
902.34	2032.40
902.51	1925.30
902.69	1782.76
902.86	1842.97
903.03	2323.42
903.21	1871.43
903.38	1838.26
903.56	1783.99
903.73	1984.89
903.91	1839.69
904.08	1743.64
904.25	1652.10
904.43	1752.86
904.60	1976.90
904.78	1823.10
904.95	1773.75
905.12	1845.22
905.30	2099.78
905.47	1941.27
905.65	1955.61
905.82	1887.61
905.99	1959.09
906.17	1904.61
906.34	1813.89
906.52	1850.95
906.69	2041.62
906.86	1981.00
907.04	1906.86
907.21	2059.23
907.38	2042.23
907.56	1780.50
907.73	1813.68
907.91	2081.97
908.08	2049.61
908.25	1786.44
908.43	1762.69
908.60	1961.34
908.77	1906.45
908.95	1815.11
909.12	1755.52
909.30	1972.19
909.47	1728.08
909.64	1845.83
909.82	1934.51
909.99	1860.58
910.16	1895.40
910.34	1783.37
910.51	1820.23
910.68	1918.74
910.86	1878.60
911.03	1748.35
911.20	1932.05
911.38	2481.52
911.55	3231.49
911.72	3482.98
911.90	3599.71
912.07	3904.66
912.24	3911.21
912.42	3241.12
912.59	2675.26
912.76	2735.06
912.94	2476.61
913.11	2323.83
913.28	2159.17
913.46	2090.77
913.63	2202.18
913.80	2346.56
913.98	2012.54
914.15	2194.60
914.32	2210.78
914.49	2037.32
914.67	1908.91
914.84	2060.87
915.01	2119.03
915.19	1982.64
915.36	1890.28
915.53	2060.26
915.71	2030.77
915.88	1932.05
916.05	1807.95
916.22	2013.77
916.40	1922.43
916.57	1755.52
916.74	1911.78
916.92	2052.47
917.09	1766.99
917.26	1756.34
917.43	1739.54
917.61	1832.32
917.78	1727.46
917.95	1670.73
918.13	1722.14
918.30	2126.61
918.47	1905.63
918.64	1762.69
918.82	1793.41
918.99	1919.15
919.16	2136.44
919.33	1889.66
919.51	1842.97
919.68	1944.96
919.85	2093.43
920.02	1731.97
920.20	1858.12
920.37	2123.54
920.54	2022.98
920.71	1778.05
920.89	1806.10
921.06	2134.19
921.23	1805.28
921.40	1790.13
921.58	2034.25
921.75	2543.37
921.92	2141.97
922.09	2197.27
922.27	2200.95
922.44	2207.51
922.61	2164.50
922.78	1940.04
922.96	1927.75
923.13	1919.36
923.30	2047.35
923.47	1767.81
923.64	1860.37
923.82	1990.83
923.99	1967.89
924.16	1902.56
924.33	1788.08
924.50	1928.98
924.68	2101.42
924.85	1751.01
925.02	1818.60
925.19	2014.59
925.36	1923.04
925.54	1859.97
925.71	1862.63
925.88	2283.08
926.05	1835.59
926.22	1732.17
926.40	1846.24
926.57	1912.60
926.74	1972.60
926.91	1793.82
927.08	1972.81
927.26	1988.78
927.43	1896.62
927.60	1743.03
927.77	1826.79
927.94	2059.03
928.11	2017.66
928.29	1712.92
928.46	1825.76
928.63	1775.38
928.80	1860.58
928.97	1908.71
929.14	1752.24
929.32	2125.79
929.49	1880.24
929.66	1751.42
929.83	1712.10
930.00	1821.67
930.17	1933.90
930.35	1711.28
930.52	1778.87
930.69	2069.68
930.86	1744.87
931.03	1858.74
931.20	1652.92
931.37	2011.92
931.55	1877.17
931.72	1844.40
931.89	1686.30
932.06	1762.48
932.23	2080.53
932.40	1881.26
932.57	1894.78
932.74	2061.28
932.92	2005.37
933.09	1915.67
933.26	1561.37
933.43	1823.72
933.60	1936.97
933.77	1847.27
933.94	1852.59
934.11	1864.06
934.29	1885.97
934.46	1725.00
934.63	1859.56
934.80	1737.09
934.97	1872.46
935.14	1820.44
935.31	1703.91
935.48	1816.75
935.65	1909.32
935.82	1873.89
936.00	1725.82
936.17	2082.78
936.34	1859.56
936.51	1900.72
936.68	1729.92
936.85	1912.39
937.02	1920.59
937.19	1874.10
937.36	1810.61
937.53	1938.81
937.70	1985.30
937.87	1829.86
938.05	1883.52
938.22	1908.30
938.39	1752.65
938.56	1807.33
938.73	1746.92
938.90	1827.40
939.07	1776.20
939.24	1867.34
939.41	1653.73
939.58	1957.45
939.75	1938.20
939.92	1770.06
940.09	1969.12
940.26	1828.22
940.43	2014.79
940.60	1794.02
940.77	1784.60
940.95	1908.71
941.12	1957.04
941.29	1780.50
941.46	1845.02
941.63	2018.48
941.80	2054.73
941.97	1696.33
942.14	1697.36
942.31	1945.16
942.48	1865.90
942.65	1885.36
942.82	1797.91
942.99	1932.26
943.16	1893.55
943.33	1717.02
943.50	1794.64
943.67	1978.13
943.84	2020.73
944.01	1779.07
944.18	1719.88
944.35	2029.33
944.52	1758.59
944.69	1834.98
944.86	1721.11
945.03	1980.80
945.20	2191.94
945.37	1635.30
945.54	1855.66
945.71	2045.92
945.88	2098.96
946.05	1723.57
946.22	1736.06
946.39	2033.84
946.56	1865.90
946.73	1704.52
946.90	1729.30
947.07	1803.44
947.24	1849.32
947.41	1682.82
947.58	1907.48
947.75	1970.97
947.92	1938.61
948.09	1617.69
948.26	1670.94
948.43	1897.44
948.60	2106.13
948.77	1759.41
948.94	1762.07
949.11	1976.90
949.27	1927.55
949.44	1754.29
949.61	1742.82
949.78	1909.12
949.95	2027.90
950.12	1729.71
950.29	1692.85
950.46	1811.02
950.63	2005.58
950.80	1771.90
950.97	1826.99
951.14	2009.67
951.31	1849.93
951.48	1745.69
951.65	1724.39
951.82	2125.38
951.99	1901.13
952.15	1674.21
952.32	1778.25
952.49	1809.99
952.66	1807.33
952.83	1742.62
953.00	1738.11
953.17	1851.16
953.34	1977.93
953.51	1819.83
953.68	1786.85
953.85	2020.32
954.02	1987.96
954.18	1814.09
954.35	1809.38
954.52	1776.61
954.69	1881.47
954.86	1651.69
955.03	1805.28
955.20	1963.18
955.37	1869.80
955.54	1761.66
955.71	1761.05
955.87	1933.49
956.04	2075.62
956.21	1801.39
956.38	1744.46
956.55	1868.36
956.72	2192.76
956.89	1810.81
957.06	1761.46
957.23	1802.62
957.39	2029.54
957.56	1766.78
957.73	1722.55
957.90	1612.57
958.07	2104.08
958.24	1831.09
958.41	1777.02
958.57	1979.36
958.74	1871.64
958.91	1714.15
959.08	1729.92
959.25	1975.68
959.42	1858.12
959.59	1829.45
959.75	1787.26
959.92	2036.30
960.09	2034.25
960.26	1743.85
960.43	1847.06
960.60	1927.75
960.76	1858.74
960.93	1686.91
961.10	1828.63
961.27	1973.83
961.44	1847.47
961.61	1719.27
961.77	1713.33
961.94	1901.13
962.11	2000.66
962.28	1802.62
962.45	1719.27
962.62	1851.57
962.78	2028.51
962.95	1746.10
963.12	1780.71
963.29	1948.03
963.46	2240.48
963.62	1826.58
963.79	1740.57
963.96	2190.10
964.13	1836.82
964.30	1874.10
964.46	1789.72
964.63	1746.92
964.80	2226.14
964.97	1671.14
965.14	1928.37
965.30	2005.58
965.47	2058.21
965.64	2004.96
965.81	1933.90
965.98	2129.27
966.14	1973.63
966.31	1830.27
966.48	1796.48
966.65	2045.51
966.81	1974.04
966.98	1807.33
967.15	1838.46
967.32	1915.67
967.49	1842.56
967.65	1664.18
967.82	1654.35
967.99	1869.18
968.16	1700.84
968.32	1925.09
968.49	1792.38
968.66	1866.52
968.83	2055.96
968.99	1848.29
969.16	1722.55
969.33	2026.67
969.50	1961.13
969.66	1893.35
969.83	1983.05
970.00	1960.32
970.17	1938.61
970.33	1791.77
970.50	1687.32
970.67	2071.52
970.84	2051.25
971.00	1720.70
971.17	1689.57
971.34	1961.34
971.50	1879.83
971.67	1875.53
971.84	1835.39
972.01	1735.86
972.17	1638.58
972.34	1725.00
972.51	1875.32
972.67	2019.91
972.84	1919.56
973.01	1730.12
973.18	1743.23
973.34	2005.37
973.51	1764.33
973.68	1782.96
973.84	1817.16
974.01	1819.62
974.18	2116.78
974.34	1851.98
974.51	1860.58
974.68	1796.27
974.85	2123.33
975.01	1893.96
975.18	1786.24
975.35	1860.99
975.51	1770.88
975.68	1665.41
975.85	1909.12
976.01	1799.35
976.18	2059.23
976.35	1776.20
976.51	1772.11
976.68	2075.00
976.85	2017.86
977.01	1816.55
977.18	1857.51
977.35	1933.08
977.51	1726.64
977.68	1627.93
977.85	1703.09
978.01	1993.70
978.18	1964.21
978.35	1834.37
978.51	1829.86
978.68	2028.72
978.85	2069.88
979.01	1775.38
979.18	1807.74
979.34	1854.23
979.51	1920.59
979.68	1731.35
979.84	1823.31
980.01	2199.72
980.18	1883.72
980.34	1736.27
980.51	1848.91
980.67	2018.07
980.84	1971.99
981.01	1818.60
981.17	1865.49
981.34	1685.27
981.51	1962.16
981.67	1722.34
981.84	1889.87
982.00	1955.20
982.17	1844.81
982.34	1675.65
982.50	1589.43
982.67	2067.83
982.83	1816.55
983.00	1717.43
983.17	1616.05
983.33	2001.48
983.50	1709.64
983.66	1696.54
983.83	1603.56
984.00	1812.66
984.16	1867.13
984.33	1640.83
984.49	1598.44
984.66	1761.87
984.83	1986.12
984.99	1654.14
985.16	1604.58
985.32	1941.68
985.49	1985.10
985.65	1740.36
985.82	1621.17
985.99	2048.38
986.15	1865.70
986.32	1721.32
986.48	1669.30
986.65	1822.69
986.81	1969.33
986.98	1612.78
987.14	1673.40
987.31	1885.56
987.48	1691.62
987.64	1558.71
987.81	1586.56
987.97	2106.13
988.14	1771.70
988.30	1634.28
988.47	1517.54
988.63	1935.33
988.80	1734.63
988.96	1701.45
989.13	1732.17
989.30	1831.09
989.46	1978.75
989.63	1567.31
989.79	1586.97
989.96	1862.63
990.12	2069.06
990.29	1635.30
990.45	1677.08
990.62	1866.11
990.78	2022.78
990.95	1749.37
991.11	1660.08
991.28	1815.32
991.44	1906.45
991.61	1556.05
991.77	1678.92
991.94	1888.02
992.10	2015.41
992.27	1703.50
992.43	1649.23
992.60	1934.10
992.76	1836.00
992.93	1796.89
993.09	1602.33
993.26	1975.88
993.42	2089.34
993.59	1641.45
993.75	1571.00
993.92	1788.70
994.08	1754.90
994.25	1736.27
994.41	1603.15
994.58	1976.09
994.74	2049.61
994.91	1614.21
995.07	1727.67
995.24	1854.44
995.40	1878.19
995.56	1781.53
995.73	1724.39
995.89	2077.05
996.06	1836.82
996.22	1622.20
996.39	1566.49
996.55	1866.31
996.72	1888.84
996.88	1568.54
997.05	1626.29
997.21	2139.51
997.37	1950.69
997.54	1718.45
997.70	1676.67
997.87	1928.16
998.03	1850.75
998.20	1595.37
998.36	1582.47
998.52	1926.52
998.69	1979.57
998.85	1567.72
999.02	1668.48
999.18	1977.72
999.35	1978.95
999.51	1684.04
999.67	1656.19
999.84	1749.37
1000.00	1979.16
1000.17	1740.36
1000.33	1607.25
1000.49	1800.16
1000.66	1846.04
1000.82	1619.94
1000.99	1726.44
1001.15	2003.53
1001.31	1842.56
1001.48	1655.17
1001.64	1725.41
1001.81	1849.73
1001.97	2126.00
1002.13	1632.44
1002.30	1666.64
1002.46	2037.93
1002.63	1836.82
1002.79	1707.80
1002.95	1614.62
1003.12	1998.41
1003.28	1927.96
1003.45	1627.11
1003.61	1603.76
1003.77	1886.59
1003.94	1720.29
1004.10	1649.02
1004.26	1696.95
1004.43	1957.86
1004.59	2072.34
1004.75	1626.50
1004.92	1638.78
1005.08	1835.39
1005.25	1896.42
1005.41	1652.92
1005.57	1691.62
1005.74	2011.72
1005.90	1818.39
1006.06	1748.35
1006.23	1649.23
1006.39	1963.80
1006.55	2198.29
1006.72	1819.01
1006.88	1611.75
1007.04	1757.98
1007.21	1840.10
1007.37	1662.34
1007.53	1649.23
1007.70	2053.70
1007.86	1975.27
1008.02	1721.73
1008.19	1609.09
1008.35	1893.35
1008.51	1761.46
1008.68	1667.05
1008.84	1564.85
1009.00	1771.70
1009.17	1990.22
1009.33	1776.61
1009.49	1739.14
1009.65	1788.90
1009.82	1920.99
1009.98	1715.58
1010.14	1549.70
1010.31	1975.68
1010.47	1930.82
1010.63	1721.32
1010.80	1697.15
1010.96	1907.68
1011.12	1861.81
1011.28	1660.49
1011.45	1629.77
1011.61	2208.94
1011.77	1777.23
1011.94	1640.83
1012.10	1580.62
1012.26	1735.04
1012.42	1783.99
1012.59	1706.98
1012.75	1694.69
1012.91	1851.57
1013.07	1992.47
1013.24	1602.33
1013.40	1641.45
1013.56	1892.32
1013.72	1855.66
1013.89	1717.43
1014.05	1738.11
1014.21	2117.19
1014.37	2169.62
1014.54	1709.85
1014.70	1605.61
1014.86	1840.92
1015.02	1722.75
1015.19	1654.55
1015.35	1596.60
1015.51	1834.37
1015.67	1821.05
1015.84	1657.01
1016.00	1649.02
1016.16	2011.51
1016.32	1955.81
1016.49	1616.05
1016.65	1600.28
1016.81	1851.36
1016.97	1930.01
1017.14	1762.69
1017.30	1638.78
1017.46	1806.72
1017.62	1930.82
1017.78	1692.85
1017.95	1617.90
1018.11	1980.18
1018.27	2189.48
1018.43	1772.72
1018.59	1720.29
1018.76	1975.47
1018.92	2203.61
1019.08	1607.86
1019.24	1655.58
1019.40	2055.96
1019.57	1893.14
1019.73	1754.09
1019.89	1677.08
1020.05	1902.56
1020.21	2110.02
1020.38	1617.49
1020.54	1793.00
1020.70	1959.09
1020.86	1956.01
1021.02	1663.36
1021.18	1650.87
1021.35	1818.39
1021.51	1947.82
1021.67	1777.02
1021.83	1647.59
1021.99	1876.35
1022.15	1906.04
1022.32	1730.94
1022.48	1691.21
1022.64	2039.78
1022.80	2047.97
1022.96	1714.56
1023.12	1591.68
1023.29	1994.11
1023.45	1919.36
1023.61	1642.88
1023.77	1800.78
1023.93	1906.86
1024.09	1772.93
1024.25	1633.87
1024.42	1599.46
1024.58	1822.28
1024.74	1897.24
1024.90	1661.93
1025.06	1701.45
1025.22	1820.44
1025.38	2063.12
1025.54	1600.69
1025.71	1734.02
1025.87	1933.28
1026.03	1934.72
1026.19	1627.52
1026.35	1781.73
1026.51	1946.80
1026.67	1858.53
1026.83	1679.95
1026.99	1771.49
1027.16	1943.93
1027.32	1867.75
1027.48	1673.19
1027.64	1615.64
1027.80	1970.35
1027.96	1907.89
1028.12	1678.31
1028.28	1642.47
1028.44	1916.90
1028.60	2076.23
1028.77	1783.37
1028.93	1724.80
1029.09	1803.65
1029.25	1738.32
1029.41	1693.47
1029.57	1753.06
1029.73	1883.72
1029.89	2050.22
1030.05	1761.05
1030.21	1725.00
1030.37	2170.44
1030.53	1945.37
1030.69	1680.97
1030.85	1620.35
1031.02	1773.95
1031.18	1875.73
1031.34	1677.08
1031.50	1741.59
1031.66	1775.59
1031.82	2062.30
1031.98	1709.64
1032.14	1622.61
1032.30	1780.91
1032.46	1997.38
1032.62	1789.11
1032.78	1616.46
1032.94	1828.02
1033.10	1822.69
1033.26	1709.85
1033.42	1729.30
1033.58	2136.03
1033.74	1814.30
1033.90	1664.79
1034.06	1823.10
1034.22	2150.98
1034.38	1986.53
1034.54	1682.20
1034.70	1699.40
1034.86	2097.32
>>>>>End Processed Spectral Data<<<<<
