SpectraSuite Data File
++++++++++++++++++++++++++++++++++++
Date: Thu Mar 30 15:59:31 PDT 2017
User: UCSD _CER
Dark Spectrum Present: No
Reference Spectrum Present: No
Number of Sampled Component Spectra: 1
Spectrometers: USB4C00073
Integration Time (usec): 250000 (USB4C00073)
Spectra Averaged: 10 (USB4C00073)
Boxcar Smoothing: 0 (USB4C00073)
Correct for Electrical Dark: No (USB4C00073)
Strobe/Lamp Enabled: No (USB4C00073)
Correct for Detector Non-linearity: No (USB4C00073)
Correct for Stray Light: No (USB4C00073)
Number of Pixels in Processed Spectrum: 3648
>>>>>Begin Processed Spectral Data<<<<<
345.37	1281.62
345.58	1281.62
345.80	1281.62
346.01	1268.31
346.22	1273.63
346.43	1972.81
346.65	1752.45
346.86	2110.64
347.07	2086.27
347.28	1796.48
347.50	1769.04
347.71	1921.61
347.92	1712.31
348.13	1804.06
348.35	1724.59
348.56	1931.64
348.77	1783.78
348.98	1781.53
349.20	1676.88
349.41	1947.82
349.62	2016.43
349.83	1872.05
350.05	1730.33
350.26	1941.68
350.47	2090.57
350.68	1773.34
350.90	1728.90
351.11	2115.55
351.32	2074.80
351.53	1850.13
351.75	1741.80
351.96	1974.65
352.17	1896.01
352.38	1866.93
352.60	1894.78
352.81	1935.13
353.02	2159.58
353.23	1812.86
353.44	1803.85
353.66	1892.32
353.87	1904.41
354.08	1915.06
354.29	1830.47
354.51	1845.42
354.72	1906.45
354.93	1789.31
355.14	1753.06
355.35	1755.72
355.57	2054.11
355.78	1832.73
355.99	1901.95
356.20	1956.22
356.42	1912.60
356.63	1923.66
356.84	1878.40
357.05	2055.14
357.26	2223.48
357.48	1926.11
357.69	1882.70
357.90	2011.72
358.11	1889.87
358.32	1856.48
358.54	1866.93
358.75	1890.89
358.96	2041.21
359.17	1817.37
359.38	1807.13
359.60	1997.38
359.81	1901.95
360.02	1813.48
360.23	1799.14
360.44	1828.84
360.66	2063.74
360.87	1757.98
361.08	1740.36
361.29	1960.11
361.50	1927.96
361.72	1800.98
361.93	1856.48
362.14	1970.97
362.35	1755.11
362.56	1901.13
362.77	1708.42
362.99	1972.19
363.20	1916.69
363.41	1881.47
363.62	1713.13
363.83	1981.61
364.05	2024.21
364.26	1711.08
364.47	1779.07
364.68	2018.07
364.89	1826.58
365.10	1733.20
365.32	1806.51
365.53	1804.87
365.74	1849.11
365.95	1814.50
366.16	1706.37
366.37	1908.91
366.59	1849.52
366.80	1802.83
367.01	1677.70
367.22	2150.57
367.43	2272.84
367.64	1808.15
367.86	1808.97
368.07	1951.92
368.28	2081.76
368.49	1744.05
368.70	1854.64
368.91	1873.28
369.12	1905.43
369.34	1741.80
369.55	1742.82
369.76	1915.06
369.97	1828.84
370.18	1746.10
370.39	1762.48
370.60	1744.05
370.82	1815.52
371.03	1788.08
371.24	1778.05
371.45	1985.10
371.66	1974.04
371.87	1834.37
372.08	1799.96
372.30	1816.34
372.51	2051.45
372.72	1930.42
372.93	1825.76
373.14	2151.80
373.35	1857.30
373.56	1752.45
373.78	1809.18
373.99	2043.05
374.20	2293.52
374.41	1823.92
374.62	1819.83
374.83	2124.56
375.04	1892.32
375.25	1808.15
375.47	1798.32
375.68	1883.93
375.89	2013.15
376.10	1845.63
376.31	1900.52
376.52	1983.05
376.73	1966.05
376.94	1837.23
377.15	1805.49
377.37	1921.40
377.58	1891.50
377.79	1694.49
378.00	1784.60
378.21	1983.87
378.42	1978.75
378.63	1829.45
378.84	1910.75
379.05	2063.12
379.27	1951.92
379.48	1942.50
379.69	1782.96
379.90	2089.54
380.11	1714.15
380.32	1846.04
380.53	1955.40
380.74	2123.13
380.95	1963.18
381.16	1837.85
381.37	1832.52
381.59	2128.04
381.80	2067.22
382.01	1788.90
382.22	1734.63
382.43	2016.84
382.64	1957.24
382.85	1775.59
383.06	1903.79
383.27	2021.14
383.48	1922.84
383.69	1890.28
383.91	1807.13
384.12	2078.07
384.33	2071.32
384.54	1960.52
384.75	1838.26
384.96	2437.08
385.17	2158.35
385.38	1921.61
385.59	1875.73
385.80	2075.41
386.01	2168.80
386.22	1963.39
386.43	1921.40
386.64	2278.98
386.86	1979.57
387.07	2027.08
387.28	1799.35
387.49	1916.69
387.70	2180.68
387.91	1962.98
388.12	1803.03
388.33	2063.33
388.54	1881.88
388.75	1847.88
388.96	1883.52
389.17	1881.47
389.38	1892.94
389.59	1884.95
389.80	1866.93
390.01	1931.23
390.22	1893.35
390.43	1936.56
390.64	1723.16
390.86	1987.55
391.07	2096.30
391.28	1839.08
391.49	1858.53
391.70	1766.78
391.91	1844.20
392.12	1873.07
392.33	1854.44
392.54	1969.12
392.75	1922.84
392.96	1930.21
393.17	1803.85
393.38	2205.05
393.59	2072.95
393.80	1750.19
394.01	1875.73
394.22	1953.56
394.43	2217.75
394.64	1801.80
394.85	1970.97
395.06	1943.93
395.27	1965.64
395.48	1825.35
395.69	1754.70
395.90	1917.51
396.11	1928.57
396.32	1789.31
396.53	1927.96
396.74	1916.90
396.95	2051.45
397.16	1795.25
397.37	1727.87
397.58	2020.32
397.79	1930.82
398.00	1888.23
398.21	1822.49
398.42	1931.03
398.63	2195.01
398.84	1823.10
399.05	1783.58
399.26	2099.78
399.47	1970.15
399.68	1649.23
399.89	1787.06
400.10	1806.31
400.31	1905.84
400.52	1875.73
400.73	1870.00
400.94	1820.23
401.15	2003.32
401.36	1862.42
401.57	1907.27
401.78	2086.47
401.99	2037.32
402.20	1758.39
402.41	1953.76
402.62	2150.98
402.83	1945.37
403.04	1843.79
403.25	1989.81
403.46	2016.63
403.67	2157.13
403.88	1903.18
404.09	1895.80
404.30	1955.81
404.51	1905.02
404.72	1830.47
404.93	1947.00
405.14	1877.17
405.35	1957.45
405.56	1820.85
405.77	1824.33
405.98	1956.01
406.19	1924.68
406.40	1811.63
406.61	1881.67
406.82	1943.32
407.03	2328.54
407.24	1818.80
407.45	1910.96
407.66	2011.72
407.87	2068.24
408.08	1909.94
408.29	1915.67
408.49	2024.01
408.70	1929.19
408.91	1856.89
409.12	1895.80
409.33	1813.27
409.54	2092.61
409.75	1831.09
409.96	1813.27
410.17	2047.76
410.38	1924.07
410.59	1814.71
410.80	1931.03
411.01	1920.79
411.22	1906.86
411.43	1870.21
411.64	1801.80
411.85	1823.10
412.06	1811.63
412.27	1680.36
412.47	1786.44
412.68	1936.76
412.89	1979.36
413.10	1841.12
413.31	1736.47
413.52	2180.27
413.73	2190.92
413.94	1782.35
414.15	1928.98
414.36	1870.82
414.57	1822.08
414.78	1806.31
414.99	1989.60
415.19	2349.43
415.40	2338.58
415.61	2455.51
415.82	2292.50
416.03	2376.67
416.24	2199.52
416.45	2028.72
416.66	1884.34
416.87	1823.92
417.08	2021.35
417.29	1814.50
417.50	1950.08
417.70	2085.86
417.91	2093.84
418.12	1974.04
418.33	1992.47
418.54	2147.50
418.75	2323.83
418.96	2339.19
419.17	2447.73
419.38	2884.97
419.59	2827.02
419.79	2664.20
420.00	2524.53
420.21	2798.34
420.42	2258.70
420.63	2035.27
420.84	2034.04
421.05	1979.98
421.26	1989.81
421.47	1770.06
421.67	2092.61
421.88	1867.13
422.09	1849.52
422.30	2076.03
422.51	1921.61
422.72	2248.46
422.93	2072.75
423.14	1870.41
423.35	1758.18
423.55	1756.13
423.76	1846.86
423.97	1859.15
424.18	1734.22
424.39	1920.99
424.60	2061.28
424.81	1866.31
425.02	2073.77
425.22	2164.50
425.43	2173.92
425.64	2359.46
425.85	2287.38
426.06	2632.46
426.27	2431.96
426.48	2334.68
426.68	2300.48
426.89	2398.38
427.10	2483.57
427.31	2069.27
427.52	1956.83
427.73	2141.56
427.94	2067.83
428.14	1966.46
428.35	1901.54
428.56	2156.51
428.77	2044.08
428.98	1931.03
429.19	1975.47
429.40	2042.64
429.60	2060.26
429.81	2138.08
430.02	2023.19
430.23	2041.62
430.44	2130.50
430.65	1870.00
430.85	1902.15
431.06	2022.16
431.27	1753.47
431.48	1854.64
431.69	1889.87
431.90	1946.18
432.10	1947.62
432.31	2005.78
432.52	2039.57
432.73	2530.06
432.94	2499.75
433.15	2313.18
433.35	2132.55
433.56	2343.08
433.77	2212.63
433.98	2626.32
434.19	2777.25
434.40	3024.03
434.60	3003.55
434.81	2922.66
435.02	2568.56
435.23	2381.99
435.44	2231.67
435.64	1974.24
435.85	1901.54
436.06	1952.12
436.27	1960.32
436.48	1874.92
436.68	1993.08
436.89	2326.08
437.10	2232.29
437.31	2073.57
437.52	2161.22
437.73	2164.91
437.93	2117.19
438.14	2002.09
438.35	1796.27
438.56	1955.81
438.77	1941.47
438.97	1984.48
439.18	1894.37
439.39	2285.94
439.60	2084.42
439.80	2054.93
440.01	2159.79
440.22	2071.11
440.43	2148.73
440.64	1847.88
440.84	1941.47
441.05	1839.08
441.26	2313.39
441.47	1915.67
441.68	1916.69
441.88	2289.63
442.09	2405.54
442.30	2640.24
442.51	2589.04
442.71	2520.84
442.92	2394.69
443.13	2176.17
443.34	2015.00
443.55	1996.97
443.75	2112.89
443.96	1828.84
444.17	1779.48
444.38	2047.76
444.58	1824.94
444.79	1901.54
445.00	1850.95
445.21	1936.76
445.41	1909.32
445.62	1658.45
445.83	1900.92
446.04	1949.67
446.24	1794.02
446.45	1678.92
446.66	1829.45
446.87	1975.88
447.07	1876.96
447.28	2045.51
447.49	1920.38
447.70	2119.24
447.90	2119.44
448.11	1906.45
448.32	1969.33
448.53	2131.32
448.73	2114.12
448.94	1830.88
449.15	1969.12
449.36	1930.82
449.56	1975.06
449.77	1803.03
449.98	1760.84
450.19	1919.97
450.39	1991.24
450.60	2019.50
450.81	2015.41
451.02	2101.63
451.22	2215.49
451.43	1879.42
451.64	1864.47
451.84	1951.71
452.05	2131.12
452.26	1921.81
452.47	1862.42
452.67	1879.01
452.88	2106.34
453.09	1806.72
453.30	1783.58
453.50	2070.09
453.71	2234.54
453.92	1996.56
454.12	2127.43
454.33	2051.86
454.54	2078.07
454.75	1864.68
454.95	1844.81
455.16	2006.80
455.37	2039.57
455.57	1894.78
455.78	1860.17
455.99	1919.56
456.19	1936.35
456.40	1783.78
456.61	1874.10
456.82	1957.45
457.02	2124.77
457.23	2065.58
457.44	2218.56
457.64	2090.36
457.85	2214.88
458.06	2020.53
458.26	2133.57
458.47	2077.05
458.68	2221.43
458.89	1969.33
459.09	2127.84
459.30	2300.69
459.51	2043.67
459.71	1801.60
459.92	1902.15
460.13	2202.39
460.33	2422.34
460.54	2049.40
460.75	2083.81
460.95	2019.30
461.16	2134.80
461.37	1911.98
461.57	1933.28
461.78	1993.29
461.99	1835.80
462.19	2088.52
462.40	1846.86
462.61	2211.40
462.81	2089.34
463.02	1815.93
463.23	1839.49
463.43	2057.18
463.64	1905.84
463.85	2782.37
464.05	1847.68
464.26	2334.89
464.47	2111.46
464.67	1991.44
464.88	1973.63
465.09	2003.53
465.29	2133.57
465.50	2184.16
465.71	2107.56
465.91	2020.32
466.12	2001.07
466.33	1936.56
466.53	1853.21
466.74	2142.79
466.94	1932.46
467.15	1884.13
467.36	2029.33
467.56	1843.79
467.77	1973.42
467.98	1882.90
468.18	1835.59
468.39	1888.02
468.60	2167.57
468.80	1897.44
469.01	1823.51
469.21	1986.32
469.42	2086.47
469.63	1902.15
469.83	1818.39
470.04	2080.33
470.25	2151.60
470.45	1925.09
470.66	1825.15
470.86	1970.56
471.07	1869.59
471.28	1955.20
471.48	1999.02
471.69	1998.41
471.90	2554.84
472.10	2056.57
472.31	2128.45
472.51	2155.08
472.72	2227.99
472.93	2135.01
473.13	2318.51
473.34	2351.89
473.54	2296.80
473.75	2113.30
473.96	2179.65
474.16	2047.56
474.37	2056.98
474.57	1967.89
474.78	1856.28
474.99	2034.86
475.19	1992.06
475.40	1855.46
475.60	1855.66
475.81	2359.46
476.02	2190.92
476.22	2226.55
476.43	2291.27
476.63	2112.48
476.84	2198.29
477.05	1784.60
477.25	1902.36
477.46	2354.96
477.66	1993.90
477.87	1801.19
478.08	1872.87
478.28	2055.75
478.49	1911.57
478.69	1800.78
478.90	1833.34
479.10	2011.51
479.31	2125.18
479.52	1903.59
479.72	2221.84
479.93	2613.41
480.13	2621.20
480.34	2607.88
480.54	2729.94
480.75	2348.82
480.96	2367.04
481.16	2014.38
481.37	2113.30
481.57	2183.54
481.78	2151.80
481.98	2156.31
482.19	2005.37
482.40	2267.31
482.60	2035.27
482.81	1931.23
483.01	1816.34
483.22	2022.37
483.42	2062.71
483.63	1928.98
483.83	1954.58
484.04	2018.07
484.24	2229.01
484.45	2145.66
484.66	1995.54
484.86	2183.75
485.07	1941.27
485.27	1949.46
485.48	1864.27
485.68	2164.70
485.89	1891.30
486.09	1976.70
486.30	1877.37
486.50	1972.60
486.71	1931.23
486.91	1951.30
487.12	2339.60
487.33	2952.76
487.53	3113.32
487.74	2910.98
487.94	2920.20
488.15	2636.55
488.35	2406.16
488.56	2152.82
488.76	2089.34
488.97	2138.28
489.17	2174.12
489.38	2033.22
489.58	2011.31
489.79	2141.77
489.99	2065.79
490.20	1944.55
490.40	2003.32
490.61	2028.51
490.81	1911.98
491.02	1888.43
491.22	1976.29
491.43	2035.27
491.63	1948.64
491.84	2005.58
492.04	1783.17
492.25	2037.73
492.45	1935.33
492.66	1896.62
492.86	1856.07
493.07	2026.26
493.27	2309.90
493.48	1765.76
493.68	1906.04
493.89	1941.06
494.09	2073.36
494.30	1832.52
494.50	2104.29
494.71	2002.71
494.91	1781.32
495.12	1850.34
495.32	1932.26
495.53	1955.20
495.73	1893.96
495.94	2068.65
496.14	1984.28
496.35	2429.30
496.55	2140.13
496.76	2003.94
496.96	2009.26
497.17	2014.59
497.37	2045.31
497.58	1883.72
497.78	1817.57
497.98	1931.64
498.19	1924.89
498.39	1909.73
498.60	1955.40
498.80	1759.21
499.01	2021.55
499.21	1785.21
499.42	1902.77
499.62	1901.33
499.83	2234.33
500.03	1816.34
500.24	2055.75
500.44	2283.49
500.64	2265.67
500.85	2066.40
501.05	2136.85
501.26	1875.73
501.46	2227.17
501.67	1912.19
501.87	1889.05
502.08	1884.54
502.28	1935.74
502.48	1982.23
502.69	2011.92
502.89	1778.87
503.10	1841.53
503.30	1908.09
503.51	1909.94
503.71	1789.11
503.92	2023.60
504.12	1933.69
504.32	1886.59
504.53	2022.37
504.73	2070.91
504.94	2006.19
505.14	2076.44
505.35	2111.87
505.55	2115.14
505.75	2082.17
505.96	2206.48
506.16	2385.06
506.37	2001.48
506.57	1899.29
506.78	1983.05
506.98	2136.44
507.18	1823.51
507.39	1872.46
507.59	1948.23
507.80	1906.04
508.00	1983.46
508.20	2046.13
508.41	1925.50
508.61	2122.72
508.82	2072.95
509.02	2019.30
509.22	1830.68
509.43	1858.74
509.63	1860.37
509.84	1883.93
510.04	1774.77
510.24	2129.27
510.45	2038.96
510.65	1800.57
510.86	1908.30
511.06	1819.01
511.26	2029.54
511.47	1987.96
511.67	1807.95
511.88	2003.73
512.08	2057.39
512.28	1798.73
512.49	1971.17
512.69	1974.65
512.90	1979.36
513.10	1849.11
513.30	1916.08
513.51	2045.51
513.71	2225.12
513.91	2061.08
514.12	2060.87
514.32	2155.90
514.53	1961.95
514.73	2002.30
514.93	1913.21
515.14	1998.41
515.34	2162.45
515.54	1921.40
515.75	1978.95
515.95	2075.62
516.15	2132.14
516.36	1988.99
516.56	1992.67
516.77	1721.11
516.97	2008.44
517.17	1885.16
517.38	1965.44
517.58	2129.68
517.78	1906.66
517.99	1979.98
518.19	1949.05
518.39	2164.50
518.60	1935.74
518.80	1861.19
519.00	2007.01
519.21	1950.28
519.41	2174.53
519.61	1879.01
519.82	1984.89
520.02	1932.05
520.22	1911.57
520.43	1863.24
520.63	1863.04
520.83	1856.89
521.04	1750.40
521.24	1967.48
521.44	1874.71
521.65	1842.97
521.85	2032.61
522.05	1812.04
522.26	1868.77
522.46	2169.41
522.66	2058.21
522.87	1825.56
523.07	2017.86
523.27	1887.20
523.48	2120.26
523.68	1910.35
523.88	1904.61
524.09	2059.64
524.29	1957.65
524.49	1726.64
524.70	1984.28
524.90	2083.40
525.10	1982.84
525.31	1795.45
525.51	1812.86
525.71	2051.66
525.91	2013.97
526.12	1835.18
526.32	1790.13
526.52	1873.89
526.73	1876.96
526.93	1918.54
527.13	1766.17
527.34	1938.61
527.54	1937.38
527.74	1856.48
527.94	1806.31
528.15	1832.93
528.35	1938.40
528.55	1996.97
528.76	1936.76
528.96	1721.73
529.16	2048.38
529.36	2006.80
529.57	1787.67
529.77	2067.63
529.97	1797.91
530.18	1959.29
530.38	1848.50
530.58	2016.63
530.78	1969.94
530.99	1844.81
531.19	1967.28
531.39	1871.43
531.60	1924.27
531.80	1845.02
532.00	2017.45
532.20	1944.75
532.41	1857.10
532.61	1859.97
532.81	1866.11
533.01	1893.96
533.22	2044.08
533.42	2001.68
533.62	1764.94
533.82	2114.94
534.03	1935.74
534.23	1975.06
534.43	1831.09
534.63	1901.13
534.84	1987.35
535.04	1947.21
535.24	1959.50
535.44	2294.54
535.65	1924.27
535.85	1876.35
536.05	1842.97
536.25	1961.34
536.46	1851.16
536.66	2065.79
536.86	1952.12
537.06	2043.46
537.27	2073.16
537.47	1999.64
537.67	1880.65
537.87	2132.75
538.08	1917.72
538.28	1800.16
538.48	1795.04
538.68	1953.76
538.88	2018.48
539.09	1756.95
539.29	1868.98
539.49	2074.39
539.69	2000.87
539.90	1996.77
540.10	1822.49
540.30	2124.56
540.50	1898.47
540.70	1810.40
540.91	1920.38
541.11	2065.17
541.31	2142.18
541.51	1954.79
541.72	1964.82
541.92	1999.64
542.12	1867.95
542.32	1876.35
542.52	1868.57
542.73	1855.87
542.93	2007.42
543.13	1911.57
543.33	1983.66
543.53	2053.29
543.74	2033.63
543.94	1849.73
544.14	2017.45
544.34	2106.34
544.54	1953.35
544.75	2025.03
544.95	2153.23
545.15	2110.43
545.35	2201.57
545.55	2038.34
545.75	1871.64
545.96	2264.44
546.16	1896.62
546.36	1905.43
546.56	1924.68
546.76	2124.36
546.97	2175.97
547.17	1924.89
547.37	1976.09
547.57	1885.36
547.77	2046.74
547.97	1938.81
548.18	1967.28
548.38	1929.19
548.58	2118.21
548.78	1897.44
548.98	1983.87
549.18	2147.09
549.39	2212.63
549.59	2060.46
549.79	1982.43
549.99	2201.57
550.19	2093.84
550.39	2020.53
550.60	1960.73
550.80	2009.67
551.00	2028.92
551.20	1871.02
551.40	1886.59
551.60	2028.10
551.80	1987.35
552.01	2029.95
552.21	1927.75
552.41	1979.36
552.61	2158.15
552.81	1959.91
553.01	1838.05
553.21	2006.80
553.42	1853.62
553.62	1868.36
553.82	1814.09
554.02	2141.36
554.22	2048.58
554.42	1805.08
554.62	1997.59
554.83	2206.69
555.03	2199.72
555.23	2002.50
555.43	2240.89
555.63	2101.22
555.83	2078.07
556.03	1997.18
556.23	1864.47
556.44	2024.83
556.64	2131.53
556.84	1718.86
557.04	1920.79
557.24	1977.11
557.44	1995.95
557.64	1939.63
557.84	1840.92
558.04	1902.36
558.25	2043.87
558.45	1853.62
558.65	1939.02
558.85	1949.87
559.05	1747.33
559.25	1878.81
559.45	1995.54
559.65	2249.90
559.85	2676.90
560.05	2028.92
560.26	2086.88
560.46	2087.90
560.66	1979.77
560.86	1944.14
561.06	1871.23
561.26	2146.07
561.46	2070.70
561.66	1899.90
561.86	2008.44
562.06	1868.16
562.26	1952.74
562.47	1947.00
562.67	1792.79
562.87	2008.24
563.07	1753.27
563.27	1935.94
563.47	1921.61
563.67	1869.59
563.87	2038.55
564.07	1851.57
564.27	1948.64
564.47	1985.30
564.67	2043.46
564.87	1879.01
565.08	2011.51
565.28	1923.86
565.48	2044.08
565.68	1980.80
565.88	2022.78
566.08	2188.05
566.28	1954.99
566.48	1769.04
566.68	1906.86
566.88	1923.04
567.08	2059.23
567.28	1938.61
567.48	1943.73
567.68	2021.96
567.88	1807.54
568.08	1966.46
568.28	2072.34
568.48	1942.29
568.68	2087.90
568.89	1958.47
569.09	1750.40
569.29	2054.52
569.49	2052.68
569.69	1852.18
569.89	1819.21
570.09	1749.99
570.29	1871.43
570.49	1780.71
570.69	1821.46
570.89	2055.96
571.09	2217.75
571.29	1777.43
571.49	2060.87
571.69	1989.81
571.89	2015.61
572.09	1864.88
572.29	1888.64
572.49	2066.61
572.69	2040.39
572.89	1892.53
573.09	1725.00
573.29	1963.59
573.49	1986.73
573.69	1927.75
573.89	2039.78
574.09	1890.68
574.29	2113.91
574.49	1898.26
574.69	1856.28
574.89	1831.29
575.09	1806.10
575.29	1806.10
575.49	1954.38
575.69	1996.77
575.89	1794.02
576.09	1947.00
576.29	1933.08
576.49	1797.09
576.69	1946.59
576.89	1871.02
577.09	1920.38
577.29	1761.05
577.49	2202.59
577.69	1865.49
577.89	2042.44
578.09	1983.05
578.29	1763.92
578.49	1953.56
578.69	1842.15
578.89	2095.48
579.09	1970.76
579.29	1824.94
579.49	2048.38
579.69	1901.33
579.89	2176.38
580.09	1759.82
580.29	1751.42
580.49	1895.19
580.69	1837.85
580.89	1870.21
581.09	1900.52
581.29	1893.76
581.49	1933.08
581.69	1831.50
581.89	1815.11
582.09	1838.87
582.28	1853.62
582.48	2008.24
582.68	2058.00
582.88	2125.79
583.08	1942.50
583.28	1895.19
583.48	1942.29
583.68	1874.10
583.88	1953.35
584.08	1940.25
584.28	1921.40
584.48	2195.42
584.68	2013.15
584.88	1926.32
585.08	2083.19
585.28	2108.59
585.48	2115.76
585.68	2004.76
585.87	2055.96
586.07	2005.17
586.27	1978.95
586.47	2017.86
586.67	1948.03
586.87	1974.45
587.07	1910.96
587.27	1824.54
587.47	1989.19
587.67	2195.22
587.87	2360.90
588.07	2071.11
588.27	2010.90
588.46	2162.86
588.66	2171.05
588.86	2015.41
589.06	2062.71
589.26	2149.34
589.46	2090.98
589.66	1878.40
589.86	1899.90
590.06	1944.75
590.26	2087.29
590.46	1951.51
590.66	2073.98
590.85	1991.04
591.05	2108.59
591.25	1936.97
591.45	1969.12
591.65	2058.00
591.85	2027.49
592.05	1950.49
592.25	2055.14
592.45	2123.33
592.64	1968.30
592.84	1990.83
593.04	1870.61
593.24	2327.52
593.44	1913.21
593.64	1993.49
593.84	2014.59
594.04	1949.87
594.24	2162.25
594.43	1881.88
594.63	1937.17
594.83	2098.55
595.03	2073.98
595.23	1860.58
595.43	1790.54
595.63	1834.57
595.83	2036.91
596.02	1712.10
596.22	1923.86
596.42	1988.17
596.62	1943.32
596.82	1883.52
597.02	2025.44
597.22	2110.43
597.41	1997.18
597.61	1872.66
597.81	2019.91
598.01	2050.84
598.21	1917.31
598.41	1877.99
598.61	1878.81
598.80	1966.46
599.00	1998.61
599.20	2074.80
599.40	1951.30
599.60	1923.45
599.80	2059.03
599.99	2094.05
600.19	1948.85
600.39	2002.71
600.59	2031.99
600.79	2009.88
600.99	1997.59
601.19	2192.76
601.38	2244.16
601.58	2007.01
601.78	1762.69
601.98	2053.91
602.18	2192.56
602.37	2407.59
602.57	2252.77
602.77	2422.54
602.97	2370.32
603.17	2442.41
603.37	2284.51
603.56	2374.01
603.76	2325.67
603.96	2280.21
604.16	2265.46
604.36	2332.64
604.56	2260.55
604.75	2013.97
604.95	2073.77
605.15	2224.71
605.35	2190.71
605.55	2017.25
605.74	1952.53
605.94	2172.69
606.14	2043.05
606.34	2016.23
606.54	2005.17
606.73	1916.08
606.93	2060.26
607.13	1867.95
607.33	1960.93
607.53	2166.34
607.72	2089.54
607.92	2015.61
608.12	2045.72
608.32	1943.52
608.51	2027.90
608.71	1851.98
608.91	1958.06
609.11	2040.39
609.31	1947.00
609.50	2005.78
609.70	2147.09
609.90	2110.64
610.10	2093.02
610.29	1941.27
610.49	1898.06
610.69	2105.11
610.89	2028.31
611.09	2005.99
611.28	2113.71
611.48	2120.26
611.68	1957.04
611.88	1889.87
612.07	1848.70
612.27	2056.16
612.47	1862.63
612.67	1974.86
612.86	2041.21
613.06	1956.42
613.26	1759.61
613.46	1878.81
613.65	1939.84
613.85	2339.80
614.05	2060.26
614.25	2019.91
614.44	1909.94
614.64	1959.50
614.84	1901.54
615.04	1871.84
615.23	1880.24
615.43	2020.12
615.63	2024.01
615.83	1867.75
616.02	1781.32
616.22	2080.53
616.42	1845.63
616.62	1872.66
616.81	1970.76
617.01	2037.93
617.21	1990.83
617.41	1856.89
617.60	1943.52
617.80	2026.26
618.00	2041.82
618.19	1985.51
618.39	1994.93
618.59	2006.80
618.79	1906.45
618.98	1772.72
619.18	1897.24
619.38	2205.25
619.57	1881.06
619.77	1905.43
619.97	1896.62
620.17	1848.70
620.36	1813.68
620.56	2038.55
620.76	1804.26
620.95	1841.94
621.15	1898.47
621.35	1848.09
621.54	1886.18
621.74	1964.00
621.94	1862.83
622.14	1800.16
622.33	1784.60
622.53	1922.63
622.73	1910.55
622.92	1768.83
623.12	1939.43
623.32	2169.82
623.51	2034.86
623.71	1813.68
623.91	2056.57
624.10	1830.88
624.30	1968.71
624.50	1820.85
624.69	1789.72
624.89	2429.10
625.09	1894.99
625.29	1726.44
625.48	1802.01
625.68	1959.91
625.88	2068.65
626.07	1965.85
626.27	1826.99
626.47	1853.82
626.66	1770.88
626.86	1907.89
627.06	1901.33
627.25	1943.93
627.45	2156.51
627.64	1894.58
627.84	2089.75
628.04	1845.83
628.23	2194.60
628.43	1818.60
628.63	1836.00
628.82	1889.46
629.02	2179.45
629.22	2028.31
629.41	2081.97
629.61	1987.55
629.81	2232.49
630.00	1880.65
630.20	1832.52
630.40	1994.11
630.59	2010.90
630.79	1931.85
630.98	1924.68
631.18	1918.33
631.38	1957.24
631.57	2099.78
631.77	1793.41
631.97	1947.41
632.16	1977.11
632.36	1945.78
632.56	1936.35
632.75	1932.46
632.95	2093.84
633.14	1795.86
633.34	2104.29
633.54	1746.71
633.73	1885.77
633.93	1879.42
634.12	1722.75
634.32	2266.69
634.52	1939.43
634.71	1824.33
634.91	1956.22
635.11	1789.31
635.30	1845.22
635.50	1950.08
635.69	1823.72
635.89	2205.66
636.09	2068.86
636.28	1819.21
636.48	1842.35
636.67	2028.72
636.87	2026.47
637.07	1995.75
637.26	1893.55
637.46	1992.06
637.65	2105.72
637.85	1958.68
638.04	1900.31
638.24	1946.39
638.44	2041.01
638.63	1961.95
638.83	1921.61
639.02	2010.90
639.22	2054.73
639.42	1925.30
639.61	1962.36
639.81	1982.23
640.00	1967.48
640.20	2036.09
640.39	2023.80
640.59	2270.38
640.79	2197.68
640.98	2169.62
641.18	2133.37
641.37	2164.50
641.57	2071.11
641.76	2074.80
641.96	1889.87
642.15	2027.28
642.35	1982.64
642.55	2052.47
642.74	1859.97
642.94	2118.21
643.13	2159.79
643.33	1937.99
643.52	1901.74
643.72	1904.82
643.91	1948.64
644.11	1888.64
644.31	1855.25
644.50	1888.84
644.70	2123.13
644.89	1917.10
645.09	1999.64
645.28	1983.05
645.48	2016.63
645.67	1858.53
645.87	1776.20
646.06	1899.70
646.26	1993.70
646.45	1731.56
646.65	1726.44
646.84	2213.44
647.04	1923.66
647.24	1813.48
647.43	1949.67
647.63	2001.07
647.82	2148.11
648.02	1834.57
648.21	1864.27
648.41	2127.63
648.60	1930.62
648.80	2066.81
648.99	1967.48
649.19	1891.91
649.38	1779.89
649.58	1941.47
649.77	1976.49
649.97	2110.02
650.16	2029.54
650.36	1725.00
650.55	2063.12
650.75	2011.72
650.94	2150.78
651.14	1958.88
651.33	1960.73
651.53	2177.61
651.72	1866.52
651.92	1923.04
652.11	1782.76
652.31	2020.12
652.50	2014.79
652.70	1983.66
652.89	1821.87
653.09	2186.62
653.28	1933.69
653.48	1769.04
653.67	1753.27
653.87	2361.31
654.06	1975.68
654.25	2096.10
654.45	1898.06
654.64	1919.15
654.84	1922.63
655.03	1729.30
655.23	2051.45
655.42	2042.44
655.62	2185.80
655.81	1979.98
656.01	1856.69
656.20	2087.08
656.40	2147.09
656.59	1949.87
656.79	2080.33
656.98	1975.06
657.17	2105.31
657.37	1939.22
657.56	1878.19
657.76	2015.00
657.95	2087.08
658.15	1638.99
658.34	1942.70
658.54	1949.67
658.73	1827.61
658.92	1911.16
659.12	1963.39
659.31	2044.69
659.51	1860.99
659.70	2008.65
659.90	1950.08
660.09	2098.96
660.29	2001.89
660.48	1856.07
660.67	2103.88
660.87	1894.17
661.06	2017.45
661.26	2036.50
661.45	2012.74
661.65	2005.37
661.84	1874.51
662.03	1890.07
662.23	1881.88
662.42	2221.84
662.62	1813.89
662.81	1847.68
663.00	1915.06
663.20	2044.90
663.39	2108.38
663.59	2124.97
663.78	2010.70
663.97	2045.10
664.17	2219.38
664.36	1897.65
664.56	1929.19
664.75	2121.70
664.94	2070.29
665.14	2016.84
665.33	1962.98
665.53	2009.47
665.72	2009.67
665.91	2065.38
666.11	1995.95
666.30	2015.41
666.50	1966.05
666.69	2034.86
666.88	1998.61
667.08	2098.76
667.27	2079.51
667.47	2136.03
667.66	2053.70
667.85	2212.22
668.05	2099.58
668.24	1982.84
668.43	2162.04
668.63	1988.99
668.82	2166.75
669.02	2054.93
669.21	1982.64
669.40	1827.20
669.60	2222.46
669.79	1814.71
669.98	2406.16
670.18	1853.82
670.37	1811.63
670.56	1877.58
670.76	1958.06
670.95	1949.05
671.15	2047.56
671.34	1959.91
671.53	1922.22
671.73	1921.20
671.92	1862.22
672.11	1793.20
672.31	1871.43
672.50	1995.34
672.69	1801.19
672.89	1693.06
673.08	1899.29
673.27	2032.61
673.47	1966.46
673.66	1970.76
673.85	1826.17
674.05	1991.24
674.24	2177.40
674.43	2154.46
674.63	2413.33
674.82	2690.42
675.01	2215.90
675.21	2413.53
675.40	2239.66
675.59	2203.61
675.79	2417.22
675.98	2113.30
676.17	2241.30
676.37	2142.99
676.56	2021.55
676.75	2041.82
676.95	1983.25
677.14	1962.36
677.33	2110.64
677.52	1856.69
677.72	1881.88
677.91	1986.12
678.10	1775.59
678.30	1803.24
678.49	1789.92
678.68	2214.06
678.88	1749.99
679.07	2050.63
679.26	1880.85
679.45	2159.79
679.65	2089.95
679.84	1716.81
680.03	1763.71
680.23	1890.07
680.42	2239.45
680.61	1798.12
680.81	1846.04
681.00	1912.19
681.19	1966.25
681.38	2002.91
681.58	1953.76
681.77	1863.45
681.96	2004.35
682.15	1861.81
682.35	1929.60
682.54	2001.89
682.73	1807.74
682.93	1831.91
683.12	1832.11
683.31	2027.28
683.50	2278.37
683.70	1855.25
683.89	1919.77
684.08	1822.90
684.27	2060.05
684.47	1759.21
684.66	1935.74
684.85	2197.68
685.04	2102.24
685.24	1873.48
685.43	1939.84
685.62	1737.29
685.81	2016.63
686.01	2084.01
686.20	2116.37
686.39	2061.08
686.58	2577.98
686.78	2361.10
686.97	2323.63
687.16	2303.96
687.35	2210.58
687.55	2111.66
687.74	2115.35
687.93	2018.89
688.12	2069.68
688.32	2070.70
688.51	1891.91
688.70	2071.93
688.89	1867.13
689.08	1829.45
689.28	1852.18
689.47	1967.07
689.66	1948.85
689.85	2038.34
690.05	1878.81
690.24	1863.04
690.43	1954.17
690.62	1953.15
690.81	1867.34
691.01	1924.48
691.20	1918.13
691.39	1839.28
691.58	1969.94
691.77	2172.49
691.97	1946.80
692.16	1966.46
692.35	1905.23
692.54	1889.87
692.73	2062.51
692.93	2021.14
693.12	2081.76
693.31	2120.06
693.50	2103.67
693.69	2128.25
693.89	1994.31
694.08	2195.63
694.27	2181.70
694.46	1935.54
694.65	1987.55
694.85	2084.01
695.04	2117.39
695.23	2276.93
695.42	3615.89
695.61	4871.09
695.80	5770.56
696.00	6522.58
696.19	6978.04
696.38	6129.37
696.57	5085.31
696.76	4887.89
696.95	4479.73
697.15	4367.29
697.34	4077.10
697.53	3567.77
697.72	3341.88
697.91	3072.36
698.10	2987.17
698.30	2412.51
698.49	2233.72
698.68	2166.75
698.87	2027.69
699.06	1891.71
699.25	1934.31
699.45	2111.46
699.64	1995.34
699.83	2037.32
700.02	1844.81
700.21	2014.79
700.40	1868.98
700.59	1905.84
700.79	1857.10
700.98	2022.16
701.17	1843.17
701.36	1857.10
701.55	1861.19
701.74	2108.18
701.93	1928.37
702.12	2128.66
702.32	2104.49
702.51	2358.03
702.70	2348.00
702.89	2220.20
703.08	2048.79
703.27	2269.15
703.46	2146.89
703.65	2038.96
703.85	1894.17
704.04	1955.20
704.23	2141.36
704.42	1899.70
704.61	1923.45
704.80	2168.39
704.99	1859.35
705.18	2005.58
705.37	2106.34
705.57	3063.35
705.76	4486.08
705.95	4946.66
706.14	5891.80
706.33	6422.84
706.52	6252.86
706.71	4884.20
706.90	4481.57
707.09	4295.20
707.28	4020.57
707.47	3625.93
707.67	3548.93
707.86	3181.52
708.05	3177.83
708.24	2789.54
708.43	2518.80
708.62	2281.64
708.81	2087.29
709.00	1894.37
709.19	1908.71
709.38	2080.94
709.57	1832.11
709.76	1985.10
709.96	1920.59
710.15	2148.32
710.34	1985.71
710.53	2064.35
710.72	1935.13
710.91	2082.99
711.10	2026.26
711.29	2059.44
711.48	1893.96
711.67	1839.28
711.86	2024.42
712.05	1860.78
712.24	1871.02
712.43	2032.81
712.62	2104.90
712.81	1926.73
713.00	2047.56
713.19	1806.51
713.39	2025.44
713.58	1931.03
713.77	2186.21
713.96	2346.77
714.15	2327.52
714.34	2297.41
714.53	2187.44
714.72	2479.89
714.91	2094.66
715.10	2164.09
715.29	2009.26
715.48	2496.06
715.67	2212.42
715.86	2083.19
716.05	2025.65
716.24	1993.08
716.43	1909.32
716.62	1862.22
716.81	1798.12
717.00	1919.36
717.19	2122.92
717.38	1953.97
717.57	1881.88
717.76	1756.34
717.95	2053.70
718.14	1941.88
718.33	1872.05
718.52	1727.26
718.71	1743.03
718.90	1774.97
719.09	1871.23
719.28	1920.18
719.47	2035.48
719.66	2035.27
719.85	2022.78
720.04	1971.17
720.23	2018.89
720.42	1921.81
720.61	2038.75
720.80	1829.66
720.99	1989.81
721.18	1919.15
721.37	1866.72
721.56	1923.66
721.75	2055.55
721.94	1840.10
722.13	1915.87
722.32	1900.92
722.51	2031.58
722.70	1937.58
722.89	2001.89
723.08	1964.00
723.27	2065.38
723.46	1944.96
723.65	1883.52
723.84	1859.15
724.03	2103.88
724.22	1789.92
724.41	1962.36
724.60	1908.71
724.79	2078.07
724.98	1988.99
725.16	1904.82
725.35	2034.86
725.54	1845.63
725.73	1950.69
725.92	2002.71
726.11	2179.04
726.30	2637.58
726.49	2627.13
726.68	2912.21
726.87	3117.62
727.06	3124.38
727.25	2626.11
727.44	2665.64
727.63	2536.82
727.82	2450.19
728.01	2431.35
728.20	2436.47
728.38	2489.31
728.57	2236.79
728.76	2202.59
728.95	2231.47
729.14	1962.77
729.33	1908.30
729.52	1770.67
729.71	1877.37
729.90	1867.54
730.09	1937.99
730.28	1973.01
730.47	1937.99
730.66	2175.35
730.84	2082.58
731.03	2050.02
731.22	2066.20
731.41	2043.46
731.60	2104.29
731.79	1815.32
731.98	1916.28
732.17	2066.81
732.36	2071.93
732.55	1893.55
732.73	1827.61
732.92	2113.91
733.11	2021.14
733.30	1877.37
733.49	1806.92
733.68	2068.45
733.87	2040.19
734.06	1888.23
734.25	1914.85
734.43	2022.78
734.62	2144.02
734.81	2123.13
735.00	2070.50
735.19	2080.74
735.38	2138.08
735.57	1926.52
735.76	2093.02
735.94	2181.29
736.13	2473.33
736.32	2395.51
736.51	2396.74
736.70	2667.07
736.89	2780.32
737.08	3065.60
737.27	4721.39
737.45	7033.54
737.64	8054.46
737.83	9409.39
738.02	10053.89
738.21	9383.79
738.40	7425.53
738.59	6782.05
738.77	6240.78
738.96	5801.90
739.15	5490.60
739.34	5150.23
739.53	4648.68
739.72	4408.87
739.90	3954.42
740.09	3272.24
740.28	3000.89
740.47	2737.32
740.66	2458.18
740.85	2091.39
741.03	2126.61
741.22	1970.97
741.41	2055.14
741.60	1892.73
741.79	2046.33
741.98	2189.89
742.16	2260.96
742.35	2065.58
742.54	2040.39
742.73	2350.66
742.92	2059.23
743.10	1954.58
743.29	2051.86
743.48	2408.82
743.67	2032.40
743.86	1912.60
744.05	1927.75
744.23	1972.60
744.42	1960.93
744.61	2023.60
744.80	1892.94
744.99	1975.88
745.17	1847.06
745.36	1860.17
745.55	2078.89
745.74	2038.96
745.93	1975.47
746.11	2008.44
746.30	1922.84
746.49	2162.04
746.68	1942.29
746.86	2001.89
747.05	2012.13
747.24	2103.47
747.43	2162.65
747.62	1934.72
747.80	1975.88
747.99	2218.15
748.18	2201.36
748.37	2136.65
748.56	2173.51
748.74	2228.60
748.93	2346.77
749.12	3668.32
749.31	7782.49
749.49	11489.92
749.68	13885.02
749.87	16247.56
750.06	17204.17
750.24	16208.44
750.43	15478.55
750.62	17013.71
750.81	17383.77
750.99	18108.75
751.18	17631.37
751.37	14814.80
751.56	12334.51
751.74	11866.14
751.93	10586.97
752.12	8765.72
752.31	7612.30
752.49	6527.49
752.68	5883.61
752.87	4964.48
753.06	4271.86
753.24	3678.15
753.43	3337.17
753.62	2688.16
753.81	2420.70
753.99	2507.94
754.18	2256.86
754.37	2008.85
754.55	2093.23
754.74	2277.14
754.93	1843.38
755.12	1943.73
755.30	1919.56
755.49	2154.05
755.68	2041.42
755.86	2041.42
756.05	1906.86
756.24	2192.35
756.43	1862.63
756.61	1868.98
756.80	2059.64
756.99	2178.01
757.17	1983.05
757.36	1870.82
757.55	1991.85
757.74	2060.05
757.92	2007.42
758.11	1867.13
758.30	1800.57
758.48	1986.53
758.67	1893.76
758.86	2044.69
759.04	1920.38
759.23	2011.11
759.42	2084.83
759.60	1995.34
759.79	2004.35
759.98	2000.66
760.16	1918.13
760.35	1907.07
760.54	1864.47
760.73	2067.83
760.91	1847.27
761.10	2043.05
761.29	2022.98
761.47	2006.39
761.66	2339.60
761.85	2105.93
762.03	2464.12
762.22	4634.76
762.41	11810.64
762.59	20177.61
762.78	24347.07
762.97	29371.35
763.15	31575.38
763.34	28611.35
763.52	20972.63
763.71	19294.53
763.90	17465.69
764.08	16369.62
764.27	14965.53
764.46	13647.87
764.64	12012.57
764.83	10672.17
765.02	9326.65
765.20	7920.93
765.39	6434.31
765.58	4810.68
765.76	3912.85
765.95	3218.79
766.13	2738.13
766.32	2385.47
766.51	2262.60
766.69	2770.29
766.88	2184.16
767.07	1984.28
767.25	1834.37
767.44	2137.46
767.62	2179.04
767.81	1972.40
768.00	1986.32
768.18	1983.87
768.37	1898.67
768.56	1817.57
768.74	1885.56
768.93	1830.47
769.11	2010.08
769.30	1957.04
769.49	1874.92
769.67	1949.05
769.86	1907.89
770.04	1884.34
770.23	1930.21
770.42	2087.90
770.60	1964.82
770.79	1858.53
770.97	2021.75
771.16	2992.49
771.35	4877.03
771.53	6575.41
771.72	7675.99
771.90	8919.93
772.09	9491.72
772.27	8427.80
772.46	6423.45
772.65	6419.97
772.83	5855.14
773.02	5576.41
773.20	5070.77
773.39	4869.86
773.58	4465.19
773.76	3923.29
773.95	3672.62
774.13	3448.57
774.32	3018.09
774.50	2570.41
774.69	2415.58
774.87	2202.18
775.06	2409.23
775.25	1958.27
775.43	2001.68
775.62	2025.65
775.80	2088.52
775.99	2008.65
776.17	1888.02
776.36	1980.18
776.54	2108.38
776.73	1930.62
776.92	2019.71
777.10	2086.88
777.29	2033.22
777.47	1887.61
777.66	1915.26
777.84	1958.06
778.03	1936.56
778.21	1848.91
778.40	1946.80
778.58	2028.72
778.77	2105.11
778.95	1798.53
779.14	1846.24
779.32	2158.76
779.51	2043.05
779.70	1881.67
779.88	1796.89
780.07	1881.06
780.25	2269.97
780.44	1897.44
780.62	2052.27
780.81	2016.02
780.99	1979.77
781.18	1845.63
781.36	1859.35
781.55	1930.82
781.73	2119.24
781.92	1790.33
782.10	1813.48
782.29	2007.01
782.47	2144.63
782.66	1920.99
782.84	1794.02
783.03	1871.64
783.21	2104.90
783.40	1896.62
783.58	1891.71
783.77	1889.25
783.95	1896.42
784.14	1838.67
784.32	1910.55
784.51	2098.55
784.69	1842.15
784.88	1771.90
785.06	1912.19
785.24	1788.90
785.43	2059.85
785.61	1998.00
785.80	1830.47
785.98	1998.00
786.17	1961.75
786.35	1852.18
786.54	1984.69
786.72	2094.25
786.91	2100.19
787.09	1936.56
787.28	1832.32
787.46	1969.33
787.65	2090.16
787.83	1850.34
788.01	1954.99
788.20	1863.45
788.38	1973.22
788.57	1930.82
788.75	1949.26
788.94	2242.32
789.12	2144.63
789.31	1992.88
789.49	2045.51
789.67	1940.86
789.86	2030.36
790.04	1878.81
790.23	1803.24
790.41	2270.17
790.60	1957.65
790.78	1962.16
790.96	1948.03
791.15	2068.24
791.33	1947.21
791.52	1947.21
791.70	1863.86
791.89	1949.46
792.07	2065.99
792.25	1944.34
792.44	1822.69
792.62	2128.25
792.81	1943.32
792.99	2010.90
793.17	1956.42
793.36	2038.14
793.54	2797.53
793.73	4111.30
793.91	5868.86
794.10	7039.48
794.28	8211.95
794.46	8562.56
794.65	8175.90
794.83	6424.48
795.01	5908.19
795.20	5790.63
795.38	5292.77
795.57	5038.00
795.75	4835.05
795.93	4373.44
796.12	4052.93
796.30	3855.92
796.49	3614.26
796.67	3108.41
796.85	3009.08
797.04	2694.31
797.22	2563.65
797.40	2204.84
797.59	2263.21
797.77	2189.28
797.96	2087.70
798.14	2026.06
798.32	2042.44
798.51	2180.06
798.69	2328.13
798.87	2069.47
799.06	2042.23
799.24	1994.93
799.42	2683.04
799.61	3710.51
799.79	4552.84
799.98	5372.64
800.16	5906.96
800.34	7502.12
800.53	9410.62
800.71	10038.12
800.89	11579.22
801.08	11914.67
801.26	11870.64
801.44	9870.39
801.63	8116.51
801.81	7866.86
801.99	7163.79
802.18	6705.46
802.36	6296.07
802.54	5721.62
802.73	4987.01
802.91	4557.34
803.09	4138.13
803.28	3775.02
803.46	3425.23
803.64	3230.67
803.83	2565.08
804.01	2367.45
804.19	2152.62
804.38	2347.38
804.56	2230.65
804.74	2123.33
804.92	2106.34
805.11	1959.29
805.29	2227.17
805.47	2004.35
805.66	1918.74
805.84	1915.26
806.02	2183.54
806.21	1979.77
806.39	2137.87
806.57	2163.27
806.76	2149.96
806.94	2061.49
807.12	2045.72
807.30	2068.24
807.49	2204.23
807.67	2189.48
807.85	2235.97
808.04	2239.45
808.22	2385.06
808.40	1928.78
808.58	1916.90
808.77	2120.67
808.95	2411.89
809.13	2987.17
809.31	5646.86
809.50	8645.09
809.68	10187.83
809.86	11638.61
810.05	12729.97
810.23	14577.85
810.41	21759.46
810.59	37500.56
810.78	46989.82
810.96	54871.23
811.14	59560.05
811.32	58689.46
811.51	47425.84
811.69	37371.13
811.87	36828.83
812.05	32047.02
812.24	30145.08
812.42	27312.74
812.60	24298.74
812.78	20713.57
812.97	17516.28
813.15	15282.76
813.33	13000.51
813.51	10974.25
813.70	8641.20
813.88	6729.42
814.06	5199.59
814.24	4087.34
814.42	3206.30
814.61	2858.15
814.79	2787.29
814.97	2248.06
815.15	2248.06
815.34	2265.26
815.52	2281.03
815.70	1997.59
815.88	2022.37
816.06	1993.29
816.25	1994.31
816.43	1905.02
816.61	2050.63
816.79	2197.88
816.98	1816.75
817.16	1897.65
817.34	1840.30
817.52	2000.87
817.70	2143.61
817.89	1905.43
818.07	1819.01
818.25	1937.58
818.43	1954.99
818.61	1901.13
818.80	1856.48
818.98	2128.45
819.16	1965.85
819.34	1813.89
819.52	2086.47
819.70	1823.72
819.89	1939.02
820.07	1774.36
820.25	1742.21
820.43	1970.56
820.61	2014.59
820.80	1919.77
820.98	1819.83
821.16	1745.07
821.34	1775.38
821.52	1892.94
821.70	1939.43
821.89	1932.87
822.07	1905.23
822.25	1889.25
822.43	1802.01
822.61	2112.48
822.79	1982.02
822.98	1865.90
823.16	1732.17
823.34	1971.58
823.52	2078.48
823.70	1988.58
823.88	1744.46
824.06	2007.62
824.25	1933.49
824.43	1975.27
824.61	1793.00
824.79	1939.02
824.97	1992.26
825.15	2158.15
825.33	2860.19
825.52	4071.98
825.70	4690.87
825.88	5200.20
826.06	5750.90
826.24	5882.79
826.42	5252.84
826.60	4305.04
826.78	4376.71
826.97	3901.99
827.15	3980.43
827.33	3478.07
827.51	3463.93
827.69	3179.68
827.87	3074.82
828.05	2896.44
828.23	2591.29
828.41	2700.25
828.60	2542.55
828.78	2101.63
828.96	2222.46
829.14	2065.79
829.32	2040.19
829.50	1925.50
829.68	1923.25
829.86	1874.10
830.04	2042.64
830.22	1976.09
830.41	1803.65
830.59	1909.32
830.77	2036.50
830.95	1852.39
831.13	1822.28
831.31	1823.51
831.49	2040.60
831.67	2030.56
831.85	1998.20
832.03	1859.76
832.21	2012.74
832.39	1771.90
832.57	1794.02
832.76	2018.68
832.94	1894.37
833.12	1739.34
833.30	1862.01
833.48	2061.69
833.66	1952.33
833.84	1826.79
834.02	1887.20
834.20	2033.22
834.38	2045.31
834.56	1730.12
834.74	1752.86
834.92	1771.29
835.10	2147.09
835.28	1954.38
835.46	1895.19
835.64	1902.56
835.82	1843.99
836.01	2085.65
836.19	2014.18
836.37	1855.87
836.55	1838.05
836.73	1808.56
836.91	1774.56
837.09	2044.08
837.27	2141.56
837.45	1773.54
837.63	1826.58
837.81	1804.87
837.99	1909.53
838.17	1908.09
838.35	1834.57
838.53	2248.67
838.71	2047.76
838.89	1864.06
839.07	1878.60
839.25	1995.54
839.43	2190.92
839.61	2500.57
839.79	4410.71
839.97	6583.61
840.15	7778.80
840.33	8878.56
840.51	9610.71
840.69	9257.64
840.87	7475.91
841.05	6592.21
841.23	7213.56
841.41	9326.45
841.59	13349.48
841.77	15264.94
841.95	16544.72
842.13	17753.84
842.31	17148.26
842.49	13617.76
842.67	11224.71
842.85	11059.03
843.03	9504.83
843.21	8972.15
843.39	8221.16
843.57	7387.64
843.75	6535.07
843.93	5652.80
844.11	4926.80
844.29	4502.05
844.47	4090.82
844.65	3901.79
844.83	3363.17
845.01	3004.37
845.19	2768.03
845.36	2406.98
845.54	2283.08
845.72	2144.84
845.90	2127.43
846.08	1862.01
846.26	1952.74
846.44	2047.56
846.62	2017.04
846.80	1921.61
846.98	1862.63
847.16	1892.53
847.34	1968.92
847.52	1793.61
847.70	1804.06
847.88	1899.29
848.06	2092.82
848.24	1956.01
848.41	1757.98
848.59	2046.54
848.77	1994.93
848.95	1859.56
849.13	1851.77
849.31	2006.19
849.49	1952.33
849.67	1796.07
849.85	1762.28
850.03	1964.00
850.21	1970.56
850.39	1814.09
850.57	1954.38
850.74	2125.38
850.92	2287.17
851.10	2721.96
851.28	3555.07
851.46	4273.91
851.64	4902.43
851.82	4871.30
852.00	4959.77
852.18	4509.63
852.36	3886.23
852.53	3634.12
852.71	3485.85
852.89	3414.37
853.07	3260.78
853.25	2978.77
853.43	2767.42
853.61	2774.18
853.79	2619.15
853.97	2361.10
854.14	2273.65
854.32	2442.20
854.50	2345.33
854.68	2065.17
854.86	2005.99
855.04	1925.30
855.22	2064.35
855.40	1781.53
855.57	1837.03
855.75	2036.70
855.93	1957.86
856.11	1712.72
856.29	1760.02
856.47	1831.91
856.65	1920.59
856.82	1814.30
857.00	1717.84
857.18	1862.83
857.36	1826.17
857.54	1892.94
857.72	1973.01
857.89	1975.88
858.07	1918.74
858.25	1982.43
858.43	1752.45
858.61	1862.42
858.79	1902.77
858.97	1787.47
859.14	1910.35
859.32	1865.49
859.50	1880.85
859.68	1899.08
859.86	1827.61
860.03	1928.98
860.21	1975.88
860.39	1817.16
860.57	1917.72
860.75	1939.84
860.93	2149.34
861.10	2030.15
861.28	1828.63
861.46	1941.06
861.64	1959.09
861.82	1848.91
861.99	1945.37
862.17	2027.49
862.35	2029.95
862.53	1880.85
862.71	1875.53
862.88	1951.10
863.06	1981.41
863.24	1862.63
863.42	1805.49
863.60	1888.84
863.77	1969.53
863.95	1704.11
864.13	1887.20
864.31	1873.07
864.49	1996.16
864.66	1728.90
864.84	1861.81
865.02	1919.56
865.20	2254.20
865.37	1884.54
865.55	1832.11
865.73	1853.62
865.91	2246.62
866.09	2281.03
866.26	2306.83
866.44	2485.01
866.62	2371.96
866.80	2222.05
866.97	2203.00
867.15	2172.08
867.33	2189.07
867.51	2182.32
867.68	2088.52
867.86	2051.66
868.04	1980.59
868.22	1818.80
868.39	1939.22
868.57	2072.75
868.75	2130.91
868.93	1816.34
869.10	1865.29
869.28	2181.50
869.46	2087.70
869.64	1879.42
869.81	1878.60
869.99	1932.67
870.17	1918.54
870.35	1806.31
870.52	1780.71
870.70	2005.37
870.88	1803.44
871.05	1750.81
871.23	1657.22
871.41	1890.28
871.59	1874.92
871.76	1841.74
871.94	1789.11
872.12	1883.11
872.29	1743.44
872.47	1804.87
872.65	1739.34
872.83	1911.78
873.00	2048.38
873.18	1864.47
873.36	1808.97
873.53	1986.32
873.71	1721.32
873.89	1768.63
874.06	1873.48
874.24	1949.46
874.42	2023.80
874.60	1945.78
874.77	1879.42
874.95	1782.55
875.13	2019.91
875.30	1775.59
875.48	1822.28
875.66	2094.87
875.83	1797.50
876.01	1836.62
876.19	1963.80
876.36	1744.25
876.54	1904.61
876.72	1773.13
876.89	1905.23
877.07	1955.81
877.25	1689.78
877.42	1878.19
877.60	1841.12
877.78	2102.44
877.95	1831.09
878.13	1800.16
878.31	1900.52
878.48	1996.16
878.66	1965.85
878.84	1803.03
879.01	1866.93
879.19	1931.44
879.37	1983.25
879.54	1817.16
879.72	1759.61
879.90	1666.43
880.07	1981.82
880.25	1588.61
880.42	1948.23
880.60	1899.90
880.78	1971.99
880.95	1835.59
881.13	1865.90
881.31	1880.44
881.48	1799.96
881.66	1773.75
881.83	1893.35
882.01	1792.59
882.19	1731.35
882.36	1871.02
882.54	1814.91
882.72	1970.56
882.89	1914.03
883.07	1768.83
883.24	1813.48
883.42	1983.25
883.60	1887.82
883.77	1737.50
883.95	1821.87
884.12	1999.23
884.30	1918.95
884.48	1961.54
884.65	1879.42
884.83	1908.50
885.00	1911.78
885.18	1753.27
885.36	1800.78
885.53	1956.63
885.71	2038.34
885.88	1728.69
886.06	1812.66
886.23	1966.87
886.41	1845.63
886.59	1829.66
886.76	1788.90
886.94	1970.76
887.11	2265.05
887.29	1852.18
887.47	1708.62
887.64	2043.26
887.82	2052.27
887.99	1668.07
888.17	1879.22
888.34	1844.40
888.52	1729.10
888.69	1859.97
888.87	1769.85
889.05	1823.51
889.22	1860.99
889.40	1815.52
889.57	1979.16
889.75	2084.22
889.92	1850.75
890.10	1751.42
890.27	1823.51
890.45	1811.43
890.62	1712.92
890.80	1755.52
890.98	1685.07
891.15	2061.28
891.33	1990.63
891.50	1815.11
891.68	1707.80
891.85	1995.34
892.03	1948.03
892.20	1793.82
892.38	1774.56
892.55	1973.83
892.73	1984.07
892.90	1729.92
893.08	1797.71
893.25	1801.60
893.43	1811.63
893.60	1938.61
893.78	1653.94
893.95	1909.12
894.13	1864.27
894.30	1783.37
894.48	1854.03
894.65	1990.22
894.83	1910.75
895.00	1653.73
895.18	1659.88
895.35	1997.79
895.53	1959.50
895.70	1731.35
895.88	1908.09
896.05	1969.53
896.23	1709.03
896.40	1803.03
896.58	1875.94
896.75	1962.57
896.93	2063.12
897.10	1796.89
897.28	1719.47
897.45	1907.48
897.63	1982.84
897.80	1944.75
897.98	1818.19
898.15	1954.38
898.33	1779.89
898.50	1890.68
898.67	1852.18
898.85	1853.41
899.02	1949.87
899.20	1971.99
899.37	1797.30
899.55	1890.07
899.72	2060.26
899.90	1772.93
900.07	1759.61
900.25	1930.62
900.42	2021.75
900.59	1799.35
900.77	1928.78
900.94	1950.49
901.12	1928.37
901.29	1787.88
901.47	1909.94
901.64	1960.11
901.82	1888.43
901.99	1626.29
902.16	1764.73
902.34	2022.98
902.51	1904.61
902.69	1805.08
902.86	1841.33
903.03	2330.18
903.21	1910.55
903.38	1865.49
903.56	1786.03
903.73	2034.04
903.91	1845.42
904.08	1751.01
904.25	1663.77
904.43	1800.98
904.60	1994.11
904.78	1836.62
904.95	1758.59
905.12	1838.67
905.30	2090.36
905.47	1915.67
905.65	1943.93
905.82	1886.79
905.99	1955.81
906.17	1841.53
906.34	1760.02
906.52	1808.56
906.69	1976.70
906.86	1932.67
907.04	1883.52
907.21	2011.31
907.38	2032.61
907.56	1774.77
907.73	1841.12
907.91	2074.80
908.08	2037.52
908.25	1772.72
908.43	1769.85
908.60	1989.81
908.77	1937.58
908.95	1816.75
909.12	1790.54
909.30	1984.69
909.47	1775.18
909.64	1841.12
909.82	1965.64
909.99	1872.66
910.16	1945.78
910.34	1778.87
910.51	1815.73
910.68	1947.21
910.86	1934.92
911.03	1944.55
911.20	2610.55
911.38	4602.81
911.55	7436.99
911.72	8976.45
911.90	9903.57
912.07	10831.09
912.24	10388.53
912.42	8047.08
912.59	5757.66
912.76	5385.95
912.94	4545.88
913.11	4053.95
913.28	3607.50
913.46	3408.64
913.63	3340.03
913.80	3385.70
913.98	2975.08
914.15	3081.78
914.32	3017.27
914.49	2833.36
914.67	2671.58
914.84	2804.49
915.01	2800.19
915.19	2629.39
915.36	2422.95
915.53	2477.22
915.71	2321.58
915.88	2161.84
916.05	1977.72
916.22	2144.02
916.40	2009.88
916.57	1838.87
916.74	1945.57
916.92	2089.34
917.09	1798.32
917.26	1778.66
917.43	1779.28
917.61	1870.21
917.78	1694.28
917.95	1671.35
918.13	1754.09
918.30	2150.78
918.47	1919.15
918.64	1805.90
918.82	1799.14
918.99	1917.92
919.16	2127.43
919.33	1871.23
919.51	1825.15
919.68	1891.71
919.85	2069.88
920.02	1738.52
920.20	1854.23
920.37	2069.47
920.54	2007.42
920.71	1779.07
920.89	1809.38
921.06	2115.76
921.23	1822.08
921.40	1933.28
921.58	2503.64
921.75	3325.49
921.92	3063.35
922.09	3253.20
922.27	3299.89
922.44	3179.88
922.61	2807.15
922.78	2395.10
922.96	2318.51
923.13	2255.22
923.30	2328.75
923.47	2003.12
923.64	2061.89
923.82	2172.49
923.99	2123.33
924.16	2092.61
924.33	1948.85
924.50	2070.91
924.68	2231.26
924.85	1884.34
925.02	1937.99
925.19	2113.09
925.36	2033.84
925.54	1996.77
925.71	1951.92
925.88	2317.48
926.05	1894.58
926.22	1822.08
926.40	1860.99
926.57	1919.77
926.74	1979.77
926.91	1767.19
927.08	1966.25
927.26	2016.84
927.43	1905.23
927.60	1770.47
927.77	1813.89
927.94	2077.66
928.11	2011.72
928.29	1700.43
928.46	1868.77
928.63	1791.77
928.80	1835.18
928.97	1899.49
929.14	1733.81
929.32	2132.96
929.49	1891.30
929.66	1760.23
929.83	1709.85
930.00	1818.80
930.17	1930.21
930.35	1733.81
930.52	1787.47
930.69	2068.86
930.86	1749.78
931.03	1874.10
931.20	1658.04
931.37	2041.82
931.55	1889.66
931.72	1856.89
931.89	1692.03
932.06	1728.69
932.23	2134.39
932.40	1891.09
932.57	1876.14
932.74	2049.81
932.92	2027.49
933.09	1944.55
933.26	1577.96
933.43	1822.90
933.60	1934.92
933.77	1825.76
933.94	1863.04
934.11	1866.31
934.29	1898.67
934.46	1714.76
934.63	1891.09
934.80	1784.19
934.97	1942.29
935.14	1872.46
935.31	1772.52
935.48	1833.96
935.65	1973.22
935.82	1867.54
936.00	1749.37
936.17	2073.77
936.34	1877.78
936.51	1916.08
936.68	1710.05
936.85	1944.75
937.02	1888.43
937.19	1919.97
937.36	1826.99
937.53	1924.07
937.70	1982.43
937.87	1840.92
938.05	1911.37
938.22	1911.98
938.39	1766.78
938.56	1826.17
938.73	1763.92
938.90	1851.57
939.07	1797.91
939.24	1844.40
939.41	1661.93
939.58	1923.45
939.75	1925.30
939.92	1747.94
940.09	1949.46
940.26	1842.56
940.43	1993.70
940.60	1767.60
940.77	1796.68
940.95	1926.52
941.12	1961.34
941.29	1805.90
941.46	1828.63
941.63	2026.47
941.80	2059.23
941.97	1682.41
942.14	1701.86
942.31	1977.93
942.48	1835.18
942.65	1884.75
942.82	1822.69
942.99	1940.45
943.16	1910.75
943.33	1722.96
943.50	1798.94
943.67	1980.18
943.84	2037.52
944.01	1780.30
944.18	1760.02
944.35	2068.04
944.52	1778.05
944.69	1841.33
944.86	1687.73
945.03	1943.52
945.20	2171.26
945.37	1671.55
945.54	1807.33
945.71	2021.14
945.88	2084.63
946.05	1735.65
946.22	1709.64
946.39	2041.82
946.56	1833.55
946.73	1703.71
946.90	1746.51
947.07	1817.37
947.24	1833.34
947.41	1644.11
947.58	1903.38
947.75	1959.09
947.92	1928.37
948.09	1597.83
948.26	1674.62
948.43	1914.44
948.60	2137.67
948.77	1742.21
948.94	1786.85
949.11	1960.32
949.27	1909.12
949.44	1783.37
949.61	1736.88
949.78	1899.49
949.95	2005.58
950.12	1725.82
950.29	1684.66
950.46	1799.75
950.63	2003.32
950.80	1761.46
950.97	1816.96
951.14	2025.44
951.31	1849.32
951.48	1760.02
951.65	1706.16
951.82	2140.74
951.99	1899.49
952.15	1687.53
952.32	1764.73
952.49	1804.47
952.66	1823.92
952.83	1756.13
953.00	1732.17
953.17	1851.77
953.34	1992.06
953.51	1816.75
953.68	1809.38
953.85	2026.06
954.02	1999.64
954.18	1821.26
954.35	1829.25
954.52	1787.67
954.69	1921.61
954.86	1659.88
955.03	1806.51
955.20	1972.81
955.37	1864.68
955.54	1797.91
955.71	1741.18
955.87	1928.16
956.04	2101.42
956.21	1786.44
956.38	1738.32
956.55	1887.00
956.72	2185.59
956.89	1799.75
957.06	1756.75
957.23	1827.40
957.39	2045.51
957.56	1761.25
957.73	1725.21
957.90	1624.24
958.07	2114.12
958.24	1831.29
958.41	1764.33
958.57	1982.43
958.74	1867.54
958.91	1719.88
959.08	1774.16
959.25	1994.72
959.42	1851.77
959.59	1828.02
959.75	1792.38
959.92	2037.52
960.09	2017.04
960.26	1746.92
960.43	1849.52
960.60	1903.38
960.76	1858.12
960.93	1679.13
961.10	1810.20
961.27	1975.88
961.44	1831.50
961.61	1699.81
961.77	1705.14
961.94	1907.68
962.11	1978.34
962.28	1788.29
962.45	1727.05
962.62	1849.93
962.78	2005.99
962.95	1739.54
963.12	1769.04
963.29	1969.74
963.46	2238.43
963.62	1814.09
963.79	1788.49
963.96	2182.93
964.13	1826.99
964.30	1901.95
964.46	1808.77
964.63	1808.36
964.80	2321.37
964.97	1883.11
965.14	2261.98
965.30	2420.49
965.47	2534.36
965.64	2470.67
965.81	2420.90
965.98	2526.58
966.14	2220.82
966.31	2057.80
966.48	2027.49
966.65	2251.13
966.81	2138.28
966.98	1985.30
967.15	2008.03
967.32	2072.75
967.49	1899.90
967.65	1790.74
967.82	1745.89
967.99	1975.88
968.16	1776.00
968.32	2001.48
968.49	1862.83
968.66	1927.96
968.83	2172.28
968.99	1944.14
969.16	1802.42
969.33	2108.38
969.50	2014.79
969.66	1937.38
969.83	2038.14
970.00	1989.81
970.17	1962.77
970.33	1800.16
970.50	1704.11
970.67	2064.15
970.84	2060.87
971.00	1732.58
971.17	1723.78
971.34	1959.70
971.50	1892.12
971.67	1893.55
971.84	1826.17
972.01	1740.98
972.17	1659.06
972.34	1751.83
972.51	1853.00
972.67	2008.03
972.84	1918.74
973.01	1727.46
973.18	1755.93
973.34	1981.82
973.51	1770.47
973.68	1785.21
973.84	1811.43
974.01	1824.94
974.18	2068.45
974.34	1860.99
974.51	1867.75
974.68	1786.85
974.85	2126.41
975.01	1919.97
975.18	1811.43
975.35	1879.63
975.51	1816.96
975.68	1670.12
975.85	1915.47
976.01	1805.49
976.18	2044.28
976.35	1778.66
976.51	1750.60
976.68	2085.45
976.85	2029.54
977.01	1829.25
977.18	1900.11
977.35	1959.91
977.51	1769.85
977.68	1668.48
977.85	1732.79
978.01	2040.19
978.18	1995.75
978.35	1882.08
978.51	1887.20
978.68	2071.73
978.85	2127.23
979.01	1808.36
979.18	1842.97
979.34	1915.67
979.51	1913.83
979.68	1755.31
979.84	1843.58
980.01	2218.56
980.18	1894.99
980.34	1761.46
980.51	1879.63
980.67	1980.18
980.84	1993.49
981.01	1814.71
981.17	1901.13
981.34	1691.62
981.51	1977.72
981.67	1735.65
981.84	1896.83
982.00	1941.27
982.17	1855.66
982.34	1654.76
982.50	1580.62
982.67	2084.22
982.83	1822.69
983.00	1703.09
983.17	1615.64
983.33	2007.42
983.50	1689.57
983.66	1678.11
983.83	1624.24
984.00	1835.80
984.16	1876.55
984.33	1629.57
984.49	1602.54
984.66	1757.57
984.83	1969.53
984.99	1667.46
985.16	1595.78
985.32	1946.80
985.49	1963.39
985.65	1742.41
985.82	1607.04
985.99	2053.29
986.15	1893.35
986.32	1686.50
986.48	1671.55
986.65	1830.88
986.81	1972.60
986.98	1599.05
987.14	1684.66
987.31	1883.52
987.48	1678.11
987.64	1558.50
987.81	1581.03
987.97	2118.62
988.14	1780.71
988.30	1651.69
988.47	1509.97
988.63	1907.48
988.80	1734.42
988.96	1711.49
989.13	1712.31
989.30	1819.01
989.46	1962.36
989.63	1584.31
989.79	1581.44
989.96	1872.87
990.12	2067.63
990.29	1667.87
990.45	1684.45
990.62	1832.93
990.78	2028.10
990.95	1768.63
991.11	1669.50
991.28	1807.95
991.44	1901.95
991.61	1556.25
991.77	1695.31
991.94	1895.40
992.10	2011.92
992.27	1705.34
992.43	1663.97
992.60	1921.61
992.76	1832.73
992.93	1797.91
993.09	1620.76
993.26	2008.85
993.42	2098.14
993.59	1662.13
993.75	1570.18
993.92	1779.07
994.08	1766.17
994.25	1718.66
994.41	1621.99
994.58	1967.07
994.74	2039.98
994.91	1618.92
995.07	1704.93
995.24	1855.46
995.40	1875.32
995.56	1782.96
995.73	1729.71
995.89	2097.73
996.06	1836.00
996.22	1636.53
996.39	1566.90
996.55	1859.76
996.72	1908.09
996.88	1582.67
997.05	1609.70
997.21	2143.20
997.37	1934.72
997.54	1734.02
997.70	1665.00
997.87	1924.07
998.03	1850.13
998.20	1567.92
998.36	1567.52
998.52	1941.88
998.69	1989.19
998.85	1557.07
999.02	1673.40
999.18	1979.77
999.35	1976.90
999.51	1683.23
999.67	1663.57
999.84	1774.77
1000.00	1962.36
1000.17	1755.31
1000.33	1617.90
1000.49	1811.63
1000.66	1877.37
1000.82	1645.34
1000.99	1700.22
1001.15	2021.55
1001.31	1858.12
1001.48	1643.29
1001.64	1714.35
1001.81	1833.96
1001.97	2139.10
1002.13	1621.79
1002.30	1665.61
1002.46	2036.70
1002.63	1823.51
1002.79	1727.05
1002.95	1643.09
1003.12	2004.96
1003.28	1921.61
1003.45	1624.65
1003.61	1575.50
1003.77	1863.65
1003.94	1706.37
1004.10	1666.84
1004.26	1692.03
1004.43	1956.83
1004.59	2074.18
1004.75	1652.92
1004.92	1609.50
1005.08	1813.89
1005.25	1883.31
1005.41	1644.11
1005.57	1704.93
1005.74	2020.32
1005.90	1803.85
1006.06	1731.76
1006.23	1648.21
1006.39	1948.64
1006.55	2220.20
1006.72	1785.42
1006.88	1609.09
1007.04	1765.14
1007.21	1853.00
1007.37	1687.32
1007.53	1646.16
1007.70	2062.10
1007.86	1958.06
1008.02	1707.19
1008.19	1619.33
1008.35	1918.54
1008.51	1770.26
1008.68	1668.07
1008.84	1595.37
1009.00	1752.04
1009.17	2012.33
1009.33	1781.12
1009.49	1724.80
1009.65	1774.77
1009.82	1915.26
1009.98	1710.46
1010.14	1567.52
1010.31	1962.57
1010.47	1919.15
1010.63	1699.81
1010.80	1693.67
1010.96	1935.33
1011.12	1833.96
1011.28	1679.13
1011.45	1635.30
1011.61	2206.07
1011.77	1746.30
1011.94	1630.80
1012.10	1595.37
1012.26	1733.40
1012.42	1799.55
1012.59	1693.67
1012.75	1700.84
1012.91	1842.76
1013.07	1967.69
1013.24	1596.19
1013.40	1634.28
1013.56	1878.60
1013.72	1838.87
1013.89	1737.70
1014.05	1702.27
1014.21	2121.29
1014.37	2168.59
1014.54	1686.91
1014.70	1615.03
1014.86	1835.39
1015.02	1748.56
1015.19	1653.53
1015.35	1590.04
1015.51	1840.30
1015.67	1819.83
1015.84	1625.88
1016.00	1669.91
1016.16	2007.42
1016.32	1976.49
1016.49	1637.76
1016.65	1600.08
1016.81	1855.05
1016.97	1921.20
1017.14	1766.58
1017.30	1633.66
1017.46	1811.84
1017.62	1909.94
1017.78	1705.96
1017.95	1631.21
1018.11	1958.88
1018.27	2147.50
1018.43	1756.54
1018.59	1700.63
1018.76	1986.12
1018.92	2179.86
1019.08	1627.73
1019.24	1661.72
1019.40	2036.91
1019.57	1909.32
1019.73	1737.70
1019.89	1657.01
1020.05	1901.95
1020.21	2120.47
1020.38	1601.10
1020.54	1780.50
1020.70	1961.95
1020.86	1948.64
1021.02	1671.55
1021.18	1642.88
1021.35	1820.64
1021.51	1930.21
1021.67	1788.70
1021.83	1672.99
1021.99	1899.70
1022.15	1877.58
1022.32	1719.68
1022.48	1713.74
1022.64	2015.20
1022.80	2063.33
1022.96	1692.24
1023.12	1631.82
1023.29	2010.90
1023.45	1923.86
1023.61	1654.14
1023.77	1792.38
1023.93	1902.36
1024.09	1755.52
1024.25	1644.11
1024.42	1593.52
1024.58	1824.74
1024.74	1910.14
1024.90	1658.65
1025.06	1738.52
1025.22	1805.69
1025.38	2088.31
1025.54	1609.70
1025.71	1723.37
1025.87	1960.73
1026.03	1946.59
1026.19	1640.22
1026.35	1779.89
1026.51	1956.01
1026.67	1880.04
1026.83	1714.35
1026.99	1789.31
1027.16	1913.62
1027.32	2004.76
1027.48	1672.37
1027.64	1621.17
1027.80	1943.11
1027.96	1891.91
1028.12	1679.95
1028.28	1619.12
1028.44	1912.80
1028.60	2054.73
1028.77	1771.90
1028.93	1686.50
1029.09	1820.23
1029.25	1769.65
1029.41	1721.93
1029.57	1753.06
1029.73	1908.91
1029.89	2066.81
1030.05	1782.35
1030.21	1736.88
1030.37	2174.53
1030.53	1944.34
1030.69	1694.28
1030.85	1585.13
1031.02	1771.49
1031.18	1874.92
1031.34	1672.78
1031.50	1741.18
1031.66	1804.26
1031.82	2065.58
1031.98	1710.87
1032.14	1611.96
1032.30	1763.10
1032.46	1971.37
1032.62	1784.40
1032.78	1587.79
1032.94	1797.91
1033.10	1832.73
1033.26	1722.34
1033.42	1754.90
1033.58	2140.95
1033.74	1829.25
1033.90	1634.28
1034.06	1823.92
1034.22	2150.78
1034.38	2001.28
1034.54	1663.36
1034.70	1717.22
1034.86	2114.32
>>>>>End Processed Spectral Data<<<<<
