SpectraSuite Data File
++++++++++++++++++++++++++++++++++++
Date: Thu Mar 30 16:18:10 PDT 2017
User: UCSD _CER
Dark Spectrum Present: No
Reference Spectrum Present: No
Number of Sampled Component Spectra: 1
Spectrometers: USB4C00073
Integration Time (usec): 250000 (USB4C00073)
Spectra Averaged: 10 (USB4C00073)
Boxcar Smoothing: 0 (USB4C00073)
Correct for Electrical Dark: No (USB4C00073)
Strobe/Lamp Enabled: No (USB4C00073)
Correct for Detector Non-linearity: No (USB4C00073)
Correct for Stray Light: No (USB4C00073)
Number of Pixels in Processed Spectrum: 3648
>>>>>Begin Processed Spectral Data<<<<<
345.37	1272.81
345.58	1272.81
345.80	1272.81
346.01	1274.86
346.22	1295.34
346.43	1969.74
346.65	1789.72
346.86	2116.58
347.07	2090.16
347.28	1787.67
347.50	1802.01
347.71	1919.77
347.92	1707.60
348.13	1811.43
348.35	1732.99
348.56	1911.16
348.77	1759.21
348.98	1814.09
349.20	1671.14
349.41	1905.02
349.62	1973.22
349.83	1852.59
350.05	1715.99
350.26	1955.61
350.47	2084.42
350.68	1783.58
350.90	1714.35
351.11	2093.43
351.32	2054.73
351.53	1814.91
351.75	1714.76
351.96	1938.61
352.17	1907.27
352.38	1842.56
352.60	1866.31
352.81	1910.14
353.02	2131.94
353.23	1752.86
353.44	1815.11
353.66	1850.75
353.87	1869.59
354.08	1880.24
354.29	1792.59
354.51	1814.30
354.72	1878.40
354.93	1763.10
355.14	1702.07
355.35	1719.88
355.57	2016.23
355.78	1764.53
355.99	1826.58
356.20	1910.96
356.42	1862.22
356.63	1872.05
356.84	1806.72
357.05	1994.11
357.26	2164.50
357.48	1878.40
357.69	1833.75
357.90	1967.07
358.11	1822.49
358.32	1805.69
358.54	1847.27
358.75	1863.86
358.96	1969.74
359.17	1789.92
359.38	1779.68
359.60	2000.46
359.81	1871.23
360.02	1808.56
360.23	1749.99
360.44	1830.88
360.66	2028.51
360.87	1745.69
361.08	1717.02
361.29	1946.59
361.50	1944.75
361.72	1754.70
361.93	1810.61
362.14	1930.01
362.35	1715.17
362.56	1871.64
362.77	1700.84
362.99	1948.85
363.20	1914.24
363.41	1849.52
363.62	1700.63
363.83	1985.30
364.05	2015.61
364.26	1694.69
364.47	1742.21
364.68	2026.26
364.89	1824.54
365.10	1690.80
365.32	1795.86
365.53	1792.38
365.74	1830.88
365.95	1799.55
366.16	1701.25
366.37	1876.76
366.59	1876.55
366.80	1789.72
367.01	1652.10
367.22	2159.38
367.43	2269.97
367.64	1808.77
367.86	1793.41
368.07	1960.11
368.28	2056.16
368.49	1711.49
368.70	1840.30
368.91	1849.11
369.12	1860.58
369.34	1708.21
369.55	1717.02
369.76	1904.61
369.97	1851.36
370.18	1724.80
370.39	1735.45
370.60	1735.04
370.82	1776.41
371.03	1796.89
371.24	1738.93
371.45	1987.14
371.66	1982.23
371.87	1793.82
372.08	1764.12
372.30	1783.99
372.51	1981.00
372.72	1858.12
372.93	1757.57
373.14	2104.08
373.35	1817.37
373.56	1722.34
373.78	1789.92
373.99	1992.88
374.20	2264.44
374.41	1804.26
374.62	1798.12
374.83	2114.73
375.04	1856.28
375.25	1803.03
375.47	1761.87
375.68	1843.38
375.89	1993.70
376.10	1791.56
376.31	1867.13
376.52	1969.33
376.73	1948.23
376.94	1814.30
377.15	1764.12
377.37	1914.85
377.58	1858.33
377.79	1664.18
378.00	1745.48
378.21	1942.29
378.42	1976.70
378.63	1814.30
378.84	1870.61
379.05	2043.67
379.27	1927.55
379.48	1902.97
379.69	1753.68
379.90	2076.85
380.11	1652.10
380.32	1800.37
380.53	1881.06
380.74	2068.04
380.95	1925.09
381.16	1793.00
381.37	1792.79
381.59	2095.69
381.80	2011.51
382.01	1749.37
382.22	1706.57
382.43	1948.03
382.64	1885.97
382.85	1707.60
383.06	1819.21
383.27	1980.39
383.48	1821.26
383.69	1818.19
383.91	1734.42
384.12	1975.68
384.33	1962.57
384.54	1790.74
384.75	1697.77
384.96	2281.44
385.17	2004.96
385.38	1761.25
385.59	1762.89
385.80	1986.73
386.01	2088.11
386.22	1874.71
386.43	1814.91
386.64	2171.26
386.86	1868.16
387.07	1914.85
387.28	1702.89
387.49	1821.67
387.70	2026.87
387.91	1857.10
388.12	1761.05
388.33	1947.62
388.54	1828.22
388.75	1779.68
388.96	1852.59
389.17	1822.69
389.38	1876.35
389.59	1865.70
389.80	1816.75
390.01	1893.35
390.22	1852.18
390.43	1897.44
390.64	1658.85
390.86	1959.91
391.07	2012.13
391.28	1811.63
391.49	1836.62
391.70	1756.13
391.91	1806.31
392.12	1819.42
392.33	1777.84
392.54	1896.83
392.75	1867.13
392.96	1879.42
393.17	1747.33
393.38	2190.10
393.59	2028.10
393.80	1736.27
394.01	1808.97
394.22	1861.19
394.43	2124.15
394.64	1733.81
394.85	1902.15
395.06	1890.07
395.27	1906.04
395.48	1800.57
395.69	1724.80
395.90	1907.27
396.11	1897.24
396.32	1762.89
396.53	1909.94
396.74	1866.72
396.95	2033.63
397.16	1763.51
397.37	1687.94
397.58	2010.90
397.79	1896.42
398.00	1828.84
398.21	1783.17
398.42	1940.04
398.63	2174.94
398.84	1809.99
399.05	1749.58
399.26	2046.13
399.47	1956.63
399.68	1628.34
399.89	1734.63
400.10	1760.84
400.31	1870.21
400.52	1835.18
400.73	1767.40
400.94	1714.76
401.15	1926.32
401.36	1790.95
401.57	1819.42
401.78	2050.22
401.99	2008.65
402.20	1714.76
402.41	1901.95
402.62	2081.35
402.83	1884.13
403.04	1763.51
403.25	1888.02
403.46	1950.90
403.67	2050.84
403.88	1764.73
404.09	1772.93
404.30	1820.44
404.51	1808.77
404.72	1726.23
404.93	1906.86
405.14	1810.40
405.35	1892.73
405.56	1792.38
405.77	1799.96
405.98	1922.22
406.19	1881.26
406.40	1731.35
406.61	1777.43
406.82	1804.87
407.03	2166.96
407.24	1703.09
407.45	1807.33
407.66	1931.85
407.87	2021.75
408.08	1868.98
408.29	1859.97
408.49	1993.29
408.70	1860.17
408.91	1808.56
409.12	1898.26
409.33	1783.78
409.54	2063.53
409.75	1774.56
409.96	1756.54
410.17	2000.25
410.38	1867.54
410.59	1778.87
410.80	1900.31
411.01	1900.31
411.22	1877.99
411.43	1867.13
411.64	1755.31
411.85	1783.58
412.06	1789.92
412.27	1625.88
412.47	1779.48
412.68	1884.54
412.89	1940.45
413.10	1768.22
413.31	1672.58
413.52	2143.40
413.73	2134.39
413.94	1758.80
414.15	1909.53
414.36	1832.93
414.57	1769.65
414.78	1674.83
414.99	1760.64
415.19	1995.13
415.40	1955.40
415.61	1974.04
415.82	1858.12
416.03	2000.25
416.24	1988.58
416.45	1798.94
416.66	1748.15
416.87	1714.35
417.08	2013.36
417.29	1773.34
417.50	1844.20
417.70	1989.81
417.91	1960.32
418.12	1830.68
418.33	1807.54
418.54	1959.29
418.75	2050.84
418.96	1951.30
419.17	1904.00
419.38	2170.85
419.59	2075.21
419.79	1916.28
420.00	1870.00
420.21	2329.77
420.42	1954.38
420.63	1812.25
420.84	1899.08
421.05	1919.36
421.26	1901.33
421.47	1733.40
421.67	2036.91
421.88	1800.16
422.09	1738.52
422.30	1917.31
422.51	1807.54
422.72	2095.69
422.93	1977.52
423.14	1791.15
423.35	1685.48
423.55	1731.76
423.76	1805.28
423.97	1802.01
424.18	1661.52
424.39	1869.18
424.60	2020.94
424.81	1804.87
425.02	1897.03
425.22	1900.11
425.43	1885.16
425.64	2017.25
425.85	1901.33
426.06	2162.86
426.27	2042.85
426.48	1908.91
426.68	1857.10
426.89	2003.32
427.10	2122.72
427.31	1812.25
427.52	1746.92
427.73	1975.47
427.94	1922.02
428.14	1864.68
428.35	1802.01
428.56	2095.07
428.77	2020.32
428.98	1837.23
429.19	1833.55
429.40	1839.08
429.60	1881.67
429.81	1932.05
430.02	1859.97
430.23	1894.99
430.44	1990.01
430.65	1786.44
430.85	1836.00
431.06	1983.05
431.27	1689.37
431.48	1778.46
431.69	1849.11
431.90	1906.04
432.10	1894.99
432.31	1847.06
432.52	1720.09
432.73	2192.15
432.94	2088.11
433.15	1900.72
433.35	1803.44
433.56	2049.81
433.77	1897.24
433.98	1913.42
434.19	1778.25
434.40	1881.26
434.60	1890.28
434.81	1793.00
435.02	1845.83
435.23	1882.49
435.44	1834.57
435.64	1687.73
435.85	1750.19
436.06	1862.42
436.27	1804.67
436.48	1690.80
436.68	1743.03
436.89	2103.06
437.10	1981.41
437.31	1808.97
437.52	1877.17
437.73	1919.36
437.93	1875.53
438.14	1839.28
438.35	1678.11
438.56	1825.15
438.77	1875.12
438.97	1932.67
439.18	1725.21
439.39	2009.67
439.60	1732.38
439.80	1679.54
440.01	1805.69
440.22	1840.51
440.43	1968.71
440.64	1692.65
440.84	1830.06
441.05	1762.89
441.26	2239.04
441.47	1830.88
441.68	1744.46
441.88	1871.64
442.09	1837.03
442.30	1950.08
442.51	1850.13
442.71	1838.87
442.92	1930.21
443.13	1732.38
443.34	1743.64
443.55	1786.44
443.75	1976.90
443.96	1757.16
444.17	1745.89
444.38	2048.17
444.58	1785.83
444.79	1861.81
445.00	1823.92
445.21	1912.39
445.41	1854.23
445.62	1608.27
445.83	1879.01
446.04	1914.44
446.24	1743.03
446.45	1646.98
446.66	1789.31
446.87	1942.29
447.07	1836.62
447.28	2004.14
447.49	1808.56
447.70	1981.00
447.90	1990.83
448.11	1786.44
448.32	1872.46
448.53	2057.59
448.73	2092.00
448.94	1815.93
449.15	1916.49
449.36	1914.65
449.56	1944.55
449.77	1776.20
449.98	1702.27
450.19	1828.84
450.39	1890.89
450.60	1867.34
450.81	1857.30
451.02	1895.40
451.22	2078.28
451.43	1764.12
451.64	1792.79
451.84	1868.77
452.05	2048.99
452.26	1856.69
452.47	1825.15
452.67	1825.15
452.88	2052.06
453.09	1759.82
453.30	1721.93
453.50	1994.31
453.71	2085.24
453.92	1792.18
454.12	1898.06
454.33	1807.74
454.54	1857.92
454.75	1727.46
454.95	1703.91
455.16	1927.75
455.37	1948.03
455.57	1800.57
455.78	1779.68
455.99	1887.82
456.19	1872.87
456.40	1733.20
456.61	1816.55
456.82	1880.04
457.02	1984.69
457.23	1854.03
457.44	1952.12
457.64	1843.79
457.85	1922.02
458.06	1796.68
458.26	1947.82
458.47	1874.71
458.68	1987.76
458.89	1719.68
459.09	1891.91
459.30	2164.50
459.51	1917.72
459.71	1683.43
459.92	1785.01
460.13	1986.32
460.33	2158.97
460.54	1774.97
460.75	1787.67
460.95	1758.80
461.16	1942.70
461.37	1804.87
461.57	1830.47
461.78	1900.92
461.99	1733.81
462.19	2002.09
462.40	1753.68
462.61	2309.08
462.81	2014.79
463.02	1755.52
463.23	1813.27
463.43	1979.36
463.64	1838.05
463.85	2730.35
464.05	1774.97
464.26	2284.30
464.47	2052.68
464.67	1946.39
464.88	1827.61
465.09	1796.27
465.29	1888.84
465.50	1898.47
465.71	1817.37
465.91	1788.08
466.12	1869.80
466.33	1842.35
466.53	1800.98
466.74	2069.47
466.94	1871.23
467.15	1816.96
467.36	1982.02
467.56	1786.65
467.77	1901.54
467.98	1842.76
468.18	1754.09
468.39	1837.23
468.60	2117.39
468.80	1834.16
469.01	1743.64
469.21	1963.59
469.42	1986.53
469.63	1795.45
469.83	1744.66
470.04	1989.60
470.25	2090.57
470.45	1847.27
470.66	1740.57
470.86	1933.49
471.07	1806.92
471.28	1881.06
471.48	1905.84
471.69	1876.96
471.90	2357.21
472.10	1792.18
472.31	1816.14
472.51	1802.21
472.72	1795.45
472.93	1720.50
473.13	1916.28
473.34	1939.02
473.54	1855.87
473.75	1819.83
473.96	1953.56
474.16	1870.82
474.37	1941.27
474.57	1824.33
474.78	1761.46
474.99	1950.90
475.19	1909.53
475.40	1785.21
475.60	1715.79
475.81	2059.03
476.02	1833.14
476.22	1834.57
476.43	1939.02
476.63	1816.34
476.84	2022.98
477.05	1673.80
477.25	1782.35
477.46	2261.37
477.66	1897.44
477.87	1698.38
478.08	1813.27
478.28	1991.85
478.49	1876.76
478.69	1773.54
478.90	1791.36
479.10	1959.09
479.31	2088.72
479.52	1877.78
479.72	1927.96
479.93	1960.52
480.13	1814.09
480.34	1759.00
480.54	1860.17
480.75	1788.90
480.96	2047.97
481.16	1743.03
481.37	1909.94
481.57	2006.39
481.78	1972.19
481.98	1993.49
482.19	1859.56
482.40	2115.55
482.60	1964.62
482.81	1885.36
483.01	1761.46
483.22	2024.01
483.42	1987.55
483.63	1879.22
483.83	1863.65
484.04	1849.11
484.24	2001.89
484.45	1872.25
484.66	1708.21
484.86	1929.39
485.07	1812.86
485.27	1859.56
485.48	1794.23
485.68	2033.43
485.89	1799.55
486.09	1869.59
486.30	1778.25
486.50	1883.93
486.71	1897.65
486.91	1852.18
487.12	1869.59
487.33	2091.39
487.53	2104.29
487.74	1860.17
487.94	1801.80
488.15	1891.30
488.35	1947.21
488.56	1791.56
488.76	1799.55
488.97	1875.73
489.17	1943.93
489.38	1816.75
489.58	1838.87
489.79	1930.42
489.99	1922.63
490.20	1846.65
490.40	1912.80
490.61	1927.55
490.81	1825.56
491.02	1834.57
491.22	1873.48
491.43	1975.88
491.63	1870.00
491.84	1915.47
492.04	1709.85
492.25	1975.27
492.45	1878.40
492.66	1790.74
492.86	1697.15
493.07	1843.79
493.27	2174.74
493.48	1699.81
493.68	1832.52
493.89	1878.19
494.09	1985.51
494.30	1802.42
494.50	2047.97
494.71	1978.13
494.91	1729.51
495.12	1807.95
495.32	1887.20
495.53	1877.99
495.73	1693.06
495.94	1793.00
496.14	1679.13
496.35	2102.65
496.55	1857.92
496.76	1802.21
496.96	1849.52
497.17	1874.30
497.37	1937.99
497.58	1754.29
497.78	1732.79
497.98	1847.27
498.19	1855.87
498.39	1843.99
498.60	1887.61
498.80	1695.92
499.01	1986.12
499.21	1760.23
499.42	1848.91
499.62	1856.07
499.83	2187.64
500.03	1720.29
500.24	1863.86
500.44	2062.30
500.64	2023.19
500.85	1791.77
501.05	1945.98
501.26	1720.09
501.46	2080.53
501.67	1772.52
501.87	1742.00
502.08	1797.09
502.28	1860.37
502.48	1882.49
502.69	1953.56
502.89	1684.04
503.10	1793.20
503.30	1848.70
503.51	1843.38
503.71	1749.78
503.92	1975.47
504.12	1887.00
504.32	1808.15
504.53	1974.04
504.73	1982.23
504.94	1934.92
505.14	2017.45
505.35	1983.05
505.55	1965.23
505.75	1855.05
505.96	1937.99
506.16	2142.18
506.37	1819.62
506.57	1748.56
506.78	1859.76
506.98	2010.70
507.18	1704.52
507.39	1727.26
507.59	1838.46
507.80	1787.26
508.00	1861.60
508.20	1980.59
508.41	1825.35
508.61	2061.28
508.82	1984.89
509.02	1918.54
509.22	1742.00
509.43	1747.53
509.63	1790.74
509.84	1798.32
510.04	1717.84
510.24	2025.24
510.45	1970.56
510.65	1748.35
510.86	1853.41
511.06	1756.75
511.26	1976.90
511.47	1918.54
511.67	1782.35
511.88	1951.92
512.08	1998.82
512.28	1718.66
512.49	1912.60
512.69	1906.86
512.90	1915.67
513.10	1805.49
513.30	1877.78
513.51	1953.97
513.71	2060.87
513.91	1886.59
514.12	1849.73
514.32	1975.47
514.53	1778.25
514.73	1900.11
514.93	1793.20
515.14	1899.49
515.34	2053.29
515.54	1824.74
515.75	1883.52
515.95	1988.58
516.15	2061.69
516.36	1884.75
516.56	1926.73
516.77	1649.84
516.97	1948.85
517.17	1823.92
517.38	1932.67
517.58	2085.04
517.78	1846.45
517.99	1904.20
518.19	1862.42
518.39	2065.17
518.60	1876.14
518.80	1792.59
519.00	1923.04
519.21	1880.44
519.41	2117.19
519.61	1811.84
519.82	1894.58
520.02	1890.48
520.22	1871.23
520.43	1862.22
520.63	1815.52
520.83	1806.31
521.04	1689.98
521.24	1912.39
521.44	1819.62
521.65	1828.02
521.85	2002.50
522.05	1779.07
522.26	1842.76
522.46	2133.78
522.66	1975.06
522.87	1814.09
523.07	1970.56
523.27	1838.67
523.48	2087.90
523.68	1878.19
523.88	1882.08
524.09	2052.47
524.29	1916.49
524.49	1719.06
524.70	1966.46
524.90	2064.35
525.10	1995.95
525.31	1740.77
525.51	1745.07
525.71	1986.32
525.91	1970.56
526.12	1814.50
526.32	1710.67
526.52	1821.46
526.73	1811.22
526.93	1872.25
527.13	1735.45
527.34	1864.27
527.54	1890.07
527.74	1807.54
527.94	1729.92
528.15	1777.43
528.35	1907.27
528.55	1931.03
528.76	1922.84
528.96	1699.81
529.16	2014.38
529.36	1987.35
529.57	1755.31
529.77	2054.73
529.97	1785.01
530.18	1913.83
530.38	1820.85
530.58	1932.87
530.78	1906.66
530.99	1799.14
531.19	1911.78
531.39	1808.56
531.60	1881.47
531.80	1810.61
532.00	1970.76
532.20	1927.55
532.41	1781.32
532.61	1808.15
532.81	1849.52
533.01	1874.10
533.22	1964.82
533.42	1959.09
533.62	1673.60
533.82	2052.06
534.03	1876.96
534.23	1895.60
534.43	1747.53
534.63	1827.81
534.84	1924.27
535.04	1885.16
535.24	1849.73
535.44	2224.91
535.65	1846.86
535.85	1794.64
536.05	1820.64
536.25	1881.06
536.46	1785.83
536.66	2012.13
536.86	1880.24
537.06	1968.92
537.27	2043.05
537.47	1922.63
537.67	1815.32
537.87	2061.69
538.08	1853.82
538.28	1739.75
538.48	1742.21
538.68	1859.35
538.88	1969.74
539.09	1708.62
539.29	1866.31
539.49	1994.52
539.69	1937.99
539.90	1895.80
540.10	1772.72
540.30	2047.76
540.50	1818.19
540.70	1743.44
540.91	1871.84
541.11	1980.80
541.31	2067.01
541.51	1882.08
541.72	1910.96
541.92	1938.40
542.12	1830.88
542.32	1825.97
542.52	1796.68
542.73	1816.34
542.93	1958.68
543.13	1841.94
543.33	1905.02
543.53	1983.46
543.74	1993.29
543.94	1820.03
544.14	1930.42
544.34	2041.21
544.54	1902.15
544.75	1939.22
544.95	2058.62
545.15	1992.26
545.35	2112.07
545.55	1977.11
545.75	1817.57
545.96	2160.20
546.16	1795.25
546.36	1865.70
546.56	1862.01
546.76	2024.01
546.97	2109.41
547.17	1859.97
547.37	1909.94
547.57	1810.40
547.77	1989.81
547.97	1899.29
548.18	1897.03
548.38	1893.35
548.58	2053.50
548.78	1810.61
548.98	1884.75
549.18	2034.25
549.39	2128.45
549.59	1928.16
549.79	1873.69
549.99	2111.25
550.19	2023.80
550.39	1951.92
550.60	1875.12
550.80	1917.10
551.00	1981.82
551.20	1812.86
551.40	1826.79
551.60	1954.17
551.80	1916.08
552.01	1990.83
552.21	1889.05
552.41	1915.47
552.61	2106.13
552.81	1911.37
553.01	1768.63
553.21	1931.03
553.42	1766.37
553.62	1798.73
553.82	1789.72
554.02	2091.18
554.22	2002.91
554.42	1750.81
554.62	1917.92
554.83	2108.38
555.03	2112.89
555.23	1856.89
555.43	2105.93
555.63	1963.80
555.83	1964.82
556.03	1894.17
556.23	1744.87
556.44	1951.71
556.64	2026.47
556.84	1656.40
557.04	1835.80
557.24	1918.74
557.44	1912.80
557.64	1888.23
557.84	1787.06
558.04	1855.46
558.25	2003.53
558.45	1783.99
558.65	1890.48
558.85	1888.64
559.05	1697.97
559.25	1839.08
559.45	1942.91
559.65	2193.99
559.85	2563.85
560.05	1915.26
560.26	1954.38
560.46	1928.98
560.66	1870.61
560.86	1856.07
561.06	1775.38
561.26	2099.37
561.46	1992.47
561.66	1839.28
561.86	1986.94
562.06	1825.97
562.26	1872.25
562.47	1882.08
562.67	1769.04
562.87	1975.06
563.07	1732.79
563.27	1897.24
563.47	1891.71
563.67	1809.18
563.87	1973.01
564.07	1830.47
564.27	1889.25
564.47	1909.73
564.67	1939.63
564.87	1812.66
565.08	1930.62
565.28	1852.18
565.48	1967.28
565.68	1910.96
565.88	1973.01
566.08	2116.37
566.28	1889.25
566.48	1739.54
566.68	1857.10
566.88	1827.20
567.08	2003.12
567.28	1841.53
567.48	1859.76
567.68	1949.46
567.88	1723.16
568.08	1894.99
568.28	2003.12
568.48	1886.38
568.68	2053.29
568.89	1887.61
569.09	1704.93
569.29	2010.90
569.49	2014.79
569.69	1768.63
569.89	1774.16
570.09	1683.23
570.29	1797.09
570.49	1716.61
570.69	1768.42
570.89	1986.12
571.09	2142.18
571.29	1723.37
571.49	1989.60
571.69	1924.89
571.89	1951.30
572.09	1814.09
572.29	1809.79
572.49	1981.82
572.69	1960.93
572.89	1869.18
573.09	1624.45
573.29	1881.06
573.49	1921.61
573.69	1862.63
573.89	1953.15
574.09	1828.43
574.29	2055.96
574.49	1844.61
574.69	1802.62
574.89	1761.25
575.09	1778.05
575.29	1781.53
575.49	1862.83
575.69	1931.85
575.89	1751.01
576.09	1869.59
576.29	1900.92
576.49	1758.39
576.69	1861.40
576.89	1796.27
577.09	1879.63
577.29	1714.56
577.49	2101.42
577.69	1817.98
577.89	1913.83
578.09	1907.68
578.29	1726.23
578.49	1893.55
578.69	1785.21
578.89	1999.23
579.09	1908.91
579.29	1765.14
579.49	1992.67
579.69	1834.57
579.89	2109.61
580.09	1702.07
580.29	1704.73
580.49	1812.86
580.69	1791.97
580.89	1841.12
581.09	1844.20
581.29	1816.14
581.49	1881.67
581.69	1766.78
581.89	1799.14
582.09	1806.51
582.28	1776.82
582.48	1938.40
582.68	2025.85
582.88	2066.61
583.08	1863.04
583.28	1834.16
583.48	1893.35
583.68	1792.38
583.88	1904.82
584.08	1879.83
584.28	1867.13
584.48	2147.09
584.68	1926.93
584.88	1839.49
585.08	1999.84
585.28	2016.02
585.48	2057.80
585.68	1929.80
585.87	1977.93
586.07	1922.02
586.27	1905.02
586.47	1943.11
586.67	1894.78
586.87	1865.70
587.07	1866.11
587.27	1721.93
587.47	1887.41
587.67	2063.74
587.87	2235.97
588.07	1937.79
588.27	1851.77
588.46	2027.69
588.66	2038.14
588.86	1906.45
589.06	1949.26
589.26	2018.89
589.46	2001.48
589.66	1769.45
589.86	1796.68
590.06	1849.52
590.26	1957.04
590.46	1841.12
590.66	1949.26
590.85	1827.20
591.05	1973.22
591.25	1801.80
591.45	1862.22
591.65	1990.22
591.85	1917.72
592.05	1861.19
592.25	1965.23
592.45	2043.26
592.64	1869.39
592.84	1874.71
593.04	1804.87
593.24	2233.72
593.44	1830.27
593.64	1940.04
593.84	1955.61
594.04	1840.30
594.24	2119.03
594.43	1818.80
594.63	1901.95
594.83	2020.12
595.03	2005.78
595.23	1817.98
595.43	1720.91
595.63	1802.62
595.83	1995.95
596.02	1690.39
596.22	1909.73
596.42	1945.57
596.62	1900.31
596.82	1826.17
597.02	1971.78
597.22	2064.76
597.41	1893.55
597.61	1787.47
597.81	1941.68
598.01	1985.30
598.21	1838.87
598.41	1810.81
598.61	1772.31
598.80	1896.62
599.00	1940.66
599.20	2023.19
599.40	1808.97
599.60	1845.22
599.80	1983.87
599.99	2032.20
600.19	1858.53
600.39	1882.90
600.59	1973.63
600.79	1891.91
600.99	1888.84
601.19	2111.46
601.38	2136.85
601.58	1900.72
601.78	1681.79
601.98	1964.21
602.18	2000.25
602.37	2182.93
602.57	2012.13
602.77	2103.47
602.97	2084.83
603.17	2160.20
603.37	2048.17
603.56	2155.69
603.76	2073.77
603.96	2041.01
604.16	2055.96
604.36	2152.42
604.56	2064.35
604.75	1830.47
604.95	1893.55
605.15	2079.10
605.35	2035.48
605.55	1869.18
605.74	1830.88
605.94	2044.08
606.14	1913.01
606.34	1940.04
606.54	1860.58
606.73	1841.94
606.93	1960.11
607.13	1836.62
607.33	1884.54
607.53	2118.01
607.72	2042.23
607.92	1965.85
608.12	1979.57
608.32	1906.86
608.51	1994.11
608.71	1791.77
608.91	1915.67
609.11	1966.66
609.31	1892.94
609.50	1922.43
609.70	2073.16
609.90	2022.16
610.10	1987.96
610.29	1848.70
610.49	1780.71
610.69	1982.64
610.89	1905.02
611.09	1916.49
611.28	2008.03
611.48	2022.16
611.68	1882.70
611.88	1817.37
612.07	1789.31
612.27	1983.05
612.47	1805.49
612.67	1918.13
612.86	1989.19
613.06	1881.88
613.26	1735.86
613.46	1825.35
613.65	1900.52
613.85	2251.33
614.05	1996.56
614.25	1984.69
614.44	1877.99
614.64	1920.99
614.84	1840.51
615.04	1790.74
615.23	1854.85
615.43	1979.16
615.63	1961.13
615.83	1789.52
616.02	1715.79
616.22	1991.24
616.42	1755.72
616.62	1787.26
616.81	1861.60
617.01	1945.57
617.21	1906.04
617.41	1786.65
617.60	1875.94
617.80	1963.80
618.00	2001.07
618.19	1910.96
618.39	1936.35
618.59	1964.62
618.79	1898.26
618.98	1690.60
619.18	1859.15
619.38	2169.00
619.57	1891.09
619.77	1866.31
619.97	1863.04
620.17	1822.90
620.36	1743.44
620.56	1994.31
620.76	1729.92
620.95	1782.96
621.15	1867.34
621.35	1781.73
621.54	1849.32
621.74	1917.92
621.94	1809.59
622.14	1757.36
622.33	1732.17
622.53	1872.66
622.73	1847.27
622.92	1715.79
623.12	1876.14
623.32	2118.42
623.51	1957.45
623.71	1716.40
623.91	1978.13
624.10	1769.85
624.30	1890.28
624.50	1754.49
624.69	1768.22
624.89	2379.74
625.09	1846.45
625.29	1679.13
625.48	1746.30
625.68	1915.06
625.88	2011.31
626.07	1902.36
626.27	1795.45
626.47	1839.90
626.66	1686.71
626.86	1846.04
627.06	1833.14
627.25	1869.80
627.45	2060.05
627.64	1854.85
627.84	2061.89
628.04	1810.81
628.23	2107.16
628.43	1753.27
628.63	1783.17
628.82	1827.81
629.02	2132.14
629.22	1952.94
629.41	2018.48
629.61	1898.47
629.81	2149.75
630.00	1792.59
630.20	1750.81
630.40	1911.98
630.59	1941.27
630.79	1864.27
630.98	1879.63
631.18	1881.88
631.38	1869.18
631.57	1986.94
631.77	1733.61
631.97	1871.23
632.16	1950.90
632.36	1887.00
632.56	1892.12
632.75	1902.15
632.95	2022.78
633.14	1774.36
633.34	2038.96
633.54	1695.51
633.73	1841.53
633.93	1836.82
634.12	1724.80
634.32	2242.73
634.52	1899.49
634.71	1775.38
634.91	1905.43
635.11	1729.71
635.30	1788.08
635.50	1891.71
635.69	1771.29
635.89	2153.23
636.09	1995.54
636.28	1750.40
636.48	1794.23
636.67	1962.98
636.87	1965.44
637.07	1926.11
637.26	1791.56
637.46	1900.72
637.65	2034.86
637.85	1883.72
638.04	1800.78
638.24	1831.09
638.44	1946.59
638.63	1872.87
638.83	1806.51
639.02	1930.21
639.22	1957.65
639.42	1846.04
639.61	1870.21
639.81	1900.11
640.00	1864.68
640.20	1944.55
640.39	1922.63
640.59	2128.66
640.79	2015.00
640.98	1909.94
641.18	1892.12
641.37	1886.18
641.57	1809.38
641.76	1874.92
641.96	1687.32
642.15	1903.79
642.35	1832.11
642.55	1899.90
642.74	1734.02
642.94	1999.84
643.13	2081.56
643.33	1819.83
643.52	1814.30
643.72	1809.18
643.91	1886.38
644.11	1808.56
644.31	1787.47
644.50	1825.97
644.70	2029.13
644.89	1847.06
645.09	1912.19
645.28	1918.74
645.48	1958.88
645.67	1775.79
645.87	1692.24
646.06	1855.87
646.26	1898.06
646.45	1646.57
646.65	1652.92
646.84	2102.24
647.04	1830.88
647.24	1718.86
647.43	1880.44
647.63	1874.30
647.82	2047.35
648.02	1741.18
648.21	1806.51
648.41	2058.41
648.60	1822.28
648.80	1970.76
648.99	1872.25
649.19	1826.17
649.38	1691.42
649.58	1867.54
649.77	1881.26
649.97	2011.11
650.16	1964.00
650.36	1660.08
650.55	1969.94
650.75	1932.87
650.94	2071.32
651.14	1845.83
651.33	1897.03
651.53	2085.24
651.72	1792.38
651.92	1854.44
652.11	1677.29
652.31	1925.71
652.50	1920.99
652.70	1874.71
652.89	1739.95
653.09	2059.44
653.28	1859.15
653.48	1676.47
653.67	1702.89
653.87	2269.15
654.06	1912.60
654.25	2019.50
654.45	1791.97
654.64	1835.39
654.84	1871.64
655.03	1647.59
655.23	1961.54
655.42	1974.04
655.62	2092.82
655.81	1888.02
656.01	1757.98
656.20	1987.35
656.40	2070.70
656.59	1870.82
656.79	1999.84
656.98	1888.64
657.17	1990.01
657.37	1878.81
657.56	1803.85
657.76	1908.71
657.95	1980.59
658.15	1563.42
658.34	1852.80
658.54	1883.93
658.73	1767.81
658.92	1811.84
659.12	1854.85
659.31	1939.02
659.51	1762.07
659.70	1928.78
659.90	1810.81
660.09	1976.09
660.29	1883.11
660.48	1763.92
660.67	2028.92
660.87	1824.54
661.06	1906.04
661.26	1944.34
661.45	1953.76
661.65	1941.27
661.84	1840.51
662.03	1805.28
662.23	1817.98
662.42	2116.99
662.62	1749.37
662.81	1745.89
663.00	1810.40
663.20	1903.18
663.39	1932.67
663.59	1925.71
663.78	1803.65
663.97	1826.99
664.17	2009.88
664.36	1697.77
664.56	1771.08
664.75	1990.63
664.94	1931.85
665.14	1851.36
665.33	1827.81
665.53	1890.48
665.72	1853.82
665.91	1970.76
666.11	1848.70
666.30	1901.95
666.50	1858.33
666.69	1879.42
666.88	1857.10
667.08	1910.96
667.27	1829.04
667.47	1867.13
667.66	1829.04
667.85	1995.75
668.05	1879.63
668.24	1793.00
668.43	2003.94
668.63	1824.13
668.82	2017.04
669.02	1931.23
669.21	1862.22
669.40	1702.89
669.60	2104.08
669.79	1712.92
669.98	2331.00
670.18	1793.82
670.37	1756.54
670.56	1835.59
670.76	1891.09
670.95	1854.44
671.15	1979.57
671.34	1903.38
671.53	1836.21
671.73	1835.18
671.92	1810.81
672.11	1756.34
672.31	1804.26
672.50	1925.09
672.69	1736.06
672.89	1610.73
673.08	1805.49
673.27	1969.12
673.47	1918.13
673.66	1921.40
673.85	1739.14
674.05	1911.98
674.24	1914.44
674.43	1783.37
674.63	1982.43
674.82	2256.86
675.01	1716.61
675.21	2048.58
675.40	1916.49
675.59	1878.19
675.79	2131.94
675.98	1863.86
676.17	2004.14
676.37	1935.13
676.56	1846.45
676.75	1895.60
676.95	1883.72
677.14	1831.70
677.33	2012.13
677.52	1748.56
677.72	1797.50
677.91	1901.74
678.10	1713.54
678.30	1749.58
678.49	1755.31
678.68	2156.51
678.88	1691.62
679.07	2003.32
679.26	1838.46
679.45	2138.49
679.65	2022.78
679.84	1682.61
680.03	1696.54
680.23	1831.09
680.42	2182.11
680.61	1754.29
680.81	1813.48
681.00	1888.02
681.19	1935.13
681.38	1939.02
681.58	1920.38
681.77	1825.15
681.96	1981.41
682.15	1834.37
682.35	1884.75
682.54	1932.05
682.73	1739.95
682.93	1779.48
683.12	1764.73
683.31	1991.85
683.50	2217.54
683.70	1754.29
683.89	1841.94
684.08	1768.63
684.27	1976.70
684.47	1693.06
684.66	1842.56
684.85	2112.68
685.04	2028.31
685.24	1789.92
685.43	1843.99
685.62	1643.90
685.81	1913.01
686.01	1873.89
686.20	1812.86
686.39	1758.80
686.58	2180.68
686.78	1966.25
686.97	1957.86
687.16	2044.28
687.35	1956.22
687.55	1865.90
687.74	1890.89
687.93	1773.13
688.12	1869.18
688.32	1899.90
688.51	1698.99
688.70	1967.89
688.89	1733.20
689.08	1727.26
689.28	1800.78
689.47	1906.66
689.66	1895.19
689.85	1936.97
690.05	1810.81
690.24	1781.32
690.43	1911.98
690.62	1881.47
690.81	1810.40
691.01	1889.05
691.20	1814.09
691.39	1759.41
691.58	1911.16
691.77	2114.53
691.97	1895.40
692.16	1922.63
692.35	1839.28
692.54	1792.38
692.73	1939.43
692.93	1894.78
693.12	1917.92
693.31	1919.15
693.50	1912.80
693.69	1977.31
693.89	1830.27
694.08	2039.78
694.27	2065.99
694.46	1777.64
694.65	1873.89
694.85	1953.35
695.04	1945.16
695.23	1826.58
695.42	2042.03
695.61	2100.60
695.80	2234.54
696.00	2312.98
696.19	2356.39
696.38	2104.08
696.57	2124.36
696.76	2121.90
696.95	2014.79
697.15	2185.39
697.34	2164.70
697.53	1922.02
697.72	1963.39
697.91	1907.07
698.10	2095.48
698.30	1873.28
698.49	1821.26
698.68	1928.57
698.87	1839.08
699.06	1772.11
699.25	1870.21
699.45	2015.00
699.64	1892.32
699.83	1953.35
700.02	1749.37
700.21	1954.99
700.40	1808.36
700.59	1817.57
700.79	1848.91
700.98	1936.97
701.17	1795.66
701.36	1790.74
701.55	1814.71
701.74	2042.64
701.93	1735.86
702.12	1889.46
702.32	1802.21
702.51	2034.04
702.70	2006.19
702.89	1901.54
703.08	1816.55
703.27	2035.07
703.46	1939.43
703.65	1873.07
703.85	1744.66
704.04	1815.11
704.23	2029.74
704.42	1793.20
704.61	1815.11
704.80	2076.03
704.99	1787.47
705.18	1909.53
705.37	1819.83
705.57	1985.51
705.76	2157.54
705.95	1976.90
706.14	2300.48
706.33	2404.52
706.52	2559.55
706.71	2160.20
706.90	2002.91
707.09	2121.90
707.28	2051.86
707.47	1885.56
707.67	2044.28
707.86	1869.39
708.05	2088.31
708.24	1912.39
708.43	1902.77
708.62	1841.53
708.81	1812.86
709.00	1741.18
709.19	1806.10
709.38	1990.01
709.57	1761.05
709.76	1884.95
709.96	1828.22
710.15	2054.11
710.34	1890.48
710.53	1971.17
710.72	1889.66
710.91	2033.63
711.10	1934.72
711.29	1930.21
711.48	1804.67
711.67	1770.88
711.86	1950.08
712.05	1731.97
712.24	1798.12
712.43	1971.99
712.62	2063.33
712.81	1878.40
713.00	1989.60
713.19	1778.05
713.39	1936.76
713.58	1715.58
713.77	1868.98
713.96	1937.38
714.15	1837.03
714.34	1809.99
714.53	1726.23
714.72	2124.97
714.91	1759.41
715.10	1855.25
715.29	1733.81
715.48	2251.33
715.67	1963.80
715.86	1894.17
716.05	1861.19
716.24	1870.82
716.43	1817.57
716.62	1738.32
716.81	1719.68
717.00	1825.56
717.19	2065.17
717.38	1879.83
717.57	1857.51
717.76	1710.67
717.95	1983.25
718.14	1879.83
718.33	1826.79
718.52	1680.36
718.71	1706.57
718.90	1736.27
719.09	1807.95
719.28	1870.41
719.47	1982.64
719.66	1977.52
719.85	1930.82
720.04	1846.86
720.23	1909.32
720.42	1781.73
720.61	1922.02
720.80	1731.15
720.99	1905.43
721.18	1814.71
721.37	1781.73
721.56	1829.25
721.75	1979.16
721.94	1770.06
722.13	1848.70
722.32	1837.64
722.51	1966.46
722.70	1846.86
722.89	1881.88
723.08	1863.45
723.27	1971.99
723.46	1862.63
723.65	1844.81
723.84	1811.22
724.03	2039.57
724.22	1746.51
724.41	1888.23
724.60	1849.52
724.79	1973.83
724.98	1908.50
725.16	1806.31
725.35	1931.85
725.54	1779.89
725.73	1857.10
725.92	1867.75
726.11	1844.20
726.30	1998.20
726.49	1824.94
726.68	1886.59
726.87	1971.99
727.06	2085.65
727.25	1832.32
727.44	1979.16
727.63	1915.67
727.82	1836.41
728.01	1884.95
728.20	1948.64
728.38	2046.33
728.57	1842.35
728.76	1878.19
728.95	1947.41
729.14	1752.86
729.33	1763.10
729.52	1627.93
729.71	1774.77
729.90	1741.39
730.09	1801.19
730.28	1827.81
730.47	1783.99
730.66	2041.82
730.84	1896.01
731.03	1866.11
731.22	1914.44
731.41	1911.16
731.60	1948.64
731.79	1677.49
731.98	1788.90
732.17	1951.71
732.36	1928.16
732.55	1782.14
732.73	1726.03
732.92	2017.04
733.11	1950.90
733.30	1763.71
733.49	1736.68
733.68	1918.95
733.87	1911.98
734.06	1742.21
734.25	1742.82
734.43	1806.51
734.62	1922.63
734.81	1871.02
735.00	1826.17
735.19	1851.36
735.38	1951.30
735.57	1719.47
735.76	1908.91
735.94	1934.10
736.13	2183.34
736.32	2003.12
736.51	1960.93
736.70	2215.08
736.89	2222.05
737.08	2149.96
737.27	2199.31
737.45	2466.78
737.64	2367.86
737.83	2566.31
738.02	2520.03
738.21	2550.34
738.40	2511.42
738.59	2183.95
738.77	2280.41
738.96	2093.23
739.15	2130.09
739.34	2175.56
739.53	2066.40
739.72	2165.93
739.90	2103.88
740.09	1829.04
740.28	1935.74
740.47	2018.07
740.66	2003.73
740.85	1791.56
741.03	1882.70
741.22	1764.73
741.41	1850.75
741.60	1709.64
741.79	1889.05
741.98	2025.65
742.16	2103.88
742.35	1901.13
742.54	1837.64
742.73	2144.63
742.92	1830.47
743.10	1713.54
743.29	1805.69
743.48	2178.83
743.67	1827.81
743.86	1719.68
744.05	1728.08
744.23	1756.34
744.42	1784.80
744.61	1838.05
744.80	1735.45
744.99	1794.84
745.17	1673.80
745.36	1719.06
745.55	1902.77
745.74	1858.33
745.93	1780.71
746.11	1770.06
746.30	1756.75
746.49	2002.71
746.68	1749.17
746.86	1811.22
747.05	1829.25
747.24	1935.33
747.43	1950.28
747.62	1726.03
747.80	1786.24
747.99	1994.52
748.18	1956.63
748.37	1897.24
748.56	1902.77
748.74	2017.86
748.93	1889.66
749.12	2085.24
749.31	2573.89
749.49	2929.62
749.68	3255.66
749.87	3521.89
750.06	3468.03
750.24	3435.88
750.43	3354.98
750.62	3405.36
750.81	3464.34
750.99	3639.45
751.18	3543.40
751.37	3164.52
751.56	3014.20
751.74	3186.64
751.93	3166.77
752.12	2514.70
752.31	2391.41
752.49	2307.65
752.68	2463.91
752.87	2189.07
753.06	2033.84
753.24	2004.55
753.43	2127.23
753.62	1875.73
753.81	1834.16
753.99	2120.67
754.18	1938.20
754.37	1779.48
754.55	1880.04
754.74	2096.51
754.93	1703.09
755.12	1811.63
755.30	1759.61
755.49	2010.70
755.68	1897.03
755.86	1886.59
756.05	1780.09
756.24	2059.64
756.43	1751.63
756.61	1746.10
756.80	1894.58
756.99	2048.58
757.17	1870.00
757.36	1747.33
757.55	1821.05
757.74	1917.72
757.92	1859.15
758.11	1702.27
758.30	1658.24
758.48	1822.90
758.67	1720.29
758.86	1856.69
759.04	1701.25
759.23	1791.15
759.42	1850.34
759.60	1765.55
759.79	1846.86
759.98	1794.64
760.16	1761.66
760.35	1771.90
760.54	1713.13
760.73	1899.08
760.91	1697.77
761.10	1882.29
761.29	1891.91
761.47	1863.24
761.66	2108.79
761.85	1876.55
762.03	1940.45
762.22	2136.03
762.41	2741.82
762.59	3305.22
762.78	3596.03
762.97	4270.22
763.15	4307.70
763.34	4013.20
763.52	3388.57
763.71	3301.53
763.90	3293.13
764.08	2997.20
764.27	2926.14
764.46	2975.08
764.64	2644.95
764.83	2531.08
765.02	2454.70
765.20	2374.62
765.39	2282.26
765.58	1969.53
765.76	2026.87
765.95	2003.53
766.13	1939.63
766.32	1874.51
766.51	1875.32
766.69	2453.67
766.88	1876.76
767.07	1756.13
767.25	1677.29
767.44	1999.02
767.62	2025.65
767.81	1803.03
768.00	1853.41
768.18	1857.30
768.37	1805.90
768.56	1676.47
768.74	1776.00
768.93	1718.45
769.11	1929.80
769.30	1859.56
769.49	1772.72
769.67	1842.15
769.86	1811.63
770.04	1806.51
770.23	1814.30
770.42	2037.52
770.60	1864.88
770.79	1738.93
770.97	1776.00
771.16	2066.40
771.35	2062.30
771.53	2165.73
771.72	2234.95
771.90	2442.20
772.09	2623.45
772.27	2491.97
772.46	2213.24
772.65	2364.38
772.83	2264.85
773.02	2254.81
773.20	2035.27
773.39	2195.83
773.58	2155.28
773.76	1903.59
773.95	1937.58
774.13	2031.38
774.32	1905.43
774.50	1800.57
774.69	1921.20
774.87	1865.90
775.06	2167.37
775.25	1803.03
775.43	1879.42
775.62	1925.50
775.80	1927.75
775.99	1875.73
776.17	1760.23
776.36	1836.62
776.54	1927.55
776.73	1721.32
776.92	1787.47
777.10	1902.77
777.29	1869.39
777.47	1717.22
777.66	1755.52
777.84	1861.19
778.03	1823.72
778.21	1722.75
778.40	1849.52
778.58	1905.43
778.77	1991.04
778.95	1691.21
779.14	1781.12
779.32	2079.51
779.51	1963.39
779.70	1826.79
779.88	1722.96
780.07	1835.80
780.25	2184.98
780.44	1812.25
780.62	1944.14
780.81	1964.62
780.99	1931.85
781.18	1783.17
781.36	1827.61
781.55	1875.53
781.73	2104.29
781.92	1711.90
782.10	1732.38
782.29	1934.31
782.47	2080.94
782.66	1873.89
782.84	1703.09
783.03	1757.98
783.21	2024.83
783.40	1813.27
783.58	1803.44
783.77	1799.55
783.95	1823.10
784.14	1763.92
784.32	1845.02
784.51	2022.37
784.69	1777.43
784.88	1709.64
785.06	1827.61
785.24	1710.67
785.43	1975.68
785.61	1893.14
785.80	1747.94
785.98	1926.93
786.17	1864.88
786.35	1739.34
786.54	1892.94
786.72	1960.93
786.91	1981.00
787.09	1839.28
787.28	1732.79
787.46	1862.83
787.65	1961.75
787.83	1763.10
788.01	1824.94
788.20	1728.49
788.38	1874.71
788.57	1775.18
788.75	1799.55
788.94	2078.07
789.12	2014.38
789.31	1866.93
789.49	1934.51
789.67	1785.21
789.86	1925.91
790.04	1759.61
790.23	1659.47
790.41	2117.80
790.60	1844.81
790.78	1803.44
790.96	1821.05
791.15	1959.70
791.33	1854.44
791.52	1821.46
791.70	1744.05
791.89	1855.87
792.07	1974.65
792.25	1836.41
792.44	1710.26
792.62	2003.94
792.81	1836.00
792.99	1846.04
793.17	1773.75
793.36	1784.60
793.54	2113.71
793.73	2071.93
793.91	2051.66
794.10	2338.58
794.28	2488.69
794.46	2316.25
794.65	2344.92
794.83	2138.69
795.01	2159.38
795.20	2295.98
795.38	2120.26
795.57	2165.52
795.75	2156.10
795.93	1983.05
796.12	2025.85
796.30	2063.74
796.49	2025.03
796.67	1814.09
796.85	1994.11
797.04	1925.09
797.22	1974.86
797.40	1730.74
797.59	1874.30
797.77	1924.07
797.96	1798.12
798.14	1759.41
798.32	1811.02
798.51	1925.91
798.69	2089.34
798.87	1840.71
799.06	1810.61
799.24	1687.32
799.42	2023.39
799.61	1973.01
799.79	2049.20
799.98	2361.31
800.16	2142.58
800.34	2294.75
800.53	2485.01
800.71	2530.88
800.89	2944.98
801.08	2795.89
801.26	2780.32
801.44	2547.47
801.63	2367.86
801.81	2348.41
801.99	2295.77
802.18	2213.65
802.36	2247.65
802.54	2207.92
802.73	2000.46
802.91	2098.35
803.09	2079.30
803.28	2065.17
803.46	2029.54
803.64	2158.76
803.83	1808.36
804.01	1784.19
804.19	1742.62
804.38	1980.59
804.56	1937.38
804.74	1833.55
804.92	1871.43
805.11	1748.56
805.29	1987.35
805.47	1819.42
805.66	1726.85
805.84	1735.65
806.02	1982.64
806.21	1788.29
806.39	1965.23
806.57	1995.34
806.76	1986.12
806.94	1867.34
807.12	1769.65
807.30	1794.64
807.49	1882.90
807.67	1853.41
807.85	1927.34
808.04	1982.64
808.22	2184.16
808.40	1726.64
808.58	1733.81
808.77	1939.22
808.95	2051.86
809.13	1893.14
809.31	2283.89
809.50	2486.44
809.68	2674.03
809.86	2593.34
810.05	2759.23
810.23	3150.19
810.41	3565.72
810.59	5142.45
810.78	6031.68
810.96	6774.68
811.14	7299.98
811.32	6975.79
811.51	5926.21
811.69	5124.02
811.87	5140.61
812.05	4606.70
812.24	4420.54
812.42	4288.24
812.60	4088.16
812.78	3490.56
812.97	3214.90
813.15	3295.80
813.33	2935.35
813.51	2794.04
813.70	2357.42
813.88	2249.08
814.06	2203.20
814.24	2085.04
814.42	1877.78
814.61	2010.90
814.79	2155.90
814.97	1727.05
815.15	1813.48
815.34	1948.23
815.52	1994.31
815.70	1738.93
815.88	1803.03
816.06	1782.76
816.25	1818.19
816.43	1754.29
816.61	1913.21
816.79	2030.77
816.98	1681.79
817.16	1770.06
817.34	1742.21
817.52	1910.55
817.70	2038.96
817.89	1839.28
818.07	1723.98
818.25	1850.95
818.43	1893.76
818.61	1830.68
818.80	1809.59
818.98	2093.84
819.16	1897.44
819.34	1749.78
819.52	2040.39
819.70	1766.37
819.89	1864.68
820.07	1702.68
820.25	1680.15
820.43	1902.56
820.61	1987.55
820.80	1836.62
820.98	1757.57
821.16	1677.70
821.34	1736.68
821.52	1795.66
821.70	1871.64
821.89	1879.22
822.07	1826.17
822.25	1807.95
822.43	1782.96
822.61	2061.28
822.79	1896.83
822.98	1821.05
823.16	1652.30
823.34	1906.66
823.52	2027.49
823.70	1931.85
823.88	1677.29
824.06	1952.53
824.25	1844.61
824.43	1922.43
824.61	1741.80
824.79	1835.59
824.97	1905.02
825.15	1970.97
825.33	2050.63
825.52	2176.99
825.70	2082.58
825.88	2073.57
826.06	2201.98
826.24	2188.66
826.42	2218.77
826.60	2071.73
826.78	2141.15
826.97	1975.68
827.15	2140.54
827.33	1871.84
827.51	2006.60
827.69	1884.95
827.87	1972.19
828.05	1969.94
828.23	1818.80
828.41	2016.02
828.60	2014.18
828.78	1719.27
828.96	1891.91
829.14	1820.23
829.32	1840.71
829.50	1814.91
829.68	1809.18
829.86	1795.86
830.04	1943.32
830.22	1894.17
830.41	1750.19
830.59	1832.11
830.77	1940.86
830.95	1777.84
831.13	1785.42
831.31	1769.04
831.49	1986.53
831.67	1971.99
831.85	1940.04
832.03	1820.23
832.21	1944.34
832.39	1718.45
832.57	1744.66
832.76	1957.04
832.94	1856.69
833.12	1667.87
833.30	1813.89
833.48	1989.19
833.66	1897.44
833.84	1763.92
834.02	1821.46
834.20	2010.29
834.38	1960.73
834.56	1681.18
834.74	1718.66
834.92	1711.69
835.10	2107.16
835.28	1880.04
835.46	1857.10
835.64	1852.59
835.82	1780.09
836.01	2043.46
836.19	1966.46
836.37	1808.77
836.55	1751.22
836.73	1757.57
836.91	1724.59
837.09	1940.86
837.27	2058.82
837.45	1673.80
837.63	1738.11
837.81	1716.81
837.99	1846.86
838.17	1794.64
838.35	1770.06
838.53	2147.91
838.71	1947.82
838.89	1765.55
839.07	1776.41
839.25	1876.55
839.43	1981.41
839.61	1819.01
839.79	2158.97
839.97	2317.28
840.15	2416.19
840.33	2370.52
840.51	2653.76
840.69	2426.23
840.87	2305.40
841.05	2337.35
841.23	2233.72
841.41	2466.57
841.59	2928.60
841.77	3025.05
841.95	3135.44
842.13	3509.81
842.31	3174.56
842.49	2836.85
842.67	2818.82
842.85	2809.40
843.03	2491.56
843.21	2450.19
843.39	2557.91
843.57	2411.89
843.75	2366.63
843.93	2218.36
844.11	2142.58
844.29	2138.28
844.47	2037.11
844.65	2178.01
844.83	1937.99
845.01	1941.06
845.19	2058.00
845.36	1900.51
845.54	1965.85
845.72	1910.96
845.90	1959.70
846.08	1765.14
846.26	1836.82
846.44	1938.40
846.62	1921.81
846.80	1864.47
846.98	1776.20
847.16	1836.62
847.34	1901.95
847.52	1744.25
847.70	1738.32
847.88	1857.92
848.06	2056.78
848.24	1897.44
848.41	1704.32
848.59	2002.71
848.77	1931.64
848.95	1780.50
849.13	1783.17
849.31	1963.18
849.49	1914.65
849.67	1744.66
849.85	1731.35
850.03	1942.50
850.21	1871.23
850.39	1779.28
850.57	1888.23
850.74	2034.86
850.92	2055.34
851.10	1958.88
851.28	1955.20
851.46	2118.83
851.64	2385.27
851.82	2091.59
852.00	2136.24
852.18	2290.24
852.36	2180.06
852.53	1992.88
852.71	2070.70
852.89	2062.92
853.07	2067.01
853.25	1865.49
853.43	1791.77
853.61	1941.27
853.79	1954.99
853.97	1804.67
854.14	1825.15
854.32	2067.83
854.50	1974.24
854.68	1817.16
854.86	1817.57
855.04	1805.08
855.22	1973.83
855.40	1697.56
855.57	1782.96
855.75	1973.83
855.93	1943.52
856.11	1669.30
856.29	1725.41
856.47	1777.43
856.65	1887.00
856.82	1759.82
857.00	1685.89
857.18	1840.10
857.36	1794.02
857.54	1874.30
857.72	1954.17
857.89	1953.76
858.07	1888.84
858.25	1975.27
858.43	1713.13
858.61	1838.05
858.79	1877.99
858.97	1771.49
859.14	1899.29
859.32	1840.51
859.50	1815.73
859.68	1846.04
859.86	1774.16
860.03	1877.17
860.21	1936.97
860.39	1763.51
860.57	1905.23
860.75	1918.74
860.93	2085.04
861.10	1968.92
861.28	1753.27
861.46	1875.12
861.64	1917.31
861.82	1787.47
861.99	1900.92
862.17	1982.84
862.35	2003.32
862.53	1846.45
862.71	1832.11
862.88	1911.16
863.06	1968.10
863.24	1808.36
863.42	1765.96
863.60	1854.03
863.77	1919.36
863.95	1659.67
864.13	1837.85
864.31	1825.76
864.49	1984.48
864.66	1714.97
864.84	1814.09
865.02	1888.43
865.20	2198.90
865.37	1870.21
865.55	1802.01
865.73	1718.66
865.91	1948.44
866.09	1919.97
866.26	1865.70
866.44	1971.78
866.62	1843.99
866.80	1758.39
866.97	1847.88
867.15	1853.41
867.33	1901.95
867.51	1922.43
867.68	1861.60
867.86	1803.03
868.04	1804.47
868.22	1657.22
868.39	1794.02
868.57	1918.33
868.75	2025.85
868.93	1685.68
869.10	1742.41
869.28	2121.49
869.46	2032.81
869.64	1837.23
869.81	1820.23
869.99	1896.83
870.17	1898.47
870.35	1775.38
870.52	1762.28
870.70	2000.46
870.88	1783.37
871.05	1735.04
871.23	1643.70
871.41	1857.10
871.59	1864.47
871.76	1799.96
871.94	1763.30
872.12	1876.76
872.29	1735.24
872.47	1793.82
872.65	1725.62
872.83	1895.19
873.00	2045.72
873.18	1835.80
873.36	1778.05
873.53	1929.19
873.71	1727.05
873.89	1734.63
874.06	1859.56
874.24	1906.04
874.42	2047.35
874.60	1932.26
874.77	1858.74
874.95	1787.88
875.13	2005.78
875.30	1768.01
875.48	1808.77
875.66	2057.39
875.83	1766.99
876.01	1803.65
876.19	1920.79
876.36	1719.88
876.54	1892.53
876.72	1762.69
876.89	1871.02
877.07	1969.33
877.25	1654.35
877.42	1850.13
877.60	1808.97
877.78	2095.69
877.95	1809.99
878.13	1766.17
878.31	1918.54
878.48	1981.82
878.66	1944.55
878.84	1790.74
879.01	1851.98
879.19	1924.48
879.37	1948.23
879.54	1780.91
879.72	1720.09
879.90	1681.59
880.07	1933.69
880.25	1592.09
880.42	1916.69
880.60	1901.74
880.78	1962.77
880.95	1792.59
881.13	1821.67
881.31	1878.81
881.48	1817.78
881.66	1762.28
881.83	1850.54
882.01	1766.58
882.19	1733.61
882.36	1858.53
882.54	1810.81
882.72	1942.70
882.89	1870.00
883.07	1753.27
883.24	1831.91
883.42	1977.11
883.60	1889.25
883.77	1732.17
883.95	1795.25
884.12	1982.64
884.30	1896.62
884.48	1942.50
884.65	1849.52
884.83	1902.97
885.00	1894.99
885.18	1722.96
885.36	1775.79
885.53	1938.20
885.71	2000.87
885.88	1721.11
886.06	1773.75
886.23	1940.25
886.41	1843.17
886.59	1820.85
886.76	1772.93
886.94	1946.18
887.11	2220.00
887.29	1845.83
887.47	1702.48
887.64	2021.96
887.82	1999.02
887.99	1665.61
888.17	1849.93
888.34	1820.44
888.52	1756.13
888.69	1848.91
888.87	1721.32
889.05	1807.95
889.22	1812.86
889.40	1777.43
889.57	1957.45
889.75	2078.69
889.92	1815.11
890.10	1709.44
890.27	1814.50
890.45	1814.91
890.62	1667.25
890.80	1741.39
890.98	1676.06
891.15	2042.85
891.33	1985.51
891.50	1759.82
891.68	1699.40
891.85	1963.59
892.03	1956.42
892.20	1789.52
892.38	1727.46
892.55	1948.85
892.73	1967.07
892.90	1740.77
893.08	1802.01
893.25	1788.08
893.43	1828.02
893.60	1938.40
893.78	1649.23
893.95	1920.79
894.13	1856.48
894.30	1752.04
894.48	1843.99
894.65	1991.04
894.83	1901.33
895.00	1639.40
895.18	1658.45
895.35	1974.04
895.53	1936.15
895.70	1712.92
895.88	1904.61
896.05	1931.23
896.23	1721.93
896.40	1775.79
896.58	1867.95
896.75	1966.46
896.93	2045.10
897.10	1765.35
897.28	1701.66
897.45	1890.28
897.63	1936.56
897.80	1927.96
897.98	1816.96
898.15	1912.19
898.33	1771.49
898.50	1856.89
898.67	1817.57
898.85	1795.25
899.02	1922.84
899.20	1968.51
899.37	1817.57
899.55	1891.71
899.72	2043.26
899.90	1753.06
900.07	1768.01
900.25	1926.52
900.42	2020.73
900.59	1783.37
900.77	1922.43
900.94	1946.59
901.12	1909.32
901.29	1770.67
901.47	1913.21
901.64	1924.48
901.82	1863.65
901.99	1614.62
902.16	1736.27
902.34	1995.54
902.51	1927.55
902.69	1810.61
902.86	1849.32
903.03	2316.05
903.21	1864.88
903.38	1832.73
903.56	1769.04
903.73	1991.65
903.91	1825.56
904.08	1720.29
904.25	1658.85
904.43	1783.37
904.60	1958.27
904.78	1805.90
904.95	1737.50
905.12	1829.04
905.30	2082.99
905.47	1929.39
905.65	1929.60
905.82	1814.91
905.99	1917.92
906.17	1853.82
906.34	1745.28
906.52	1752.04
906.69	1913.42
906.86	1904.61
907.04	1836.41
907.21	1968.10
907.38	1988.58
907.56	1783.99
907.73	1774.97
907.91	2049.81
908.08	2013.77
908.25	1766.58
908.43	1740.98
908.60	1936.35
908.77	1901.54
908.95	1775.18
909.12	1723.57
909.30	1939.02
909.47	1708.21
909.64	1827.81
909.82	1935.74
909.99	1848.29
910.16	1904.82
910.34	1751.01
910.51	1800.98
910.68	1899.90
910.86	1860.99
911.03	1709.64
911.20	1797.91
911.38	2081.35
911.55	2516.75
911.72	2582.69
911.90	2477.43
912.07	2711.72
912.24	2829.27
912.42	2388.96
912.59	2131.53
912.76	2324.44
912.94	2113.91
913.11	1993.49
913.28	1918.33
913.46	1850.13
913.63	2026.06
913.80	2149.14
913.98	1879.42
914.15	2044.69
914.32	2094.46
914.49	1920.18
914.67	1796.89
914.84	1913.42
915.01	1983.87
915.19	1872.25
915.36	1820.85
915.53	2003.73
915.71	1916.28
915.88	1900.31
916.05	1777.84
916.22	1973.22
916.40	1912.60
916.57	1740.57
916.74	1888.43
916.92	2056.57
917.09	1766.58
917.26	1740.36
917.43	1732.99
917.61	1822.28
917.78	1685.07
917.95	1661.52
918.13	1718.45
918.30	2145.04
918.47	1874.10
918.64	1724.59
918.82	1726.64
918.99	1834.98
919.16	2055.14
919.33	1789.92
919.51	1763.92
919.68	1837.85
919.85	2018.07
920.02	1683.84
920.20	1806.31
920.37	2064.35
920.54	1979.57
920.71	1752.65
920.89	1781.12
921.06	2079.30
921.23	1772.93
921.40	1733.20
921.58	1874.71
921.75	2307.45
921.92	1849.32
922.09	1927.14
922.27	1913.42
922.44	1935.33
922.61	1965.64
922.78	1858.94
922.96	1824.74
923.13	1858.12
923.30	1997.79
923.47	1702.27
923.64	1780.91
923.82	1922.63
923.99	1907.68
924.16	1867.34
924.33	1704.32
924.50	1894.17
924.68	2045.51
924.85	1712.31
925.02	1801.19
925.19	1972.81
925.36	1897.03
925.54	1854.23
925.71	1813.68
925.88	2267.92
926.05	1802.62
926.22	1727.46
926.40	1813.89
926.57	1891.50
926.74	1952.12
926.91	1761.87
927.08	1983.66
927.26	1982.64
927.43	1893.96
927.60	1760.23
927.77	1808.15
927.94	2056.98
928.11	2015.61
928.29	1685.48
928.46	1836.82
928.63	1785.42
928.80	1831.09
928.97	1867.75
929.14	1742.82
929.32	2153.64
929.49	1865.09
929.66	1745.89
929.83	1691.21
930.00	1816.14
930.17	1929.60
930.35	1714.35
930.52	1763.92
930.69	2056.16
930.86	1746.71
931.03	1876.96
931.20	1621.38
931.37	2011.31
931.55	1845.83
931.72	1869.39
931.89	1700.43
932.06	1754.29
932.23	2098.35
932.40	1884.95
932.57	1876.96
932.74	2024.83
932.92	2009.47
933.09	1897.85
933.26	1583.69
933.43	1809.38
933.60	1912.19
933.77	1811.22
933.94	1872.25
934.11	1841.33
934.29	1873.28
934.46	1714.56
934.63	1817.78
934.80	1707.80
934.97	1853.82
935.14	1799.14
935.31	1682.82
935.48	1787.88
935.65	1903.38
935.82	1853.41
936.00	1696.74
936.17	2047.97
936.34	1814.30
936.51	1893.55
936.68	1703.09
936.85	1911.78
937.02	1927.75
937.19	1862.22
937.36	1797.30
937.53	1905.02
937.70	1948.64
937.87	1831.91
938.05	1887.41
938.22	1875.94
938.39	1735.24
938.56	1806.31
938.73	1720.91
938.90	1867.95
939.07	1809.79
939.24	1849.52
939.41	1640.22
939.58	1937.99
939.75	1921.20
939.92	1740.36
940.09	1951.92
940.26	1861.40
940.43	1972.40
940.60	1760.02
940.77	1810.20
940.95	1917.72
941.12	1960.93
941.29	1789.72
941.46	1814.50
941.63	2023.80
941.80	2046.54
941.97	1703.09
942.14	1684.45
942.31	1951.71
942.48	1845.63
942.65	1867.75
942.82	1806.51
942.99	1933.28
943.16	1876.96
943.33	1743.85
943.50	1763.10
943.67	1962.16
943.84	2016.02
944.01	1794.64
944.18	1747.12
944.35	2049.81
944.52	1758.80
944.69	1853.00
944.86	1686.30
945.03	1945.57
945.20	2171.05
945.37	1642.27
945.54	1814.30
945.71	2018.07
945.88	2076.44
946.05	1731.35
946.22	1738.93
946.39	2045.72
946.56	1842.15
946.73	1694.69
946.90	1732.79
947.07	1811.22
947.24	1829.04
947.41	1656.19
947.58	1885.97
947.75	1938.20
947.92	1908.30
948.09	1580.62
948.26	1682.41
948.43	1892.12
948.60	2113.09
948.77	1762.07
948.94	1774.16
949.11	1954.17
949.27	1939.84
949.44	1746.51
949.61	1740.36
949.78	1909.12
949.95	2028.92
950.12	1726.23
950.29	1704.11
950.46	1800.37
950.63	1988.99
950.80	1762.48
950.97	1813.07
951.14	2002.30
951.31	1847.88
951.48	1752.65
951.65	1713.13
951.82	2110.64
951.99	1896.21
952.15	1690.19
952.32	1790.95
952.49	1798.53
952.66	1819.01
952.83	1748.97
953.00	1738.32
953.17	1857.10
953.34	1979.57
953.51	1847.06
953.68	1803.44
953.85	2009.67
954.02	2003.73
954.18	1814.50
954.35	1805.28
954.52	1771.29
954.69	1896.01
954.86	1638.78
955.03	1820.85
955.20	1949.05
955.37	1890.89
955.54	1754.29
955.71	1737.70
955.87	1920.59
956.04	2093.64
956.21	1790.33
956.38	1723.37
956.55	1902.97
956.72	2192.76
956.89	1815.32
957.06	1765.55
957.23	1793.82
957.39	2027.08
957.56	1777.43
957.73	1729.71
957.90	1609.91
958.07	2115.14
958.24	1813.48
958.41	1759.82
958.57	1965.64
958.74	1869.18
958.91	1717.22
959.08	1783.17
959.25	1967.07
959.42	1867.54
959.59	1830.68
959.75	1766.37
959.92	1999.64
960.09	2010.90
960.26	1753.68
960.43	1832.52
960.60	1917.31
960.76	1827.40
960.93	1676.67
961.10	1821.05
961.27	1993.70
961.44	1836.41
961.61	1735.45
961.77	1709.64
961.94	1889.05
962.11	1965.23
962.28	1812.04
962.45	1695.51
962.62	1840.92
962.78	1973.83
962.95	1737.70
963.12	1775.18
963.29	1943.32
963.46	2233.92
963.62	1832.11
963.79	1760.84
963.96	2182.52
964.13	1820.64
964.30	1860.58
964.46	1782.96
964.63	1749.99
964.80	2187.23
964.97	1602.33
965.14	1878.81
965.30	1944.34
965.47	2013.36
965.64	1942.91
965.81	1881.06
965.98	2087.08
966.14	1894.78
966.31	1804.87
966.48	1776.82
966.65	2022.37
966.81	1907.27
966.98	1778.05
967.15	1828.84
967.32	1869.39
967.49	1774.97
967.65	1645.13
967.82	1628.34
967.99	1836.62
968.16	1691.42
968.32	1918.74
968.49	1756.75
968.66	1835.80
968.83	2082.58
968.99	1815.93
969.16	1713.74
969.33	2004.14
969.50	1927.96
969.66	1870.61
969.83	1986.12
970.00	1982.84
970.17	1940.25
970.33	1781.94
970.50	1713.54
970.67	2062.30
970.84	2038.96
971.00	1736.27
971.17	1716.20
971.34	1951.92
971.50	1881.88
971.67	1881.26
971.84	1834.37
972.01	1731.97
972.17	1646.98
972.34	1735.65
972.51	1872.05
972.67	2015.61
972.84	1906.25
973.01	1709.03
973.18	1759.61
973.34	1991.24
973.51	1781.32
973.68	1777.84
973.84	1817.57
974.01	1837.64
974.18	2086.06
974.34	1867.54
974.51	1851.16
974.68	1789.31
974.85	2109.41
975.01	1892.94
975.18	1793.00
975.35	1884.13
975.51	1815.52
975.68	1666.23
975.85	1894.58
976.01	1792.59
976.18	2041.21
976.35	1797.71
976.51	1772.72
976.68	2056.78
976.85	2028.31
977.01	1851.57
977.18	1869.18
977.35	1937.99
977.51	1728.90
977.68	1602.33
977.85	1683.02
978.01	2008.65
978.18	1946.59
978.35	1807.13
978.51	1809.79
978.68	1962.98
978.85	2057.39
979.01	1771.70
979.18	1807.95
979.34	1860.99
979.51	1881.88
979.68	1688.55
979.84	1807.74
980.01	2169.62
980.18	1916.90
980.34	1746.51
980.51	1849.11
980.67	1963.59
980.84	1970.97
981.01	1795.86
981.17	1856.48
981.34	1691.62
981.51	1937.38
981.67	1750.40
981.84	1877.37
982.00	1939.02
982.17	1842.35
982.34	1651.69
982.50	1579.19
982.67	2075.00
982.83	1804.47
983.00	1708.83
983.17	1612.78
983.33	2025.85
983.50	1650.66
983.66	1667.46
983.83	1622.20
984.00	1822.90
984.16	1872.46
984.33	1624.04
984.49	1594.14
984.66	1809.99
984.83	1948.03
984.99	1636.53
985.16	1602.74
985.32	1951.30
985.49	1974.04
985.65	1762.07
985.82	1611.96
985.99	2065.38
986.15	1885.77
986.32	1695.10
986.48	1672.78
986.65	1836.62
986.81	1947.82
986.98	1619.74
987.14	1709.85
987.31	1861.40
987.48	1676.06
987.64	1559.12
987.81	1587.79
987.97	2136.44
988.14	1785.62
988.30	1619.94
988.47	1508.53
988.63	1929.19
988.80	1743.44
988.96	1702.68
989.13	1709.44
989.30	1806.92
989.46	1998.20
989.63	1568.95
989.79	1611.55
989.96	1883.31
990.12	2052.06
990.29	1642.27
990.45	1672.37
990.62	1858.53
990.78	2019.50
990.95	1727.05
991.11	1626.50
991.28	1801.80
991.44	1909.32
991.61	1547.24
991.77	1687.73
991.94	1878.60
992.10	2011.11
992.27	1691.01
992.43	1650.87
992.60	1925.09
992.76	1811.43
992.93	1790.74
993.09	1599.46
993.26	2011.92
993.42	2077.05
993.59	1655.99
993.75	1562.40
993.92	1794.23
994.08	1794.23
994.25	1721.32
994.41	1612.37
994.58	1951.92
994.74	2060.46
994.91	1602.95
995.07	1706.37
995.24	1853.41
995.40	1854.44
995.56	1774.16
995.73	1713.74
995.89	2076.23
996.06	1860.17
996.22	1618.51
996.39	1559.94
996.55	1843.58
996.72	1932.26
996.88	1581.03
997.05	1609.91
997.21	2142.58
997.37	1933.49
997.54	1705.55
997.70	1671.35
997.87	1924.68
998.03	1862.83
998.20	1567.11
998.36	1586.97
998.52	1947.00
998.69	1995.54
998.85	1563.62
999.02	1667.05
999.18	1972.40
999.35	1963.18
999.51	1657.01
999.67	1652.30
999.84	1754.29
1000.00	1974.86
1000.17	1723.57
1000.33	1608.47
1000.49	1804.67
1000.66	1852.59
1000.82	1645.54
1000.99	1697.15
1001.15	2005.78
1001.31	1845.02
1001.48	1653.53
1001.64	1717.84
1001.81	1848.29
1001.97	2113.71
1002.13	1635.30
1002.30	1639.81
1002.46	2053.50
1002.63	1839.49
1002.79	1722.96
1002.95	1617.90
1003.12	1976.09
1003.28	1887.00
1003.45	1619.94
1003.61	1588.81
1003.77	1911.37
1003.94	1714.15
1004.10	1674.01
1004.26	1701.04
1004.43	1940.04
1004.59	2093.84
1004.75	1627.93
1004.92	1613.80
1005.08	1800.37
1005.25	1920.38
1005.41	1626.70
1005.57	1683.84
1005.74	2005.17
1005.90	1809.38
1006.06	1744.05
1006.23	1659.88
1006.39	1965.64
1006.55	2218.36
1006.72	1789.92
1006.88	1574.68
1007.04	1771.90
1007.21	1861.19
1007.37	1660.70
1007.53	1629.98
1007.70	2043.05
1007.86	1945.37
1008.02	1711.28
1008.19	1604.38
1008.35	1871.23
1008.51	1769.04
1008.68	1678.92
1008.84	1626.29
1009.00	1750.19
1009.17	2009.47
1009.33	1763.92
1009.49	1724.18
1009.65	1773.13
1009.82	1914.85
1009.98	1721.11
1010.14	1570.38
1010.31	1973.42
1010.47	1942.91
1010.63	1696.33
1010.80	1708.21
1010.96	1926.52
1011.12	1833.96
1011.28	1646.36
1011.45	1643.09
1011.61	2193.37
1011.77	1755.72
1011.94	1640.42
1012.10	1601.51
1012.26	1722.55
1012.42	1799.75
1012.59	1710.67
1012.75	1682.61
1012.91	1830.88
1013.07	1982.84
1013.24	1588.40
1013.40	1643.29
1013.56	1885.16
1013.72	1860.37
1013.89	1738.11
1014.05	1715.17
1014.21	2099.37
1014.37	2191.12
1014.54	1698.79
1014.70	1604.79
1014.86	1833.75
1015.02	1736.88
1015.19	1633.26
1015.35	1609.70
1015.51	1848.91
1015.67	1812.45
1015.84	1626.70
1016.00	1658.04
1016.16	1990.22
1016.32	1967.89
1016.49	1619.74
1016.65	1602.74
1016.81	1843.99
1016.97	1934.10
1017.14	1762.07
1017.30	1631.00
1017.46	1785.42
1017.62	1907.07
1017.78	1712.51
1017.95	1609.09
1018.11	1976.09
1018.27	2138.28
1018.43	1761.66
1018.59	1720.29
1018.76	1973.83
1018.92	2204.23
1019.08	1614.41
1019.24	1673.60
1019.40	2046.54
1019.57	1875.53
1019.73	1737.91
1019.89	1652.51
1020.05	1906.66
1020.21	2122.72
1020.38	1615.85
1020.54	1799.35
1020.70	1969.94
1020.86	1946.59
1021.02	1662.75
1021.18	1639.40
1021.35	1784.60
1021.51	1940.86
1021.67	1794.23
1021.83	1643.09
1021.99	1866.52
1022.15	1911.16
1022.32	1736.27
1022.48	1712.31
1022.64	2052.47
1022.80	2080.94
1022.96	1716.20
1023.12	1605.81
1023.29	2006.39
1023.45	1916.08
1023.61	1645.95
1023.77	1794.23
1023.93	1885.56
1024.09	1765.76
1024.25	1622.81
1024.42	1590.04
1024.58	1821.05
1024.74	1931.03
1024.90	1655.37
1025.06	1726.85
1025.22	1792.18
1025.38	2062.51
1025.54	1626.50
1025.71	1731.76
1025.87	1942.09
1026.03	1937.38
1026.19	1635.10
1026.35	1781.73
1026.51	1937.58
1026.67	1872.46
1026.83	1686.91
1026.99	1763.71
1027.16	1927.34
1027.32	2038.96
1027.48	1647.80
1027.64	1630.59
1027.80	1951.71
1027.96	1874.30
1028.12	1688.55
1028.28	1642.47
1028.44	1893.35
1028.60	2061.28
1028.77	1781.94
1028.93	1722.14
1029.09	1820.03
1029.25	1759.21
1029.41	1689.78
1029.57	1736.68
1029.73	1917.72
1029.89	2045.51
1030.05	1767.60
1030.21	1732.17
1030.37	2179.86
1030.53	1945.57
1030.69	1662.54
1030.85	1595.57
1031.02	1761.05
1031.18	1858.74
1031.34	1661.72
1031.50	1734.42
1031.66	1785.62
1031.82	2058.41
1031.98	1673.19
1032.14	1627.11
1032.30	1762.89
1032.46	1960.52
1032.62	1807.74
1032.78	1601.72
1032.94	1791.56
1033.10	1857.71
1033.26	1723.78
1033.42	1753.68
1033.58	2148.73
1033.74	1805.90
1033.90	1680.36
1034.06	1848.91
1034.22	2127.84
1034.38	1989.40
1034.54	1678.31
1034.70	1690.39
1034.86	2093.84
>>>>>End Processed Spectral Data<<<<<
