SpectraSuite Data File
++++++++++++++++++++++++++++++++++++
Date: Thu Mar 30 16:20:53 PDT 2017
User: UCSD _CER
Dark Spectrum Present: No
Reference Spectrum Present: No
Number of Sampled Component Spectra: 1
Spectrometers: USB4C00073
Integration Time (usec): 250000 (USB4C00073)
Spectra Averaged: 10 (USB4C00073)
Boxcar Smoothing: 0 (USB4C00073)
Correct for Electrical Dark: No (USB4C00073)
Strobe/Lamp Enabled: No (USB4C00073)
Correct for Detector Non-linearity: No (USB4C00073)
Correct for Stray Light: No (USB4C00073)
Number of Pixels in Processed Spectrum: 3648
>>>>>Begin Processed Spectral Data<<<<<
345.37	1284.90
345.58	1284.90
345.80	1284.90
346.01	1264.42
346.22	1267.08
346.43	1965.23
346.65	1789.72
346.86	2134.19
347.07	2072.95
347.28	1784.60
347.50	1787.06
347.71	1902.77
347.92	1728.49
348.13	1804.26
348.35	1714.15
348.56	1915.06
348.77	1787.06
348.98	1796.68
349.20	1676.67
349.41	1904.41
349.62	2011.31
349.83	1842.76
350.05	1716.20
350.26	1944.96
350.47	2056.37
350.68	1768.83
350.90	1709.44
351.11	2084.63
351.32	2082.78
351.53	1820.85
351.75	1708.83
351.96	1955.81
352.17	1913.83
352.38	1860.37
352.60	1869.39
352.81	1933.28
353.02	2110.02
353.23	1778.87
353.44	1813.07
353.66	1835.18
353.87	1865.49
354.08	1893.96
354.29	1793.61
354.51	1833.34
354.72	1855.25
354.93	1751.83
355.14	1711.90
355.35	1698.59
355.57	2022.57
355.78	1790.74
355.99	1823.31
356.20	1886.59
356.42	1874.51
356.63	1892.94
356.84	1799.14
357.05	1998.00
357.26	2174.74
357.48	1876.55
357.69	1847.06
357.90	1930.42
358.11	1825.97
358.32	1811.02
358.54	1838.87
358.75	1861.19
358.96	2000.05
359.17	1777.43
359.38	1802.42
359.60	1986.73
359.81	1902.36
360.02	1796.89
360.23	1758.39
360.44	1830.68
360.66	2008.03
360.87	1738.73
361.08	1748.56
361.29	1948.85
361.50	1922.22
361.72	1784.40
361.93	1836.21
362.14	1934.31
362.35	1724.39
362.56	1860.99
362.77	1714.15
362.99	1960.52
363.20	1909.12
363.41	1879.83
363.62	1709.23
363.83	1968.71
364.05	2035.68
364.26	1673.80
364.47	1781.53
364.68	2060.87
364.89	1821.26
365.10	1734.83
365.32	1810.20
365.53	1783.78
365.74	1828.63
365.95	1793.00
366.16	1692.03
366.37	1877.17
366.59	1872.25
366.80	1790.13
367.01	1680.77
367.22	2147.50
367.43	2279.39
367.64	1794.23
367.86	1802.42
368.07	1956.63
368.28	2047.56
368.49	1723.78
368.70	1850.95
368.91	1846.04
369.12	1887.61
369.34	1698.79
369.55	1725.62
369.76	1904.41
369.97	1822.08
370.18	1737.91
370.39	1742.21
370.60	1715.58
370.82	1785.62
371.03	1798.73
371.24	1752.86
371.45	1988.37
371.66	1960.32
371.87	1800.78
372.08	1750.40
372.30	1772.31
372.51	2013.56
372.72	1869.59
372.93	1749.78
373.14	2101.63
373.35	1830.06
373.56	1728.08
373.78	1811.02
373.99	1998.41
374.20	2256.66
374.41	1766.37
374.62	1798.12
374.83	2114.73
375.04	1875.73
375.25	1803.85
375.47	1755.72
375.68	1859.56
375.89	1998.82
376.10	1817.16
376.31	1885.16
376.52	1950.69
376.73	1936.15
376.94	1800.16
377.15	1789.72
377.37	1915.47
377.58	1869.80
377.79	1670.12
378.00	1741.59
378.21	1905.84
378.42	1978.34
378.63	1810.61
378.84	1876.76
379.05	2017.25
379.27	1903.79
379.48	1928.16
379.69	1721.11
379.90	2030.97
380.11	1652.10
380.32	1791.36
380.53	1896.62
380.74	2045.92
380.95	1905.63
381.16	1799.55
381.37	1773.75
381.59	2061.89
381.80	1998.82
382.01	1753.27
382.22	1696.54
382.43	1965.64
382.64	1889.66
382.85	1731.15
383.06	1801.19
383.27	2001.89
383.48	1873.28
383.69	1821.46
383.91	1727.26
384.12	1946.39
384.33	1979.98
384.54	1815.52
384.75	1680.77
384.96	2254.20
385.17	2012.13
385.38	1760.23
385.59	1768.42
385.80	2008.03
386.01	2096.30
386.22	1868.98
386.43	1796.27
386.64	2186.21
386.86	1876.55
387.07	1922.43
387.28	1708.01
387.49	1849.32
387.70	2043.05
387.91	1850.75
388.12	1722.14
388.33	1967.28
388.54	1856.48
388.75	1788.29
388.96	1840.92
389.17	1830.06
389.38	1846.86
389.59	1847.68
389.80	1808.15
390.01	1884.13
390.22	1849.93
390.43	1886.59
390.64	1679.74
390.86	1925.50
391.07	2000.66
391.28	1809.38
391.49	1857.51
391.70	1747.74
391.91	1808.36
392.12	1799.14
392.33	1779.89
392.54	1902.36
392.75	1865.70
392.96	1869.18
393.17	1730.74
393.38	2176.38
393.59	2012.95
393.80	1709.64
394.01	1793.41
394.22	1887.82
394.43	2125.18
394.64	1729.71
394.85	1912.80
395.06	1894.78
395.27	1926.11
395.48	1801.60
395.69	1748.35
395.90	1868.36
396.11	1902.56
396.32	1745.07
396.53	1871.23
396.74	1859.15
396.95	2027.49
397.16	1755.72
397.37	1700.22
397.58	2005.37
397.79	1917.72
398.00	1854.23
398.21	1780.50
398.42	1946.39
398.63	2166.55
398.84	1799.55
399.05	1778.46
399.26	2053.70
399.47	1973.83
399.68	1660.90
399.89	1732.99
400.10	1744.05
400.31	1830.47
400.52	1840.51
400.73	1774.56
400.94	1697.36
401.15	1925.91
401.36	1787.26
401.57	1855.25
401.78	2049.20
401.99	2014.18
402.20	1728.69
402.41	1927.34
402.62	2101.83
402.83	1825.97
403.04	1751.63
403.25	1942.50
403.46	1930.01
403.67	2062.71
403.88	1781.73
404.09	1773.34
404.30	1784.60
404.51	1823.10
404.72	1731.15
404.93	1886.18
405.14	1814.91
405.35	1870.41
405.56	1818.80
405.77	1787.26
405.98	1947.82
406.19	1890.89
406.40	1762.28
406.61	1758.39
406.82	1811.22
407.03	2172.28
407.24	1722.75
407.45	1826.58
407.66	1975.27
407.87	2010.90
408.08	1838.67
408.29	1880.04
408.49	1973.83
408.70	1876.76
408.91	1801.39
409.12	1876.96
409.33	1788.70
409.54	2016.63
409.75	1754.49
409.96	1795.66
410.17	2008.03
410.38	1876.35
410.59	1779.07
410.80	1868.77
411.01	1887.82
411.22	1894.78
411.43	1855.25
411.64	1729.92
411.85	1793.20
412.06	1793.82
412.27	1612.16
412.47	1770.88
412.68	1881.26
412.89	1954.17
413.10	1766.58
413.31	1696.74
413.52	2128.45
413.73	2138.08
413.94	1753.27
414.15	1908.71
414.36	1836.00
414.57	1808.97
414.78	1690.60
414.99	1775.59
415.19	2018.89
415.40	2000.46
415.61	2015.61
415.82	1900.51
416.03	2049.81
416.24	1984.69
416.45	1794.43
416.66	1788.29
416.87	1743.03
417.08	2014.59
417.29	1734.02
417.50	1851.77
417.70	1964.21
417.91	1922.63
418.12	1832.11
418.33	1815.32
418.54	1985.71
418.75	2069.47
418.96	2029.95
419.17	1905.43
419.38	2196.45
419.59	2106.75
419.79	1977.11
420.00	1914.65
420.21	2334.27
420.42	1957.04
420.63	1830.47
420.84	1885.16
421.05	1904.20
421.26	1922.22
421.47	1747.53
421.67	2060.26
421.88	1781.94
422.09	1754.29
422.30	1935.94
422.51	1808.56
422.72	2116.17
422.93	1967.28
423.14	1785.21
423.35	1675.44
423.55	1691.42
423.76	1791.36
423.97	1798.12
424.18	1685.07
424.39	1837.03
424.60	2004.14
424.81	1808.77
425.02	1906.86
425.22	1885.97
425.43	1888.64
425.64	1984.07
425.85	1861.40
426.06	2192.56
426.27	2039.37
426.48	1912.39
426.68	1895.19
426.89	2017.86
427.10	2166.75
427.31	1829.25
427.52	1735.24
427.73	1966.87
427.94	1950.69
428.14	1859.56
428.35	1798.73
428.56	2093.84
428.77	2016.63
428.98	1864.47
429.19	1843.38
429.40	1897.24
429.60	1879.22
429.81	1927.14
430.02	1865.09
430.23	1882.29
430.44	2012.54
430.65	1772.72
430.85	1833.75
431.06	1955.61
431.27	1731.97
431.48	1797.91
431.69	1864.68
431.90	1910.35
432.10	1919.56
432.31	1853.21
432.52	1739.54
432.73	2206.07
432.94	2077.05
433.15	1929.39
433.35	1818.80
433.56	2079.30
433.77	1913.62
433.98	1941.88
434.19	1787.67
434.40	1898.88
434.60	1883.52
434.81	1785.42
435.02	1866.52
435.23	1885.97
435.44	1846.45
435.64	1714.76
435.85	1754.09
436.06	1873.48
436.27	1833.34
436.48	1733.61
436.68	1748.97
436.89	2111.05
437.10	1977.52
437.31	1809.38
437.52	1913.83
437.73	1924.07
437.93	1913.01
438.14	1844.81
438.35	1690.60
438.56	1863.04
438.77	1899.90
438.97	1959.91
439.18	1715.38
439.39	2021.96
439.60	1736.27
439.80	1694.28
440.01	1801.60
440.22	1821.46
440.43	1966.66
440.64	1712.72
440.84	1830.88
441.05	1753.27
441.26	2263.01
441.47	1834.57
441.68	1754.09
441.88	1870.61
442.09	1856.69
442.30	1890.48
442.51	1839.69
442.71	1858.33
442.92	1935.94
443.13	1733.20
443.34	1730.53
443.55	1771.90
443.75	1945.57
443.96	1776.00
444.17	1740.98
444.38	2023.60
444.58	1779.68
444.79	1890.48
445.00	1803.24
445.21	1875.53
445.41	1847.06
445.62	1623.42
445.83	1868.77
446.04	1921.61
446.24	1739.95
446.45	1646.16
446.66	1789.52
446.87	1944.96
447.07	1819.62
447.28	1959.09
447.49	1813.48
447.70	1987.76
447.90	2008.44
448.11	1800.57
448.32	1900.52
448.53	2070.91
448.73	2038.75
448.94	1812.66
449.15	1927.14
449.36	1897.24
449.56	1957.45
449.77	1782.35
449.98	1696.95
450.19	1858.12
450.39	1871.02
450.60	1880.04
450.81	1849.93
451.02	1915.67
451.22	2076.85
451.43	1760.23
451.64	1804.87
451.84	1860.78
452.05	2042.64
452.26	1841.53
452.47	1826.38
452.67	1843.38
452.88	2083.81
453.09	1754.29
453.30	1715.58
453.50	1987.14
453.71	2048.79
453.92	1771.08
454.12	1894.58
454.33	1813.68
454.54	1852.80
454.75	1733.20
454.95	1745.48
455.16	1908.09
455.37	1954.17
455.57	1810.40
455.78	1775.59
455.99	1879.22
456.19	1885.36
456.40	1732.99
456.61	1826.79
456.82	1888.23
457.02	1978.75
457.23	1850.75
457.44	1979.77
457.64	1823.51
457.85	1912.60
458.06	1805.49
458.26	1940.86
458.47	1843.38
458.68	1983.05
458.89	1721.11
459.09	1922.02
459.30	2184.36
459.51	1894.99
459.71	1701.86
459.92	1790.54
460.13	1969.94
460.33	2140.13
460.54	1773.34
460.75	1788.08
460.95	1778.87
461.16	1945.57
461.37	1777.84
461.57	1810.61
461.78	1926.11
461.99	1765.35
462.19	2001.07
462.40	1767.40
462.61	2159.38
462.81	2014.79
463.02	1736.88
463.23	1777.02
463.43	1976.70
463.64	1839.28
463.85	2722.36
464.05	1764.53
464.26	2275.09
464.47	2080.12
464.67	1965.23
464.88	1877.17
465.09	1789.52
465.29	1878.60
465.50	1934.92
465.71	1804.87
465.91	1837.23
466.12	1863.86
466.33	1867.54
466.53	1775.38
466.74	2073.77
466.94	1835.80
467.15	1805.49
467.36	1972.40
467.56	1789.52
467.77	1920.18
467.98	1855.05
468.18	1767.40
468.39	1862.22
468.60	2161.02
468.80	1819.62
469.01	1762.69
469.21	1969.94
469.42	2006.19
469.63	1808.97
469.83	1735.65
470.04	1979.77
470.25	2082.58
470.45	1859.76
470.66	1749.17
470.86	1912.39
471.07	1837.23
471.28	1888.23
471.48	1939.22
471.69	1922.84
471.90	2360.69
472.10	1786.44
472.31	1808.56
472.51	1826.79
472.72	1793.61
472.93	1734.02
473.13	1919.77
473.34	1932.05
473.54	1906.45
473.75	1822.49
473.96	1962.77
474.16	1876.14
474.37	1957.04
474.57	1855.25
474.78	1766.99
474.99	1936.35
475.19	1935.33
475.40	1765.76
475.60	1706.98
475.81	2066.61
476.02	1850.13
476.22	1821.46
476.43	1942.29
476.63	1838.26
476.84	2037.52
477.05	1682.41
477.25	1759.61
477.46	2274.68
477.66	1901.33
477.87	1698.59
478.08	1817.37
478.28	2021.55
478.49	1871.84
478.69	1758.80
478.90	1824.13
479.10	1962.57
479.31	2079.51
479.52	1863.24
479.72	1921.61
479.93	1951.71
480.13	1828.02
480.34	1776.82
480.54	1862.63
480.75	1827.61
480.96	2076.03
481.16	1773.95
481.37	1916.28
481.57	1989.60
481.78	1985.10
481.98	2022.78
482.19	1858.74
482.40	2149.96
482.60	1973.42
482.81	1897.24
483.01	1785.01
483.22	2028.31
483.42	1997.38
483.63	1909.94
483.83	1880.65
484.04	1854.44
484.24	2012.74
484.45	1885.77
484.66	1722.55
484.86	1917.51
485.07	1816.75
485.27	1867.34
485.48	1774.16
485.68	2032.61
485.89	1810.61
486.09	1894.37
486.30	1805.08
486.50	1898.88
486.71	1886.79
486.91	1865.70
487.12	1881.47
487.33	2103.67
487.53	2104.29
487.74	1961.54
487.94	1834.16
488.15	1928.16
488.35	1971.17
488.56	1834.16
488.76	1847.27
488.97	1876.96
489.17	1993.90
489.38	1825.97
489.58	1825.76
489.79	1967.28
489.99	1933.08
490.20	1851.36
490.40	1909.12
490.61	1968.71
490.81	1856.48
491.02	1868.57
491.22	1899.49
491.43	2011.51
491.63	1878.19
491.84	1964.21
492.04	1712.10
492.25	1991.24
492.45	1855.46
492.66	1804.26
492.86	1665.20
493.07	1871.84
493.27	2146.07
493.48	1676.67
493.68	1836.41
493.89	1893.76
494.09	1991.44
494.30	1781.94
494.50	2071.32
494.71	1975.47
494.91	1723.57
495.12	1822.69
495.32	1926.52
495.53	1906.45
495.73	1686.50
495.94	1839.08
496.14	1677.29
496.35	2116.37
496.55	1858.12
496.76	1785.42
496.96	1870.82
497.17	1851.36
497.37	1918.95
497.58	1772.31
497.78	1724.59
497.98	1857.92
498.19	1860.17
498.39	1861.40
498.60	1885.77
498.80	1674.62
499.01	2001.68
499.21	1765.96
499.42	1826.79
499.62	1828.84
499.83	2170.44
500.03	1696.74
500.24	1890.89
500.44	2067.42
500.64	2006.19
500.85	1827.20
501.05	1926.32
501.26	1713.74
501.46	2027.49
501.67	1797.50
501.87	1743.85
502.08	1798.73
502.28	1854.23
502.48	1922.63
502.69	1965.23
502.89	1715.38
503.10	1802.62
503.30	1866.93
503.51	1865.90
503.71	1756.34
503.92	1987.35
504.12	1904.20
504.32	1819.42
504.53	2006.39
504.73	1988.99
504.94	1969.33
505.14	2034.66
505.35	1998.00
505.55	1977.93
505.75	1895.80
505.96	1983.46
506.16	2163.27
506.37	1873.89
506.57	1761.25
506.78	1891.50
506.98	2033.84
507.18	1740.77
507.39	1748.97
507.59	1842.15
507.80	1795.25
508.00	1918.13
508.20	1974.86
508.41	1862.22
508.61	2063.33
508.82	2008.85
509.02	1951.30
509.22	1748.97
509.43	1770.06
509.63	1814.09
509.84	1818.39
510.04	1727.05
510.24	2095.28
510.45	1972.60
510.65	1743.85
510.86	1853.41
511.06	1775.18
511.26	2000.87
511.47	1930.01
511.67	1782.55
511.88	1949.67
512.08	2027.08
512.28	1748.15
512.49	1900.52
512.69	1927.14
512.90	1934.72
513.10	1800.98
513.30	1857.10
513.51	1952.33
513.71	2079.30
513.91	1897.44
514.12	1901.13
514.32	1980.18
514.53	1816.96
514.73	1908.50
514.93	1833.55
515.14	1922.63
515.34	2080.33
515.54	1895.80
515.75	1930.82
515.95	2016.23
516.15	2082.99
516.36	1911.78
516.56	1941.06
516.77	1683.02
516.97	1973.42
517.17	1845.02
517.38	1941.47
517.58	2098.35
517.78	1872.46
517.99	1913.62
518.19	1914.85
518.39	2145.45
518.60	1914.03
518.80	1836.21
519.00	1952.33
519.21	1898.88
519.41	2132.96
519.61	1823.92
519.82	1925.71
520.02	1911.16
520.22	1912.39
520.43	1849.11
520.63	1860.99
520.83	1837.64
521.04	1739.14
521.24	1953.76
521.44	1860.99
521.65	1882.90
521.85	2053.09
522.05	1815.32
522.26	1865.90
522.46	2156.31
522.66	2038.14
522.87	1835.59
523.07	1993.49
523.27	1870.82
523.48	2095.89
523.68	1913.01
523.88	1888.43
524.09	2052.06
524.29	1936.97
524.49	1729.10
524.70	1994.93
524.90	2125.59
525.10	1995.34
525.31	1786.85
525.51	1765.55
525.71	1987.76
525.91	1967.48
526.12	1788.29
526.32	1724.80
526.52	1855.87
526.73	1793.20
526.93	1888.84
527.13	1712.92
527.34	1875.53
527.54	1876.35
527.74	1816.34
527.94	1755.72
528.15	1807.13
528.35	1908.30
528.55	1967.69
528.76	1910.35
528.96	1726.44
529.16	2032.81
529.36	1973.22
529.57	1762.89
529.77	2037.11
529.97	1779.07
530.18	1940.45
530.38	1832.11
530.58	1976.49
530.78	1935.13
530.99	1813.68
531.19	1930.42
531.39	1826.17
531.60	1908.30
531.80	1824.13
532.00	1970.76
532.20	1913.83
532.41	1800.78
532.61	1814.71
532.81	1830.47
533.01	1844.40
533.22	1955.61
533.42	1983.87
533.62	1701.25
533.82	2090.77
534.03	1891.91
534.23	1901.95
534.43	1754.90
534.63	1859.97
534.84	1951.92
535.04	1896.42
535.24	1853.62
535.44	2258.91
535.65	1854.64
535.85	1788.49
536.05	1795.86
536.25	1874.51
536.46	1780.30
536.66	2003.32
536.86	1888.64
537.06	1975.27
537.27	2074.39
537.47	1930.42
537.67	1856.07
537.87	2085.04
538.08	1891.50
538.28	1766.17
538.48	1766.37
538.68	1899.08
538.88	1994.11
539.09	1738.52
539.29	1859.56
539.49	1962.36
539.69	1953.76
539.90	1933.28
540.10	1766.99
540.30	2092.82
540.50	1842.56
540.70	1738.11
540.91	1887.82
541.11	2010.29
541.31	2115.35
541.51	1926.93
541.72	1951.71
541.92	1974.65
542.12	1828.43
542.32	1828.63
542.52	1825.35
542.73	1820.03
542.93	1950.49
543.13	1846.65
543.33	1925.09
543.53	2016.43
543.74	1980.18
543.94	1834.37
544.14	1976.90
544.34	2057.59
544.54	1918.33
544.75	1954.79
544.95	2110.23
545.15	2059.23
545.35	2109.20
545.55	2010.70
545.75	1848.29
545.96	2188.25
546.16	1852.39
546.36	1866.31
546.56	1874.10
546.76	2058.21
546.97	2123.33
547.17	1879.01
547.37	1926.73
547.57	1828.43
547.77	2004.55
547.97	1892.32
548.18	1889.66
548.38	1900.11
548.58	2095.07
548.78	1875.12
548.98	2017.45
549.18	2128.45
549.39	2227.37
549.59	2065.38
549.79	1966.66
549.99	2192.15
550.19	2062.51
550.39	2029.54
550.60	1914.85
550.80	1978.75
551.00	1995.54
551.20	1822.49
551.40	1854.85
551.60	1953.76
551.80	1932.87
552.01	1962.98
552.21	1871.84
552.41	1934.31
552.61	2114.94
552.81	1931.85
553.01	1781.12
553.21	1949.05
553.42	1784.80
553.62	1816.55
553.82	1783.99
554.02	2095.07
554.22	2018.27
554.42	1761.46
554.62	1935.74
554.83	2097.12
555.03	2137.67
555.23	1938.81
555.43	2157.54
555.63	2043.67
555.83	2032.20
556.03	1944.96
556.23	1812.45
556.44	1958.47
556.64	2073.77
556.84	1695.51
557.04	1862.63
557.24	2000.46
557.44	1952.74
557.64	1885.77
557.84	1765.55
558.04	1856.48
558.25	2011.72
558.45	1837.03
558.65	1883.11
558.85	1922.02
559.05	1703.50
559.25	1857.30
559.45	1973.63
559.65	2193.58
559.85	2619.97
560.05	1974.65
560.26	2017.45
560.46	1983.46
560.66	1874.10
560.86	1864.68
561.06	1803.24
561.26	2112.27
561.46	2010.08
561.66	1865.90
561.86	1950.90
562.06	1825.97
562.26	1906.66
562.47	1936.76
562.67	1780.30
562.87	1973.42
563.07	1757.98
563.27	1906.66
563.47	1916.08
563.67	1884.54
563.87	2004.14
564.07	1839.28
564.27	1900.52
564.47	1954.99
564.67	1945.57
564.87	1843.79
565.08	1952.33
565.28	1863.24
565.48	1981.41
565.68	1917.10
565.88	1952.94
566.08	2155.49
566.28	1898.88
566.48	1743.44
566.68	1841.33
566.88	1901.95
567.08	1994.52
567.28	1888.43
567.48	1872.25
567.68	1961.95
567.88	1762.89
568.08	1919.15
568.28	2016.43
568.48	1892.94
568.68	2065.99
568.89	1915.06
569.09	1736.27
569.29	2018.89
569.49	2003.12
569.69	1792.38
569.89	1761.46
570.09	1703.50
570.29	1799.35
570.49	1719.88
570.69	1812.04
570.89	1987.96
571.09	2157.13
571.29	1724.80
571.49	1997.79
571.69	1940.45
571.89	1970.35
572.09	1822.28
572.29	1808.97
572.49	1974.45
572.69	1962.77
572.89	1858.12
573.09	1644.52
573.29	1890.07
573.49	1911.78
573.69	1884.13
573.89	2001.28
574.09	1839.49
574.29	2046.94
574.49	1812.45
574.69	1814.71
574.89	1761.05
575.09	1791.56
575.29	1774.97
575.49	1865.29
575.69	1926.11
575.89	1735.65
576.09	1915.26
576.29	1911.57
576.49	1793.61
576.69	1888.23
576.89	1822.28
577.09	1872.46
577.29	1723.98
577.49	2116.99
577.69	1808.56
577.89	1971.17
578.09	1904.20
578.29	1705.75
578.49	1888.23
578.69	1802.83
578.89	2012.33
579.09	1904.41
579.29	1755.11
579.49	1985.51
579.69	1836.62
579.89	2131.94
580.09	1682.41
580.29	1732.17
580.49	1828.43
580.69	1759.82
580.89	1864.06
581.09	1857.92
581.29	1843.58
581.49	1876.55
581.69	1768.01
581.89	1787.67
582.09	1785.01
582.28	1783.17
582.48	1939.43
582.68	2043.67
582.88	2077.46
583.08	1845.63
583.28	1874.51
583.48	1883.52
583.68	1809.99
583.88	1898.26
584.08	1888.43
584.28	1885.77
584.48	2134.19
584.68	1949.46
584.88	1860.78
585.08	2019.71
585.28	2003.53
585.48	2052.47
585.68	1936.15
585.87	1979.36
586.07	1981.20
586.27	1908.50
586.47	1940.25
586.67	1871.64
586.87	1887.82
587.07	1870.41
587.27	1748.35
587.47	1891.30
587.67	2113.09
587.87	2252.15
588.07	1982.02
588.27	1902.56
588.46	2076.03
588.66	2083.19
588.86	1946.39
589.06	1986.32
589.26	1997.79
589.46	2010.49
589.66	1784.60
589.86	1781.12
590.06	1866.52
590.26	1981.41
590.46	1824.74
590.66	1964.00
590.85	1890.48
591.05	1974.24
591.25	1809.59
591.45	1862.63
591.65	1981.20
591.85	1960.73
592.05	1882.70
592.25	2016.23
592.45	2066.20
592.64	1882.49
592.84	1901.95
593.04	1827.61
593.24	2262.19
593.44	1858.94
593.64	1953.15
593.84	1979.57
594.04	1896.21
594.24	2111.66
594.43	1849.73
594.63	1898.47
594.83	2025.85
595.03	1990.42
595.23	1800.37
595.43	1731.97
595.63	1801.39
595.83	2012.74
596.02	1665.82
596.22	1914.24
596.42	1940.04
596.62	1893.14
596.82	1838.46
597.02	1978.13
597.22	2077.66
597.41	1932.87
597.61	1795.86
597.81	1961.75
598.01	1988.99
598.21	1854.23
598.41	1822.28
598.61	1780.71
598.80	1917.92
599.00	1957.04
599.20	2008.85
599.40	1826.38
599.60	1890.68
599.80	2021.14
599.99	2024.42
600.19	1882.90
600.39	1889.46
600.59	1964.82
600.79	1901.13
600.99	1924.48
601.19	2094.05
601.38	2158.56
601.58	1940.04
601.78	1697.15
601.98	1994.93
602.18	2070.50
602.37	2304.17
602.57	2159.58
602.77	2329.97
602.97	2267.72
603.17	2351.07
603.37	2166.96
603.56	2296.18
603.76	2239.45
603.96	2176.79
604.16	2150.16
604.36	2223.07
604.56	2136.24
604.75	1897.24
604.95	1970.15
605.15	2126.00
605.35	2061.69
605.55	1879.42
605.74	1840.92
605.94	2073.16
606.14	1937.38
606.34	1927.34
606.54	1894.37
606.73	1878.19
606.93	1991.85
607.13	1843.79
607.33	1896.42
607.53	2104.90
607.72	2033.84
607.92	1968.51
608.12	1983.66
608.32	1884.54
608.51	1983.46
608.71	1817.16
608.91	1932.05
609.11	2004.96
609.31	1908.91
609.50	1939.63
609.70	2118.83
609.90	2074.80
610.10	2026.87
610.29	1895.19
610.49	1820.03
610.69	2024.21
610.89	1929.60
611.09	1912.39
611.28	2019.50
611.48	2047.97
611.68	1874.51
611.88	1839.08
612.07	1796.07
612.27	2006.80
612.47	1816.14
612.67	1934.92
612.86	1991.65
613.06	1916.90
613.26	1729.51
613.46	1860.37
613.65	1891.71
613.85	2292.29
614.05	1990.42
614.25	1978.13
614.44	1897.03
614.64	1891.91
614.84	1863.45
615.04	1829.45
615.23	1874.10
615.43	1981.82
615.63	1985.51
615.83	1801.39
616.02	1732.79
616.22	1975.27
616.42	1838.05
616.62	1794.23
616.81	1903.18
617.01	1987.14
617.21	1932.46
617.41	1796.68
617.60	1894.58
617.80	1992.47
618.00	2005.99
618.19	1935.94
618.39	1947.62
618.59	1978.34
618.79	1881.06
618.98	1712.31
619.18	1884.75
619.38	2207.92
619.57	1886.38
619.77	1874.71
619.97	1846.24
620.17	1813.27
620.36	1790.13
620.56	2010.49
620.76	1790.74
620.95	1774.16
621.15	1872.87
621.35	1784.19
621.54	1870.21
621.74	1909.32
621.94	1828.84
622.14	1761.87
622.33	1743.64
622.53	1853.62
622.73	1860.78
622.92	1737.29
623.12	1891.09
623.32	2103.67
623.51	1971.99
623.71	1742.41
623.91	2001.68
624.10	1775.59
624.30	1907.89
624.50	1754.49
624.69	1735.65
624.89	2387.11
625.09	1861.60
625.29	1685.89
625.48	1739.75
625.68	1903.79
625.88	2004.55
626.07	1908.50
626.27	1773.75
626.47	1834.57
626.66	1713.74
626.86	1860.37
627.06	1854.64
627.25	1901.95
627.45	2093.64
627.64	1862.22
627.84	2029.13
628.04	1809.59
628.23	2145.45
628.43	1755.52
628.63	1796.48
628.82	1820.85
629.02	2134.39
629.22	1987.55
629.41	2063.74
629.61	1921.20
629.81	2158.35
630.00	1822.49
630.20	1798.94
630.40	1957.45
630.59	1978.54
630.79	1904.20
630.98	1856.69
631.18	1876.96
631.38	1869.59
631.57	2010.49
631.77	1762.69
631.97	1938.40
632.16	1942.91
632.36	1887.41
632.56	1906.04
632.75	1915.26
632.95	2026.47
633.14	1747.94
633.34	2046.33
633.54	1715.58
633.73	1851.77
633.93	1807.95
634.12	1717.22
634.32	2238.84
634.52	1879.42
634.71	1749.99
634.91	1932.67
635.11	1754.90
635.30	1782.35
635.50	1915.87
635.69	1764.94
635.89	2101.63
636.09	2012.54
636.28	1774.56
636.48	1797.91
636.67	1968.71
636.87	1975.68
637.07	1936.56
637.26	1814.09
637.46	1907.27
637.65	2004.55
637.85	1879.01
638.04	1797.50
638.24	1852.80
638.44	1958.27
638.63	1872.25
638.83	1841.33
639.02	1924.89
639.22	1968.92
639.42	1859.35
639.61	1853.21
639.81	1925.71
640.00	1855.66
640.20	1956.83
640.39	1931.23
640.59	2132.14
640.79	2066.20
640.98	1953.15
641.18	1907.48
641.37	1940.66
641.57	1867.75
641.76	1871.02
641.96	1723.16
642.15	1920.18
642.35	1856.07
642.55	1909.73
642.74	1765.14
642.94	1997.38
643.13	2053.29
643.33	1819.21
643.52	1808.97
643.72	1835.59
643.91	1882.49
644.11	1846.45
644.31	1781.32
644.50	1815.11
644.70	2037.11
644.89	1856.69
645.09	1943.11
645.28	1873.48
645.48	1965.64
645.67	1772.52
645.87	1680.36
646.06	1885.16
646.26	1942.70
646.45	1645.95
646.65	1640.63
646.84	2126.82
647.04	1821.26
647.24	1710.67
647.43	1864.06
647.63	1901.95
647.82	2054.73
648.02	1764.94
648.21	1787.67
648.41	2036.70
648.60	1823.72
648.80	1989.60
648.99	1872.46
649.19	1822.28
649.38	1687.73
649.58	1868.57
649.77	1877.17
649.97	2007.83
650.16	1904.20
650.36	1666.02
650.55	1965.64
650.75	1917.92
650.94	2075.41
651.14	1863.86
651.33	1879.83
651.53	2109.00
651.72	1805.28
651.92	1860.99
652.11	1692.03
652.31	1982.02
652.50	1941.27
652.70	1890.28
652.89	1744.87
653.09	2075.00
653.28	1825.56
653.48	1685.07
653.67	1678.92
653.87	2276.32
654.06	1938.40
654.25	2028.92
654.45	1802.21
654.64	1854.64
654.84	1848.29
655.03	1653.94
655.23	1963.59
655.42	1964.00
655.62	2115.76
655.81	1883.72
656.01	1770.47
656.20	1978.13
656.40	2079.71
656.59	1873.07
656.79	2013.36
656.98	1907.68
657.17	1988.17
657.37	1881.47
657.56	1798.94
657.76	1925.50
657.95	2012.54
658.15	1583.08
658.34	1863.04
658.54	1865.70
658.73	1772.52
658.92	1816.55
659.12	1895.80
659.31	1947.21
659.51	1789.31
659.70	1936.76
659.90	1824.54
660.09	2007.62
660.29	1893.14
660.48	1761.25
660.67	2021.75
660.87	1836.82
661.06	1943.73
661.26	1945.57
661.45	1942.09
661.65	1946.80
661.84	1830.47
662.03	1819.62
662.23	1824.33
662.42	2126.41
662.62	1756.34
662.81	1777.84
663.00	1813.07
663.20	1876.35
663.39	1936.76
663.59	1936.35
663.78	1815.73
663.97	1832.11
664.17	1986.53
664.36	1733.81
664.56	1769.65
664.75	1969.33
664.94	1961.95
665.14	1868.77
665.33	1840.71
665.53	1871.02
665.72	1862.22
665.91	1949.46
666.11	1873.07
666.30	1897.44
666.50	1846.24
666.69	1901.95
666.88	1860.17
667.08	1924.68
667.27	1842.76
667.47	1851.77
667.66	1814.91
667.85	2012.54
668.05	1863.86
668.24	1782.14
668.43	1983.66
668.63	1831.91
668.82	2001.07
669.02	1930.82
669.21	1867.13
669.40	1739.75
669.60	2101.01
669.79	1729.92
669.98	2324.03
670.18	1785.62
670.37	1723.37
670.56	1826.79
670.76	1882.08
670.95	1864.88
671.15	2004.76
671.34	1910.75
671.53	1878.60
671.73	1835.18
671.92	1797.30
672.11	1754.70
672.31	1847.27
672.50	1960.52
672.69	1748.76
672.89	1634.69
673.08	1783.99
673.27	1976.29
673.47	1897.44
673.66	1911.78
673.85	1749.99
674.05	1912.39
674.24	1939.43
674.43	1841.53
674.63	2048.38
674.82	2295.98
675.01	1791.15
675.21	2097.73
675.40	1940.86
675.59	1902.56
675.79	2165.93
675.98	1874.71
676.17	2031.18
676.37	1948.64
676.56	1859.56
676.75	1894.78
676.95	1891.30
677.14	1842.56
677.33	2024.42
677.52	1769.45
677.72	1831.91
677.91	1933.28
678.10	1708.21
678.30	1772.31
678.49	1728.69
678.68	2147.50
678.88	1686.71
679.07	2002.71
679.26	1841.53
679.45	2108.59
679.65	2030.36
679.84	1663.16
680.03	1682.61
680.23	1851.77
680.42	2218.77
680.61	1747.33
680.81	1820.03
681.00	1882.90
681.19	1966.66
681.38	1949.05
681.58	1953.76
681.77	1842.97
681.96	1969.74
682.15	1805.90
682.35	1885.36
682.54	1932.05
682.73	1770.47
682.93	1779.68
683.12	1785.42
683.31	1975.47
683.50	2237.00
683.70	1796.68
683.89	1867.13
684.08	1756.75
684.27	2010.29
684.47	1723.37
684.66	1877.99
684.85	2100.40
685.04	2004.55
685.24	1766.58
685.43	1873.69
685.62	1674.62
685.81	1911.16
686.01	1913.01
686.20	1841.12
686.39	1792.18
686.58	2201.98
686.78	1969.33
686.97	1958.27
687.16	2051.86
687.35	1983.05
687.55	1873.48
687.74	1908.09
687.93	1802.83
688.12	1889.46
688.32	1901.95
688.51	1728.90
688.70	1949.87
688.89	1760.02
689.08	1707.19
689.28	1788.70
689.47	1894.37
689.66	1885.97
689.85	1950.28
690.05	1811.63
690.24	1772.72
690.43	1912.60
690.62	1896.42
690.81	1807.54
691.01	1894.78
691.20	1819.62
691.39	1764.12
691.58	1937.58
691.77	2106.75
691.97	1904.20
692.16	1921.20
692.35	1843.79
692.54	1817.98
692.73	1929.19
692.93	1884.34
693.12	1940.04
693.31	1954.58
693.50	1941.47
693.69	1973.01
693.89	1867.34
694.08	2086.47
694.27	2061.28
694.46	1788.90
694.65	1884.75
694.85	1973.63
695.04	1937.38
695.23	1857.30
695.42	2035.68
695.61	2130.30
695.80	2220.61
696.00	2341.85
696.19	2379.74
696.38	2099.17
696.57	2151.39
696.76	2150.78
696.95	2019.09
697.15	2196.45
697.34	2195.42
697.53	1925.50
697.72	1982.02
697.91	1885.77
698.10	2146.27
698.30	1874.92
698.49	1862.01
698.68	1936.56
698.87	1834.98
699.06	1763.30
699.25	1854.03
699.45	2012.74
699.64	1932.46
699.83	1974.86
700.02	1767.60
700.21	1939.84
700.40	1825.56
700.59	1852.80
700.79	1857.10
700.98	1932.87
701.17	1834.78
701.36	1789.72
701.55	1806.51
701.74	2025.85
701.93	1759.41
702.12	1897.85
702.32	1829.45
702.51	2117.60
702.70	2061.28
702.89	1963.18
703.08	1868.77
703.27	2086.27
703.46	1978.13
703.65	1879.01
703.85	1781.73
704.04	1816.96
704.23	2016.43
704.42	1804.47
704.61	1814.91
704.80	2097.12
704.99	1804.06
705.18	1929.80
705.37	1845.63
705.57	2040.39
705.76	2197.68
705.95	2040.60
706.14	2367.45
706.33	2426.84
706.52	2588.43
706.71	2240.48
706.90	2043.67
707.09	2148.73
707.28	2090.57
707.47	1899.70
707.67	2083.40
707.86	1890.48
708.05	2092.61
708.24	1915.87
708.43	1908.30
708.62	1860.78
708.81	1800.78
709.00	1756.95
709.19	1796.89
709.38	1978.95
709.57	1799.96
709.76	1895.40
709.96	1837.64
710.15	2068.24
710.34	1882.29
710.53	1971.78
710.72	1877.99
710.91	2055.55
711.10	1968.10
711.29	1982.02
711.48	1797.71
711.67	1778.87
711.86	1963.39
712.05	1754.49
712.24	1781.73
712.43	1953.97
712.62	2079.92
712.81	1898.47
713.00	2015.82
713.19	1757.77
713.39	1931.03
713.58	1747.33
713.77	1862.01
713.96	1937.99
714.15	1844.81
714.34	1834.57
714.53	1731.56
714.72	2129.68
714.91	1767.81
715.10	1877.58
715.29	1776.20
715.48	2232.90
715.67	1964.00
715.86	1873.69
716.05	1862.22
716.24	1838.67
716.43	1833.55
716.62	1744.25
716.81	1743.85
717.00	1858.53
717.19	2058.00
717.38	1885.16
717.57	1851.77
717.76	1710.87
717.95	1993.70
718.14	1884.54
718.33	1831.91
718.52	1679.74
718.71	1701.86
718.90	1728.28
719.09	1815.93
719.28	1869.39
719.47	1985.10
719.66	1951.10
719.85	1928.57
720.04	1861.60
720.23	1911.78
720.42	1835.59
720.61	1917.10
720.80	1727.46
720.99	1918.13
721.18	1825.56
721.37	1790.95
721.56	1824.33
721.75	1992.67
721.94	1749.58
722.13	1839.08
722.32	1845.02
722.51	1989.19
722.70	1830.68
722.89	1889.66
723.08	1859.97
723.27	2013.77
723.46	1904.41
723.65	1831.09
723.84	1822.69
724.03	2036.09
724.22	1752.04
724.41	1892.73
724.60	1838.26
724.79	1992.06
724.98	1902.77
725.16	1833.14
725.35	1967.69
725.54	1730.74
725.73	1875.32
725.92	1860.58
726.11	1823.72
726.30	2005.99
726.49	1811.22
726.68	1907.89
726.87	1967.28
727.06	2092.61
727.25	1832.32
727.44	1964.00
727.63	1909.53
727.82	1841.74
728.01	1924.48
728.20	1944.34
728.38	2090.36
728.57	1848.29
728.76	1862.83
728.95	1962.36
729.14	1757.36
729.33	1737.70
729.52	1636.94
729.71	1765.35
729.90	1744.87
730.09	1809.38
730.28	1865.49
730.47	1806.31
730.66	2039.16
730.84	1923.66
731.03	1882.90
731.22	1924.07
731.41	1894.17
731.60	1948.64
731.79	1715.38
731.98	1800.78
732.17	1990.63
732.36	1937.58
732.55	1811.84
732.73	1729.92
732.92	2029.74
733.11	1922.84
733.30	1801.19
733.49	1718.45
733.68	1943.73
733.87	1876.96
734.06	1765.14
734.25	1787.88
734.43	1824.94
734.62	1950.08
734.81	1910.55
735.00	1872.66
735.19	1899.90
735.38	1991.24
735.57	1751.63
735.76	1946.18
735.94	1944.75
736.13	2244.37
736.32	2054.11
736.51	2028.10
736.70	2286.15
736.89	2328.13
737.08	2209.35
737.27	2270.79
737.45	2542.35
737.64	2489.92
737.83	2605.84
738.02	2590.07
738.21	2648.84
738.40	2564.47
738.59	2254.20
738.77	2317.69
738.96	2162.25
739.15	2160.81
739.34	2204.23
739.53	2112.89
739.72	2192.76
739.90	2127.63
740.09	1894.58
740.28	1938.20
740.47	2019.50
740.66	1964.41
740.85	1789.72
741.03	1882.49
741.22	1762.48
741.41	1878.40
741.60	1708.62
741.79	1893.76
741.98	2034.66
742.16	2109.00
742.35	1912.19
742.54	1888.64
742.73	2160.61
742.92	1845.63
743.10	1763.71
743.29	1806.92
743.48	2204.84
743.67	1823.31
743.86	1699.40
744.05	1753.68
744.23	1785.62
744.42	1785.21
744.61	1868.57
744.80	1717.84
744.99	1807.33
745.17	1664.18
745.36	1702.89
745.55	1904.82
745.74	1861.40
745.93	1787.47
746.11	1761.87
746.30	1752.65
746.49	2011.31
746.68	1777.23
746.86	1829.04
747.05	1810.81
747.24	1959.91
747.43	1971.78
747.62	1714.15
747.80	1782.14
747.99	2017.86
748.18	1967.89
748.37	1925.09
748.56	1926.11
748.74	2010.90
748.93	1898.47
749.12	2047.56
749.31	2383.22
749.49	2661.34
749.68	2908.12
749.87	3089.77
750.06	3078.92
750.24	3093.87
750.43	3036.11
750.62	3139.33
750.81	3200.16
750.99	3344.33
751.18	3321.81
751.37	2963.82
751.56	2850.36
751.74	3057.82
751.93	3038.16
752.12	2411.28
752.31	2297.41
752.49	2239.66
752.68	2426.23
752.87	2170.23
753.06	2036.50
753.24	2039.16
753.43	2131.12
753.62	1904.82
753.81	1857.30
753.99	2117.60
754.18	1958.68
754.37	1780.30
754.55	1896.83
754.74	2110.84
754.93	1689.98
755.12	1809.59
755.30	1765.76
755.49	2006.80
755.68	1885.97
755.86	1901.33
756.05	1729.71
756.24	2059.85
756.43	1745.89
756.61	1757.36
756.80	1913.21
756.99	2048.38
757.17	1861.40
757.36	1753.47
757.55	1850.54
757.74	1959.91
757.92	1859.35
758.11	1703.91
758.30	1649.43
758.48	1838.87
758.67	1720.09
758.86	1877.99
759.04	1710.05
759.23	1796.48
759.42	1862.63
759.60	1752.86
759.79	1842.15
759.98	1819.01
760.16	1767.40
760.35	1785.21
760.54	1714.35
760.73	1876.14
760.91	1713.54
761.10	1850.75
761.29	1915.67
761.47	1866.11
761.66	2133.98
761.85	1882.90
762.03	1952.94
762.22	2155.08
762.41	2746.94
762.59	3320.78
762.78	3626.54
762.97	4275.13
763.15	4370.16
763.34	4052.11
763.52	3440.59
763.71	3328.56
763.90	3328.36
764.08	3038.57
764.27	2975.49
764.46	2981.84
764.64	2635.74
764.83	2577.78
765.02	2459.20
765.20	2420.08
765.39	2303.15
765.58	2002.71
765.76	2044.08
765.95	2022.57
766.13	1955.81
766.32	1878.19
766.51	1881.06
766.69	2427.66
766.88	1897.24
767.07	1753.47
767.25	1670.53
767.44	2015.00
767.62	2038.96
767.81	1766.58
768.00	1861.60
768.18	1856.89
768.37	1776.00
768.56	1680.36
768.74	1785.42
768.93	1730.74
769.11	1942.50
769.30	1856.69
769.49	1770.06
769.67	1846.65
769.86	1809.99
770.04	1809.79
770.23	1829.04
770.42	2043.46
770.60	1879.22
770.79	1761.05
770.97	1803.44
771.16	2061.69
771.35	2117.19
771.53	2193.78
771.72	2277.75
771.90	2469.03
772.09	2706.80
772.27	2550.13
772.46	2217.95
772.65	2415.99
772.83	2284.51
773.02	2227.58
773.20	2093.43
773.39	2191.74
773.58	2205.05
773.76	1878.40
773.95	1984.07
774.13	2032.81
774.32	1917.72
774.50	1821.67
774.69	1905.84
774.87	1853.82
775.06	2134.39
775.25	1774.16
775.43	1870.61
775.62	1902.15
775.80	1966.66
775.99	1901.33
776.17	1773.13
776.36	1868.57
776.54	1926.93
776.73	1757.57
776.92	1854.85
777.10	1915.26
777.29	1896.42
777.47	1719.88
777.66	1762.28
777.84	1867.75
778.03	1836.00
778.21	1735.65
778.40	1846.24
778.58	1945.16
778.77	1978.75
778.95	1715.17
779.14	1778.87
779.32	2101.22
779.51	1980.39
779.70	1832.93
779.88	1732.79
780.07	1820.23
780.25	2210.17
780.44	1836.21
780.62	1951.71
780.81	1937.38
780.99	1927.14
781.18	1774.36
781.36	1807.33
781.55	1881.88
781.73	2039.78
781.92	1755.11
782.10	1734.63
782.29	1917.10
782.47	2063.53
782.66	1877.58
782.84	1706.78
783.03	1779.28
783.21	2014.59
783.40	1819.21
783.58	1809.99
783.77	1840.10
783.95	1859.97
784.14	1758.59
784.32	1850.34
784.51	2006.39
784.69	1780.71
784.88	1698.99
785.06	1856.69
785.24	1739.14
785.43	1973.63
785.61	1937.99
785.80	1757.57
785.98	1923.86
786.17	1860.58
786.35	1765.96
786.54	1891.30
786.72	1971.17
786.91	2006.39
787.09	1844.20
787.28	1733.81
787.46	1889.66
787.65	2004.35
787.83	1719.88
788.01	1862.01
788.20	1739.75
788.38	1884.34
788.57	1790.13
788.75	1813.89
788.94	2134.60
789.12	2010.70
789.31	1839.49
789.49	1941.88
789.67	1831.09
789.86	1926.73
790.04	1758.59
790.23	1664.79
790.41	2132.55
790.60	1827.61
790.78	1812.86
790.96	1831.09
791.15	1975.68
791.33	1841.33
791.52	1851.57
791.70	1746.51
791.89	1856.69
792.07	1971.17
792.25	1871.23
792.44	1704.93
792.62	1993.90
792.81	1831.50
792.99	1835.59
793.17	1780.50
793.36	1779.28
793.54	2123.33
793.73	2097.94
793.91	2049.81
794.10	2331.61
794.28	2481.52
794.46	2293.11
794.65	2345.33
794.83	2106.13
795.01	2189.07
795.20	2268.53
795.38	2124.77
795.57	2186.41
795.75	2131.73
795.93	2013.15
796.12	2045.72
796.30	2079.51
796.49	2053.09
796.67	1845.42
796.85	1991.65
797.04	1934.72
797.22	1993.70
797.40	1743.85
797.59	1879.63
797.77	1908.71
797.96	1773.75
798.14	1769.85
798.32	1800.57
798.51	1941.68
798.69	2103.26
798.87	1831.70
799.06	1808.15
799.24	1701.45
799.42	2025.65
799.61	1985.51
799.79	2000.66
799.98	2339.60
800.16	2124.15
800.34	2314.00
800.53	2522.48
800.71	2556.68
800.89	2938.43
801.08	2885.18
801.26	2816.37
801.44	2578.60
801.63	2401.04
801.81	2378.31
801.99	2340.01
802.18	2282.05
802.36	2249.08
802.54	2238.02
802.73	2039.98
802.91	2095.89
803.09	2109.20
803.28	2066.81
803.46	2036.70
803.64	2161.02
803.83	1822.08
804.01	1829.25
804.19	1752.24
804.38	1954.99
804.56	1946.59
804.74	1850.75
804.92	1879.22
805.11	1767.81
805.29	1976.90
805.47	1803.44
805.66	1702.27
805.84	1739.95
806.02	2022.16
806.21	1793.41
806.39	1958.88
806.57	1993.49
806.76	1952.53
806.94	1848.91
807.12	1771.70
807.30	1791.77
807.49	1889.87
807.67	1854.85
807.85	1950.90
808.04	1981.41
808.22	2123.95
808.40	1732.58
808.58	1722.75
808.77	1906.45
808.95	2054.73
809.13	1924.48
809.31	2286.56
809.50	2555.46
809.68	2761.69
809.86	2637.99
810.05	2791.59
810.23	3212.44
810.41	3501.00
810.59	5030.22
810.78	5889.55
810.96	6565.17
811.14	7063.03
811.32	6716.72
811.51	5750.90
811.69	4974.93
811.87	5016.91
812.05	4492.42
812.24	4323.47
812.42	4219.63
812.60	4009.31
812.78	3439.36
812.97	3161.24
813.15	3227.80
813.33	2895.21
813.51	2728.10
813.70	2358.44
813.88	2200.13
814.06	2202.39
814.24	2109.00
814.42	1918.33
814.61	2007.42
814.79	2183.34
814.97	1723.37
815.15	1833.55
815.34	1944.96
815.52	2004.96
815.70	1730.33
815.88	1822.28
816.06	1772.31
816.25	1818.60
816.43	1749.78
816.61	1939.02
816.79	2063.33
816.98	1664.18
817.16	1795.04
817.34	1732.99
817.52	1902.56
817.70	2051.45
817.89	1804.06
818.07	1724.59
818.25	1826.17
818.43	1869.18
818.61	1845.22
818.80	1807.13
818.98	2109.82
819.16	1868.98
819.34	1737.91
819.52	2049.61
819.70	1760.43
819.89	1871.84
820.07	1708.83
820.25	1693.87
820.43	1917.51
820.61	2000.25
820.80	1846.04
820.98	1740.36
821.16	1685.27
821.34	1717.84
821.52	1813.48
821.70	1882.29
821.89	1873.48
822.07	1833.14
822.25	1827.61
822.43	1764.12
822.61	2078.69
822.79	1904.20
822.98	1805.69
823.16	1653.94
823.34	1881.06
823.52	2015.20
823.70	1944.14
823.88	1670.94
824.06	1951.10
824.25	1859.56
824.43	1921.81
824.61	1749.99
824.79	1876.55
824.97	1928.78
825.15	1960.73
825.33	2055.34
825.52	2184.98
825.70	2088.11
825.88	2095.69
826.06	2180.27
826.24	2196.65
826.42	2252.77
826.60	2076.64
826.78	2108.38
826.97	2014.38
827.15	2134.39
827.33	1885.36
827.51	2012.74
827.69	1863.65
827.87	1982.64
828.05	1960.11
828.23	1839.69
828.41	2052.06
828.60	1977.52
828.78	1718.25
828.96	1899.70
829.14	1789.72
829.32	1850.95
829.50	1808.77
829.68	1811.22
829.86	1808.77
830.04	1919.15
830.22	1892.94
830.41	1727.05
830.59	1884.75
830.77	1968.10
830.95	1781.94
831.13	1783.58
831.31	1770.67
831.49	1979.77
831.67	1957.45
831.85	1954.38
832.03	1836.62
832.21	1950.08
832.39	1740.57
832.57	1740.77
832.76	1969.12
832.94	1831.70
833.12	1682.82
833.30	1815.73
833.48	2040.60
833.66	1910.75
833.84	1769.85
834.02	1861.40
834.20	2004.55
834.38	1998.82
834.56	1674.21
834.74	1738.52
834.92	1696.74
835.10	2080.53
835.28	1883.93
835.46	1823.31
835.64	1860.17
835.82	1780.50
836.01	2065.79
836.19	1972.19
836.37	1817.16
836.55	1748.97
836.73	1766.58
836.91	1716.20
837.09	1961.54
837.27	2047.56
837.45	1672.17
837.63	1745.07
837.81	1748.76
837.99	1867.95
838.17	1800.57
838.35	1765.96
838.53	2132.55
838.71	1963.59
838.89	1798.32
839.07	1799.75
839.25	1870.82
839.43	2008.85
839.61	1849.93
839.79	2183.13
839.97	2356.60
840.15	2451.01
840.33	2439.34
840.51	2713.15
840.69	2531.08
840.87	2382.40
841.05	2366.43
841.23	2288.61
841.41	2534.98
841.59	3027.72
841.77	3096.53
841.95	3228.01
842.13	3549.95
842.31	3321.19
842.49	2915.90
842.67	2849.75
842.85	2828.24
843.03	2547.88
843.21	2492.79
843.39	2597.64
843.57	2461.86
843.75	2389.77
843.93	2237.41
844.11	2162.25
844.29	2159.99
844.47	2077.46
844.65	2177.81
844.83	1982.84
845.01	1945.16
845.19	2072.54
845.36	1885.77
845.54	1960.32
845.72	1914.03
845.90	1964.41
846.08	1760.23
846.26	1857.71
846.44	1917.72
846.62	1960.73
846.80	1856.07
846.98	1776.00
847.16	1838.26
847.34	1881.47
847.52	1737.29
847.70	1747.33
847.88	1860.78
848.06	2069.47
848.24	1890.89
848.41	1714.56
848.59	1992.88
848.77	1902.15
848.95	1801.39
849.13	1786.24
849.31	1955.40
849.49	1905.02
849.67	1746.10
849.85	1732.17
850.03	1916.49
850.21	1896.21
850.39	1780.71
850.57	1911.78
850.74	2054.52
850.92	2044.69
851.10	1956.01
851.28	1943.93
851.46	2113.09
851.64	2417.42
851.82	2101.22
852.00	2147.50
852.18	2286.56
852.36	2164.09
852.53	1952.94
852.71	2052.68
852.89	2060.26
853.07	2079.10
853.25	1883.11
853.43	1801.39
853.61	1942.70
853.79	1970.97
853.97	1828.02
854.14	1779.07
854.32	2064.76
854.50	1986.73
854.68	1818.60
854.86	1839.49
855.04	1795.45
855.22	1970.76
855.40	1708.42
855.57	1790.13
855.75	1956.63
855.93	1928.57
856.11	1658.45
856.29	1780.30
856.47	1808.97
856.65	1910.75
856.82	1729.51
857.00	1699.20
857.18	1854.64
857.36	1791.36
857.54	1869.18
857.72	1947.41
857.89	1944.34
858.07	1896.62
858.25	1986.12
858.43	1713.95
858.61	1863.24
858.79	1859.56
858.97	1774.97
859.14	1915.06
859.32	1829.66
859.50	1807.54
859.68	1892.94
859.86	1760.64
860.03	1891.91
860.21	1927.75
860.39	1791.97
860.57	1858.53
860.75	1920.18
860.93	2097.94
861.10	1961.13
861.28	1774.77
861.46	1921.40
861.64	1925.30
861.82	1792.79
861.99	1885.36
862.17	2000.46
862.35	2012.74
862.53	1832.73
862.71	1850.34
862.88	1883.93
863.06	1971.78
863.24	1801.60
863.42	1773.75
863.60	1838.26
863.77	1917.10
863.95	1649.43
864.13	1848.70
864.31	1832.73
864.49	1956.83
864.66	1757.57
864.84	1795.45
865.02	1876.76
865.20	2210.37
865.37	1890.68
865.55	1779.68
865.73	1715.38
865.91	1983.87
866.09	1898.67
866.26	1883.93
866.44	1970.76
866.62	1868.36
866.80	1750.60
866.97	1862.22
867.15	1838.67
867.33	1917.92
867.51	1908.30
867.68	1844.20
867.86	1825.76
868.04	1817.78
868.22	1668.48
868.39	1785.42
868.57	1921.20
868.75	2058.62
868.93	1736.47
869.10	1747.74
869.28	2098.76
869.46	2018.07
869.64	1819.62
869.81	1833.55
869.99	1909.94
870.17	1910.35
870.35	1766.37
870.52	1754.90
870.70	1988.37
870.88	1801.60
871.05	1741.39
871.23	1631.82
871.41	1866.93
871.59	1858.33
871.76	1808.15
871.94	1769.85
872.12	1886.79
872.29	1701.45
872.47	1783.58
872.65	1728.28
872.83	1935.33
873.00	2061.28
873.18	1803.24
873.36	1766.58
873.53	1971.99
873.71	1701.04
873.89	1754.49
874.06	1840.30
874.24	1934.72
874.42	2019.50
874.60	1936.56
874.77	1876.55
874.95	1799.96
875.13	1993.29
875.30	1774.97
875.48	1788.49
875.66	2073.77
875.83	1786.03
876.01	1801.39
876.19	1921.40
876.36	1750.60
876.54	1879.83
876.72	1744.46
876.89	1890.89
877.07	1967.07
877.25	1683.84
877.42	1866.52
877.60	1809.99
877.78	2103.26
877.95	1812.45
878.13	1772.72
878.31	1897.85
878.48	1978.54
878.66	1938.61
878.84	1801.39
879.01	1842.35
879.19	1894.99
879.37	1953.15
879.54	1790.54
879.72	1701.04
879.90	1656.40
880.07	1937.99
880.25	1576.94
880.42	1909.32
880.60	1884.34
880.78	1954.38
880.95	1797.09
881.13	1811.22
881.31	1869.59
881.48	1804.47
881.66	1791.36
881.83	1877.78
882.01	1781.53
882.19	1742.41
882.36	1837.23
882.54	1819.01
882.72	1948.85
882.89	1860.58
883.07	1727.05
883.24	1823.10
883.42	1973.22
883.60	1876.55
883.77	1735.24
883.95	1798.73
884.12	1985.71
884.30	1893.35
884.48	1926.93
884.65	1850.34
884.83	1905.84
885.00	1907.27
885.18	1716.40
885.36	1785.42
885.53	1923.66
885.71	2033.43
885.88	1708.83
886.06	1793.20
886.23	1922.84
886.41	1830.88
886.59	1778.66
886.76	1796.07
886.94	1943.93
887.11	2219.38
887.29	1836.82
887.47	1700.02
887.64	2011.51
887.82	2013.56
887.99	1678.52
888.17	1850.54
888.34	1838.46
888.52	1761.66
888.69	1853.62
888.87	1730.53
889.05	1835.80
889.22	1824.54
889.40	1776.82
889.57	1949.87
889.75	2074.18
889.92	1825.76
890.10	1710.05
890.27	1821.05
890.45	1809.99
890.62	1684.45
890.80	1721.11
890.98	1677.49
891.15	2040.39
891.33	1990.63
891.50	1785.62
891.68	1711.69
891.85	1956.42
892.03	1945.57
892.20	1778.87
892.38	1744.25
892.55	1958.68
892.73	1943.73
892.90	1736.47
893.08	1783.78
893.25	1791.36
893.43	1831.09
893.60	1907.48
893.78	1639.19
893.95	1952.94
894.13	1861.81
894.30	1748.97
894.48	1839.69
894.65	1956.83
894.83	1885.36
895.00	1660.49
895.18	1651.48
895.35	1987.96
895.53	1940.45
895.70	1711.49
895.88	1905.43
896.05	1935.33
896.23	1722.96
896.40	1791.15
896.58	1849.32
896.75	1973.83
896.93	2048.17
897.10	1773.95
897.28	1721.93
897.45	1894.37
897.63	1935.33
897.80	1905.84
897.98	1812.45
898.15	1925.50
898.33	1774.16
898.50	1867.13
898.67	1820.44
898.85	1818.19
899.02	1932.05
899.20	1978.34
899.37	1807.74
899.55	1881.26
899.72	2039.78
899.90	1786.03
900.07	1767.40
900.25	1930.82
900.42	2026.67
900.59	1788.29
900.77	1902.56
900.94	1900.52
901.12	1909.53
901.29	1774.77
901.47	1902.36
901.64	1926.52
901.82	1838.87
901.99	1604.17
902.16	1742.62
902.34	2008.24
902.51	1906.25
902.69	1798.94
902.86	1848.29
903.03	2292.70
903.21	1879.22
903.38	1856.89
903.56	1773.34
903.73	1998.41
903.91	1849.32
904.08	1728.69
904.25	1655.99
904.43	1763.51
904.60	1958.88
904.78	1801.80
904.95	1740.36
905.12	1834.98
905.30	2042.85
905.47	1882.08
905.65	1925.71
905.82	1832.11
905.99	1936.76
906.17	1846.24
906.34	1763.71
906.52	1814.30
906.69	1932.46
906.86	1925.30
907.04	1853.62
907.21	1956.63
907.38	1990.63
907.56	1772.52
907.73	1775.38
907.91	2039.16
908.08	2027.28
908.25	1740.36
908.43	1747.12
908.60	1948.64
908.77	1886.79
908.95	1769.65
909.12	1734.42
909.30	1946.39
909.47	1689.57
909.64	1822.69
909.82	1919.15
909.99	1846.65
910.16	1856.48
910.34	1768.22
910.51	1792.38
910.68	1884.75
910.86	1897.44
911.03	1716.81
911.20	1813.27
911.38	2079.71
911.55	2441.79
911.72	2496.68
911.90	2412.30
912.07	2634.30
912.24	2776.02
912.42	2309.29
912.59	2109.41
912.76	2256.86
912.94	2123.74
913.11	1961.75
913.28	1896.42
913.46	1839.28
913.63	2011.51
913.80	2121.49
913.98	1843.17
914.15	2048.99
914.32	2070.29
914.49	1919.97
914.67	1781.32
914.84	1909.73
915.01	1957.86
915.19	1874.92
915.36	1786.65
915.53	1992.47
915.71	1931.23
915.88	1877.58
916.05	1763.30
916.22	2011.11
916.40	1898.88
916.57	1738.93
916.74	1879.22
916.92	2058.00
917.09	1738.52
917.26	1759.21
917.43	1711.49
917.61	1820.64
917.78	1695.51
917.95	1627.52
918.13	1717.02
918.30	2144.22
918.47	1870.61
918.64	1746.92
918.82	1737.09
918.99	1855.05
919.16	2066.81
919.33	1816.14
919.51	1767.81
919.68	1838.67
919.85	2012.95
920.02	1695.92
920.20	1807.74
920.37	2052.88
920.54	1974.65
920.71	1733.40
920.89	1788.90
921.06	2077.66
921.23	1757.98
921.40	1714.76
921.58	1877.37
921.75	2305.19
921.92	1850.13
922.09	1910.14
922.27	1915.87
922.44	1933.28
922.61	1991.24
922.78	1859.35
922.96	1817.37
923.13	1841.33
923.30	2016.84
923.47	1690.19
923.64	1803.03
923.82	1911.98
923.99	1922.02
924.16	1874.51
924.33	1734.22
924.50	1873.69
924.68	2081.76
924.85	1718.45
925.02	1785.83
925.19	1970.35
925.36	1889.46
925.54	1852.59
925.71	1828.02
925.88	2236.79
926.05	1816.55
926.22	1752.86
926.40	1825.35
926.57	1888.02
926.74	1934.72
926.91	1751.63
927.08	1949.67
927.26	2015.20
927.43	1897.44
927.60	1750.19
927.77	1823.72
927.94	2058.00
928.11	2022.78
928.29	1709.23
928.46	1833.75
928.63	1773.95
928.80	1833.96
928.97	1856.69
929.14	1709.44
929.32	2121.29
929.49	1881.06
929.66	1753.06
929.83	1711.90
930.00	1832.93
930.17	1919.77
930.35	1703.91
930.52	1760.02
930.69	2046.33
930.86	1744.05
931.03	1867.75
931.20	1626.29
931.37	2000.46
931.55	1861.19
931.72	1845.83
931.89	1713.54
932.06	1715.99
932.23	2059.64
932.40	1891.71
932.57	1896.83
932.74	2029.95
932.92	2013.77
933.09	1904.82
933.26	1571.41
933.43	1860.58
933.60	1890.89
933.77	1830.47
933.94	1844.20
934.11	1843.58
934.29	1883.72
934.46	1739.95
934.63	1831.91
934.80	1705.96
934.97	1868.98
935.14	1807.33
935.31	1668.07
935.48	1751.42
935.65	1885.16
935.82	1862.22
936.00	1695.51
936.17	2051.86
936.34	1850.54
936.51	1903.38
936.68	1698.18
936.85	1905.43
937.02	1865.70
937.19	1866.31
937.36	1818.19
937.53	1904.00
937.70	1991.44
937.87	1822.90
938.05	1894.78
938.22	1878.60
938.39	1753.27
938.56	1819.42
938.73	1731.97
938.90	1846.86
939.07	1782.14
939.24	1821.87
939.41	1663.57
939.58	1928.78
939.75	1935.33
939.92	1747.94
940.09	1970.15
940.26	1839.90
940.43	1985.92
940.60	1771.70
940.77	1794.02
940.95	1914.03
941.12	1959.91
941.29	1793.00
941.46	1814.50
941.63	2011.11
941.80	2036.91
941.97	1682.82
942.14	1702.48
942.31	1953.76
942.48	1851.98
942.65	1881.06
942.82	1825.15
942.99	1934.72
943.16	1892.73
943.33	1734.02
943.50	1776.20
943.67	1959.09
943.84	2002.50
944.01	1793.20
944.18	1719.68
944.35	2047.76
944.52	1777.23
944.69	1878.60
944.86	1706.78
945.03	1970.76
945.20	2186.41
945.37	1648.82
945.54	1824.94
945.71	2042.64
945.88	2067.83
946.05	1730.74
946.22	1718.45
946.39	2014.38
946.56	1867.54
946.73	1700.02
946.90	1746.71
947.07	1808.77
947.24	1838.05
947.41	1648.00
947.58	1895.60
947.75	1949.26
947.92	1924.68
948.09	1609.29
948.26	1692.03
948.43	1913.83
948.60	2117.39
948.77	1756.34
948.94	1753.47
949.11	1990.83
949.27	1908.91
949.44	1730.12
949.61	1764.33
949.78	1900.31
949.95	2027.28
950.12	1737.70
950.29	1709.03
950.46	1803.44
950.63	2007.01
950.80	1750.40
950.97	1807.54
951.14	1989.19
951.31	1847.88
951.48	1761.66
951.65	1722.14
951.82	2118.01
951.99	1907.48
952.15	1672.99
952.32	1797.50
952.49	1801.39
952.66	1785.01
952.83	1754.70
953.00	1724.39
953.17	1872.87
953.34	1981.41
953.51	1807.95
953.68	1807.74
953.85	2001.07
954.02	2005.58
954.18	1797.09
954.35	1820.85
954.52	1765.35
954.69	1877.78
954.86	1631.41
955.03	1808.97
955.20	1933.69
955.37	1872.87
955.54	1777.02
955.71	1765.14
955.87	1932.26
956.04	2095.48
956.21	1784.19
956.38	1734.42
956.55	1886.38
956.72	2218.56
956.89	1853.41
957.06	1760.23
957.23	1802.83
957.39	2013.36
957.56	1778.46
957.73	1710.67
957.90	1630.80
958.07	2117.19
958.24	1819.42
958.41	1761.87
958.57	1983.25
958.74	1879.01
958.91	1722.55
959.08	1754.70
959.25	1989.60
959.42	1827.20
959.59	1823.10
959.75	1771.49
959.92	2010.29
960.09	2002.09
960.26	1760.23
960.43	1822.08
960.60	1907.48
960.76	1836.62
960.93	1690.19
961.10	1830.88
961.27	1986.12
961.44	1844.40
961.61	1729.10
961.77	1730.12
961.94	1877.37
962.11	1987.55
962.28	1787.06
962.45	1699.61
962.62	1814.50
962.78	1956.83
962.95	1717.02
963.12	1779.68
963.29	1958.06
963.46	2233.72
963.62	1848.91
963.79	1762.69
963.96	2185.18
964.13	1835.59
964.30	1860.78
964.46	1755.93
964.63	1737.70
964.80	2198.90
964.97	1609.91
965.14	1866.93
965.30	1922.84
965.47	1988.58
965.64	1886.79
965.81	1859.15
965.98	2073.98
966.14	1909.53
966.31	1769.04
966.48	1769.65
966.65	2042.85
966.81	1907.89
966.98	1766.58
967.15	1820.23
967.32	1855.25
967.49	1763.92
967.65	1662.54
967.82	1605.81
967.99	1841.33
968.16	1692.44
968.32	1915.67
968.49	1766.17
968.66	1855.46
968.83	2049.61
968.99	1819.01
969.16	1688.35
969.33	2031.79
969.50	1943.32
969.66	1879.01
969.83	1982.64
970.00	1976.09
970.17	1911.57
970.33	1769.85
970.50	1713.95
970.67	2069.47
970.84	2033.43
971.00	1717.43
971.17	1711.28
971.34	1961.95
971.50	1874.92
971.67	1905.43
971.84	1803.44
972.01	1746.30
972.17	1625.06
972.34	1723.57
972.51	1853.82
972.67	1993.90
972.84	1921.61
973.01	1735.86
973.18	1764.53
973.34	1999.84
973.51	1772.93
973.68	1796.27
973.84	1813.89
974.01	1832.93
974.18	2106.54
974.34	1830.88
974.51	1853.62
974.68	1784.19
974.85	2112.68
975.01	1870.82
975.18	1797.30
975.35	1912.80
975.51	1762.07
975.68	1645.34
975.85	1918.33
976.01	1793.82
976.18	2027.08
976.35	1774.56
976.51	1737.70
976.68	2059.23
976.85	2039.98
977.01	1821.26
977.18	1874.51
977.35	1925.50
977.51	1754.49
977.68	1629.57
977.85	1686.50
978.01	2012.54
978.18	1955.40
978.35	1814.71
978.51	1778.46
978.68	2008.24
978.85	2074.59
979.01	1752.65
979.18	1795.04
979.34	1868.36
979.51	1897.44
979.68	1725.21
979.84	1806.51
980.01	2181.29
980.18	1875.73
980.34	1738.73
980.51	1859.97
980.67	1961.34
980.84	1970.56
981.01	1819.42
981.17	1848.29
981.34	1672.99
981.51	1949.67
981.67	1736.88
981.84	1905.02
982.00	1948.44
982.17	1840.10
982.34	1660.08
982.50	1591.89
982.67	2034.25
982.83	1811.22
983.00	1692.03
983.17	1602.54
983.33	2010.90
983.50	1684.45
983.66	1681.18
983.83	1602.95
984.00	1827.20
984.16	1887.20
984.33	1614.41
984.49	1598.03
984.66	1769.45
984.83	1982.64
984.99	1650.25
985.16	1603.56
985.32	1962.57
985.49	1981.00
985.65	1737.91
985.82	1605.61
985.99	2078.69
986.15	1870.61
986.32	1707.60
986.48	1652.92
986.65	1815.93
986.81	1945.16
986.98	1618.10
987.14	1662.54
987.31	1889.25
987.48	1687.73
987.64	1560.35
987.81	1605.40
987.97	2147.91
988.14	1802.21
988.30	1635.30
988.47	1495.43
988.63	1911.78
988.80	1753.06
988.96	1704.32
989.13	1735.04
989.30	1819.42
989.46	1982.02
989.63	1579.60
989.79	1587.79
989.96	1828.84
990.12	2058.21
990.29	1648.00
990.45	1677.49
990.62	1871.84
990.78	2034.86
990.95	1741.80
991.11	1647.39
991.28	1806.51
991.44	1915.06
991.61	1532.29
991.77	1688.35
991.94	1927.75
992.10	2011.11
992.27	1701.04
992.43	1687.94
992.60	1929.19
992.76	1821.26
992.93	1777.43
993.09	1582.26
993.26	1991.65
993.42	2110.64
993.59	1641.24
993.75	1575.09
993.92	1787.26
994.08	1777.43
994.25	1705.75
994.41	1588.40
994.58	1941.06
994.74	2055.14
994.91	1604.58
995.07	1716.81
995.24	1851.36
995.40	1861.40
995.56	1751.83
995.73	1748.76
995.89	2084.42
996.06	1848.09
996.22	1648.82
996.39	1567.11
996.55	1828.43
996.72	1931.03
996.88	1590.04
997.05	1618.51
997.21	2101.22
997.37	1954.58
997.54	1697.56
997.70	1689.98
997.87	1888.84
998.03	1862.83
998.20	1565.67
998.36	1559.12
998.52	1938.81
998.69	1974.65
998.85	1583.49
999.02	1659.26
999.18	1982.64
999.35	1970.56
999.51	1675.85
999.67	1660.49
999.84	1759.00
1000.00	1955.61
1000.17	1728.69
1000.33	1610.11
1000.49	1808.97
1000.66	1846.24
1000.82	1642.27
1000.99	1704.11
1001.15	2010.08
1001.31	1842.56
1001.48	1647.18
1001.64	1711.90
1001.81	1843.79
1001.97	2106.54
1002.13	1632.23
1002.30	1672.37
1002.46	2039.37
1002.63	1834.57
1002.79	1719.47
1002.95	1621.79
1003.12	1984.69
1003.28	1911.37
1003.45	1625.68
1003.61	1617.69
1003.77	1912.19
1003.94	1709.03
1004.10	1680.77
1004.26	1698.59
1004.43	1932.05
1004.59	2090.98
1004.75	1648.41
1004.92	1628.14
1005.08	1816.55
1005.25	1894.78
1005.41	1629.36
1005.57	1710.67
1005.74	2028.10
1005.90	1818.39
1006.06	1717.84
1006.23	1629.77
1006.39	1932.46
1006.55	2219.59
1006.72	1808.97
1006.88	1604.58
1007.04	1747.33
1007.21	1835.39
1007.37	1655.58
1007.53	1626.29
1007.70	2042.64
1007.86	1955.81
1008.02	1726.44
1008.19	1594.96
1008.35	1906.04
1008.51	1752.24
1008.68	1660.90
1008.84	1590.45
1009.00	1754.09
1009.17	2024.42
1009.33	1781.73
1009.49	1723.57
1009.65	1763.92
1009.82	1933.69
1009.98	1694.69
1010.14	1560.96
1010.31	1990.22
1010.47	1923.86
1010.63	1744.25
1010.80	1690.60
1010.96	1933.90
1011.12	1852.80
1011.28	1671.96
1011.45	1644.52
1011.61	2204.64
1011.77	1782.55
1011.94	1632.23
1012.10	1585.54
1012.26	1748.56
1012.42	1813.48
1012.59	1702.68
1012.75	1699.81
1012.91	1833.14
1013.07	1971.99
1013.24	1609.70
1013.40	1620.35
1013.56	1882.08
1013.72	1858.33
1013.89	1728.28
1014.05	1718.45
1014.21	2107.56
1014.37	2183.95
1014.54	1688.14
1014.70	1612.98
1014.86	1829.25
1015.02	1729.71
1015.19	1660.29
1015.35	1604.17
1015.51	1848.70
1015.67	1829.86
1015.84	1626.09
1016.00	1646.16
1016.16	2023.39
1016.32	1955.61
1016.49	1656.81
1016.65	1596.19
1016.81	1856.69
1016.97	1930.42
1017.14	1752.04
1017.30	1658.85
1017.46	1798.32
1017.62	1902.77
1017.78	1697.77
1017.95	1624.24
1018.11	1986.32
1018.27	2150.98
1018.43	1770.06
1018.59	1698.79
1018.76	1959.29
1018.92	2212.63
1019.08	1623.83
1019.24	1658.65
1019.40	2041.21
1019.57	1908.91
1019.73	1707.39
1019.89	1668.89
1020.05	1908.30
1020.21	2118.62
1020.38	1598.23
1020.54	1798.53
1020.70	1942.91
1020.86	1940.45
1021.02	1670.12
1021.18	1636.33
1021.35	1783.17
1021.51	1944.75
1021.67	1756.13
1021.83	1653.12
1021.99	1879.83
1022.15	1920.38
1022.32	1729.92
1022.48	1700.02
1022.64	2056.57
1022.80	2095.69
1022.96	1695.92
1023.12	1565.67
1023.29	1993.08
1023.45	1928.16
1023.61	1635.30
1023.77	1825.97
1023.93	1893.14
1024.09	1770.26
1024.25	1605.40
1024.42	1575.71
1024.58	1818.80
1024.74	1897.65
1024.90	1661.11
1025.06	1734.63
1025.22	1794.02
1025.38	2073.16
1025.54	1603.76
1025.71	1726.44
1025.87	1940.04
1026.03	1934.72
1026.19	1623.22
1026.35	1805.28
1026.51	1928.16
1026.67	1858.33
1026.83	1689.57
1026.99	1749.78
1027.16	1930.82
1027.32	2034.86
1027.48	1700.63
1027.64	1641.04
1027.80	1940.66
1027.96	1909.94
1028.12	1658.85
1028.28	1627.52
1028.44	1905.84
1028.60	2067.42
1028.77	1784.80
1028.93	1708.21
1029.09	1827.81
1029.25	1763.30
1029.41	1693.06
1029.57	1750.81
1029.73	1912.80
1029.89	2070.29
1030.05	1753.68
1030.21	1721.73
1030.37	2185.59
1030.53	1929.39
1030.69	1703.91
1030.85	1597.01
1031.02	1776.41
1031.18	1878.60
1031.34	1673.60
1031.50	1706.78
1031.66	1779.07
1031.82	2041.42
1031.98	1687.12
1032.14	1623.42
1032.30	1774.36
1032.46	1958.68
1032.62	1794.23
1032.78	1601.51
1032.94	1779.07
1033.10	1817.16
1033.26	1743.23
1033.42	1723.57
1033.58	2125.38
1033.74	1807.13
1033.90	1650.25
1034.06	1822.90
1034.22	2160.61
1034.38	2027.90
1034.54	1674.21
1034.70	1701.45
1034.86	2099.17
>>>>>End Processed Spectral Data<<<<<
