SpectraSuite Data File
++++++++++++++++++++++++++++++++++++
Date: Thu Mar 30 16:17:03 PDT 2017
User: UCSD _CER
Dark Spectrum Present: No
Reference Spectrum Present: No
Number of Sampled Component Spectra: 1
Spectrometers: USB4C00073
Integration Time (usec): 250000 (USB4C00073)
Spectra Averaged: 10 (USB4C00073)
Boxcar Smoothing: 0 (USB4C00073)
Correct for Electrical Dark: No (USB4C00073)
Strobe/Lamp Enabled: No (USB4C00073)
Correct for Detector Non-linearity: No (USB4C00073)
Correct for Stray Light: No (USB4C00073)
Number of Pixels in Processed Spectrum: 3648
>>>>>Begin Processed Spectral Data<<<<<
345.37	1273.22
345.58	1273.22
345.80	1273.22
346.01	1257.45
346.22	1277.11
346.43	1962.57
346.65	1765.96
346.86	2125.79
347.07	2096.92
347.28	1796.89
347.50	1776.00
347.71	1912.60
347.92	1716.40
348.13	1783.17
348.35	1697.77
348.56	1898.47
348.77	1769.45
348.98	1806.31
349.20	1663.16
349.41	1927.75
349.62	1962.98
349.83	1840.10
350.05	1722.34
350.26	1948.64
350.47	2055.55
350.68	1774.16
350.90	1719.68
351.11	2075.62
351.32	2044.08
351.53	1810.81
351.75	1733.81
351.96	1953.97
352.17	1904.61
352.38	1854.03
352.60	1871.43
352.81	1930.21
353.02	2108.79
353.23	1770.06
353.44	1801.60
353.66	1848.70
353.87	1861.19
354.08	1882.29
354.29	1792.18
354.51	1792.79
354.72	1894.17
354.93	1760.43
355.14	1675.24
355.35	1706.98
355.57	2001.28
355.78	1786.44
355.99	1847.88
356.20	1879.42
356.42	1856.89
356.63	1862.01
356.84	1788.29
357.05	2011.31
357.26	2153.23
357.48	1881.26
357.69	1816.14
357.90	1952.33
358.11	1831.29
358.32	1793.41
358.54	1847.06
358.75	1855.66
358.96	1996.16
359.17	1780.91
359.38	1796.68
359.60	1968.92
359.81	1899.90
360.02	1809.38
360.23	1737.09
360.44	1806.51
360.66	2013.97
360.87	1742.62
361.08	1749.37
361.29	1955.40
361.50	1932.26
361.72	1778.05
361.93	1831.70
362.14	1925.09
362.35	1727.67
362.56	1879.83
362.77	1705.34
362.99	1973.63
363.20	1929.60
363.41	1841.33
363.62	1709.03
363.83	1958.27
364.05	2002.50
364.26	1696.54
364.47	1728.90
364.68	2004.55
364.89	1787.47
365.10	1717.22
365.32	1802.21
365.53	1800.98
365.74	1833.34
365.95	1788.49
366.16	1685.48
366.37	1909.12
366.59	1859.76
366.80	1796.48
367.01	1674.21
367.22	2150.98
367.43	2242.73
367.64	1810.61
367.86	1780.09
368.07	1978.95
368.28	2034.25
368.49	1730.33
368.70	1810.81
368.91	1865.49
369.12	1896.83
369.34	1691.83
369.55	1709.23
369.76	1886.18
369.97	1851.36
370.18	1712.10
370.39	1740.77
370.60	1736.88
370.82	1774.56
371.03	1825.76
371.24	1744.46
371.45	2000.25
371.66	1975.47
371.87	1785.21
372.08	1726.64
372.30	1748.97
372.51	2010.08
372.72	1880.04
372.93	1756.75
373.14	2079.10
373.35	1804.06
373.56	1744.25
373.78	1803.24
373.99	2031.18
374.20	2264.44
374.41	1796.68
374.62	1819.21
374.83	2079.71
375.04	1865.29
375.25	1813.48
375.47	1767.81
375.68	1842.15
375.89	1980.39
376.10	1807.33
376.31	1876.96
376.52	1941.68
376.73	1943.52
376.94	1815.52
377.15	1784.80
377.37	1907.68
377.58	1887.82
377.79	1665.41
378.00	1714.35
378.21	1935.54
378.42	1965.03
378.63	1829.04
378.84	1856.89
379.05	2023.19
379.27	1893.55
379.48	1913.01
379.69	1737.09
379.90	2035.27
380.11	1672.17
380.32	1804.87
380.53	1897.44
380.74	2060.46
380.95	1921.20
381.16	1806.31
381.37	1770.47
381.59	2080.94
381.80	2029.13
382.01	1726.23
382.22	1704.52
382.43	1950.28
382.64	1887.41
382.85	1726.85
383.06	1822.28
383.27	1990.22
383.48	1868.57
383.69	1807.54
383.91	1739.54
384.12	1987.96
384.33	1953.56
384.54	1806.92
384.75	1691.83
384.96	2258.09
385.17	1991.04
385.38	1756.95
385.59	1746.30
385.80	1995.75
386.01	2083.40
386.22	1865.29
386.43	1777.02
386.64	2210.37
386.86	1873.28
387.07	1908.50
387.28	1686.91
387.49	1860.99
387.70	2031.58
387.91	1850.95
388.12	1737.09
388.33	1963.80
388.54	1832.73
388.75	1774.56
388.96	1842.15
389.17	1813.48
389.38	1862.42
389.59	1851.98
389.80	1825.15
390.01	1861.60
390.22	1851.36
390.43	1881.88
390.64	1690.80
390.86	1935.33
391.07	2008.44
391.28	1793.00
391.49	1842.56
391.70	1744.05
391.91	1796.27
392.12	1802.62
392.33	1799.96
392.54	1884.13
392.75	1868.57
392.96	1881.67
393.17	1742.82
393.38	2188.05
393.59	2028.31
393.80	1717.22
394.01	1792.59
394.22	1883.52
394.43	2119.44
394.64	1732.58
394.85	1892.94
395.06	1889.66
395.27	1925.30
395.48	1799.55
395.69	1725.62
395.90	1895.60
396.11	1873.48
396.32	1731.97
396.53	1899.29
396.74	1867.54
396.95	2009.88
397.16	1767.40
397.37	1679.13
397.58	2025.85
397.79	1897.44
398.00	1846.24
398.21	1803.03
398.42	1928.37
398.63	2166.55
398.84	1798.53
399.05	1776.61
399.26	2045.92
399.47	1939.22
399.68	1610.73
399.89	1746.71
400.10	1757.36
400.31	1871.64
400.52	1815.93
400.73	1790.13
400.94	1720.29
401.15	1908.30
401.36	1771.90
401.57	1856.69
401.78	2029.95
401.99	1995.34
402.20	1739.14
402.41	1925.50
402.62	2068.86
402.83	1854.85
403.04	1746.92
403.25	1923.86
403.46	1895.40
403.67	2077.05
403.88	1791.77
404.09	1780.71
404.30	1830.47
404.51	1809.79
404.72	1730.53
404.93	1877.78
405.14	1789.92
405.35	1878.19
405.56	1811.84
405.77	1765.76
405.98	1921.40
406.19	1903.18
406.40	1731.97
406.61	1771.08
406.82	1813.48
407.03	2166.34
407.24	1719.47
407.45	1810.20
407.66	1909.12
407.87	1990.83
408.08	1853.82
408.29	1865.90
408.49	1981.00
408.70	1900.72
408.91	1819.62
409.12	1896.83
409.33	1800.16
409.54	2038.34
409.75	1769.85
409.96	1793.00
410.17	2007.83
410.38	1883.72
410.59	1743.85
410.80	1878.19
411.01	1877.58
411.22	1874.71
411.43	1854.44
411.64	1731.76
411.85	1801.60
412.06	1807.13
412.27	1642.88
412.47	1767.19
412.68	1899.70
412.89	1939.02
413.10	1794.64
413.31	1692.24
413.52	2131.73
413.73	2139.51
413.94	1741.18
414.15	1907.48
414.36	1806.10
414.57	1780.71
414.78	1682.41
414.99	1733.61
415.19	1968.92
415.40	1959.29
415.61	1961.75
415.82	1845.42
416.03	2019.91
416.24	1976.70
416.45	1796.27
416.66	1744.87
416.87	1731.56
417.08	1981.20
417.29	1747.33
417.50	1813.89
417.70	1964.82
417.91	1929.19
418.12	1813.89
418.33	1815.11
418.54	1955.20
418.75	2060.26
418.96	1961.34
419.17	1900.52
419.38	2151.19
419.59	2077.46
419.79	1934.51
420.00	1867.95
420.21	2303.56
420.42	1974.04
420.63	1812.66
420.84	1888.84
421.05	1898.26
421.26	1919.36
421.47	1730.12
421.67	2043.67
421.88	1783.78
422.09	1747.94
422.30	1953.56
422.51	1801.19
422.72	2107.36
422.93	1964.41
423.14	1803.85
423.35	1688.14
423.55	1708.62
423.76	1795.25
423.97	1817.78
424.18	1688.96
424.39	1859.15
424.60	2013.56
424.81	1792.79
425.02	1889.25
425.22	1877.37
425.43	1886.79
425.64	1985.30
425.85	1881.26
426.06	2212.42
426.27	2008.24
426.48	1904.41
426.68	1887.20
426.89	2009.88
427.10	2129.48
427.31	1822.49
427.52	1726.23
427.73	1970.76
427.94	1959.09
428.14	1870.61
428.35	1791.56
428.56	2054.93
428.77	2016.84
428.98	1869.18
429.19	1810.61
429.40	1821.26
429.60	1880.85
429.81	1913.42
430.02	1846.24
430.23	1887.20
430.44	1998.20
430.65	1776.41
430.85	1835.80
431.06	1958.27
431.27	1691.01
431.48	1787.06
431.69	1827.61
431.90	1876.14
432.10	1896.21
432.31	1828.43
432.52	1735.65
432.73	2170.85
432.94	2068.86
433.15	1942.50
433.35	1789.31
433.56	2051.45
433.77	1886.79
433.98	1914.44
434.19	1811.63
434.40	1880.85
434.60	1870.82
434.81	1793.61
435.02	1846.45
435.23	1910.75
435.44	1838.67
435.64	1698.59
435.85	1730.94
436.06	1862.22
436.27	1831.70
436.48	1714.56
436.68	1735.65
436.89	2085.45
437.10	1978.34
437.31	1787.67
437.52	1873.89
437.73	1919.56
437.93	1918.95
438.14	1859.56
438.35	1671.55
438.56	1829.86
438.77	1860.37
438.97	1940.25
439.18	1738.73
439.39	2024.01
439.60	1718.25
439.80	1688.76
440.01	1799.14
440.22	1841.53
440.43	1949.67
440.64	1713.54
440.84	1825.97
441.05	1750.81
441.26	2249.49
441.47	1839.28
441.68	1738.93
441.88	1847.27
442.09	1858.33
442.30	1932.67
442.51	1842.56
442.71	1832.32
442.92	1926.32
443.13	1742.41
443.34	1745.89
443.55	1782.76
443.75	1964.41
443.96	1755.72
444.17	1731.15
444.38	2030.77
444.58	1791.36
444.79	1868.57
445.00	1813.89
445.21	1864.88
445.41	1865.70
445.62	1604.79
445.83	1875.94
446.04	1900.51
446.24	1746.30
446.45	1631.41
446.66	1768.83
446.87	1947.62
447.07	1819.83
447.28	1959.70
447.49	1799.75
447.70	2006.19
447.90	2010.08
448.11	1793.00
448.32	1883.93
448.53	2083.81
448.73	2059.44
448.94	1784.60
449.15	1924.07
449.36	1893.96
449.56	1937.99
449.77	1791.56
449.98	1702.07
450.19	1854.64
450.39	1864.27
450.60	1871.84
450.81	1852.18
451.02	1947.21
451.22	2087.70
451.43	1740.16
451.64	1793.41
451.84	1840.30
452.05	2049.81
452.26	1840.51
452.47	1830.27
452.67	1839.28
452.88	2067.83
453.09	1772.11
453.30	1703.09
453.50	2008.24
453.71	2082.78
453.92	1778.87
454.12	1885.77
454.33	1823.51
454.54	1847.47
454.75	1736.68
454.95	1741.18
455.16	1891.30
455.37	1952.53
455.57	1815.52
455.78	1818.19
455.99	1865.49
456.19	1899.29
456.40	1710.26
456.61	1829.66
456.82	1887.00
457.02	1964.82
457.23	1835.59
457.44	1939.02
457.64	1816.96
457.85	1903.18
458.06	1769.45
458.26	1945.78
458.47	1857.92
458.68	1989.40
458.89	1726.64
459.09	1917.92
459.30	2157.54
459.51	1916.28
459.71	1667.25
459.92	1779.28
460.13	1968.30
460.33	2164.09
460.54	1770.26
460.75	1786.65
460.95	1741.59
461.16	1931.85
461.37	1777.64
461.57	1844.20
461.78	1882.08
461.99	1752.04
462.19	2010.29
462.40	1757.16
462.61	2323.83
462.81	2039.57
463.02	1753.88
463.23	1794.64
463.43	1975.06
463.64	1832.11
463.85	2717.45
464.05	1767.60
464.26	2267.10
464.47	2057.39
464.67	1958.27
464.88	1845.22
465.09	1787.47
465.29	1872.66
465.50	1927.96
465.71	1805.28
465.91	1802.01
466.12	1855.05
466.33	1856.07
466.53	1773.34
466.74	2073.77
466.94	1856.28
467.15	1810.40
467.36	1987.76
467.56	1753.06
467.77	1945.16
467.98	1820.85
468.18	1781.94
468.39	1842.76
468.60	2146.68
468.80	1839.90
469.01	1736.88
469.21	1931.44
469.42	1998.41
469.63	1822.08
469.83	1732.38
470.04	1965.85
470.25	2095.48
470.45	1868.98
470.66	1773.54
470.86	1901.54
471.07	1840.92
471.28	1869.80
471.48	1920.79
471.69	1913.83
471.90	2337.35
472.10	1758.39
472.31	1806.92
472.51	1778.25
472.72	1817.98
472.93	1713.54
473.13	1913.21
473.34	1897.03
473.54	1859.56
473.75	1827.20
473.96	1956.83
474.16	1868.57
474.37	1968.30
474.57	1842.35
474.78	1756.95
474.99	1932.46
475.19	1903.79
475.40	1775.79
475.60	1675.85
475.81	2065.79
476.02	1864.06
476.22	1815.52
476.43	1915.26
476.63	1823.72
476.84	2022.37
477.05	1665.82
477.25	1774.56
477.46	2257.89
477.66	1889.87
477.87	1700.43
478.08	1814.09
478.28	1988.17
478.49	1853.62
478.69	1747.74
478.90	1808.15
479.10	1960.52
479.31	2089.95
479.52	1867.54
479.72	1915.06
479.93	1945.78
480.13	1830.27
480.34	1769.24
480.54	1883.93
480.75	1770.47
480.96	2038.75
481.16	1791.56
481.37	1888.43
481.57	1994.52
481.78	1947.00
481.98	1984.48
482.19	1849.32
482.40	2143.81
482.60	1997.18
482.81	1898.06
483.01	1765.96
483.22	1989.40
483.42	1979.36
483.63	1895.40
483.83	1867.54
484.04	1837.03
484.24	1976.09
484.45	1859.35
484.66	1706.78
484.86	1948.03
485.07	1806.92
485.27	1840.10
485.48	1777.64
485.68	2067.42
485.89	1794.43
486.09	1879.83
486.30	1754.29
486.50	1913.62
486.71	1876.14
486.91	1841.53
487.12	1877.37
487.33	2100.60
487.53	2134.19
487.74	1940.45
487.94	1806.51
488.15	1902.77
488.35	1957.86
488.56	1799.14
488.76	1796.68
488.97	1856.28
489.17	1935.33
489.38	1792.18
489.58	1793.61
489.79	1937.17
489.99	1928.57
490.20	1830.06
490.40	1944.75
490.61	1948.23
490.81	1823.10
491.02	1827.61
491.22	1869.80
491.43	1990.83
491.63	1892.32
491.84	1948.44
492.04	1710.26
492.25	1981.20
492.45	1849.32
492.66	1774.77
492.86	1705.75
493.07	1864.06
493.27	2147.30
493.48	1687.32
493.68	1827.40
493.89	1850.34
494.09	1964.62
494.30	1788.90
494.50	2051.66
494.71	1956.42
494.91	1718.66
495.12	1823.51
495.32	1879.22
495.53	1892.53
495.73	1695.10
495.94	1816.55
496.14	1658.45
496.35	2096.71
496.55	1838.26
496.76	1784.19
496.96	1853.00
497.17	1877.17
497.37	1914.85
497.58	1772.11
497.78	1727.05
497.98	1862.22
498.19	1860.17
498.39	1811.84
498.60	1878.81
498.80	1683.64
499.01	1983.25
499.21	1745.28
499.42	1855.25
499.62	1853.21
499.83	2170.64
500.03	1698.79
500.24	1915.26
500.44	2049.81
500.64	2002.09
500.85	1796.68
501.05	1925.30
501.26	1705.96
501.46	2054.93
501.67	1771.08
501.87	1733.20
502.08	1792.59
502.28	1863.04
502.48	1901.95
502.69	1947.00
502.89	1710.46
503.10	1795.45
503.30	1842.56
503.51	1856.28
503.71	1760.23
503.92	1967.28
504.12	1869.59
504.32	1807.13
504.53	1981.41
504.73	1984.48
504.94	1931.23
505.14	2029.13
505.35	1960.73
505.55	1925.50
505.75	1848.50
505.96	1955.40
506.16	2144.22
506.37	1821.67
506.57	1773.95
506.78	1839.69
506.98	2012.54
507.18	1736.06
507.39	1729.30
507.59	1828.63
507.80	1759.82
508.00	1875.32
508.20	1971.58
508.41	1855.87
508.61	2033.43
508.82	2001.28
509.02	1917.31
509.22	1751.01
509.43	1769.85
509.63	1802.01
509.84	1826.99
510.04	1713.95
510.24	2063.94
510.45	1985.51
510.65	1726.85
510.86	1862.83
511.06	1748.76
511.26	1959.09
511.47	1928.78
511.67	1770.88
511.88	1952.12
512.08	2016.43
512.28	1744.05
512.49	1881.67
512.69	1909.32
512.90	1902.97
513.10	1785.21
513.30	1851.98
513.51	1913.01
513.71	2063.94
513.91	1874.92
514.12	1864.68
514.32	1951.71
514.53	1781.73
514.73	1870.41
514.93	1818.39
515.14	1920.38
515.34	2031.58
515.54	1847.47
515.75	1911.78
515.95	1971.78
516.15	2032.20
516.36	1938.61
516.56	1908.30
516.77	1647.80
516.97	1961.34
517.17	1830.27
517.38	1915.87
517.58	2086.68
517.78	1841.74
517.99	1881.47
518.19	1859.56
518.39	2070.70
518.60	1858.53
518.80	1773.34
519.00	1945.37
519.21	1893.96
519.41	2122.51
519.61	1779.68
519.82	1906.66
520.02	1923.86
520.22	1918.13
520.43	1854.23
520.63	1830.88
520.83	1831.70
521.04	1701.25
521.24	1922.02
521.44	1830.68
521.65	1830.68
521.85	1979.77
522.05	1783.78
522.26	1823.31
522.46	2151.39
522.66	1982.02
522.87	1823.92
523.07	1984.69
523.27	1846.24
523.48	2057.18
523.68	1869.59
523.88	1869.59
524.09	2048.38
524.29	1924.48
524.49	1704.32
524.70	1978.75
524.90	2078.48
525.10	1965.23
525.31	1737.70
525.51	1755.31
525.71	1990.01
525.91	1975.88
526.12	1790.95
526.32	1734.42
526.52	1853.21
526.73	1800.78
526.93	1886.18
527.13	1701.04
527.34	1848.09
527.54	1877.78
527.74	1814.50
527.94	1738.32
528.15	1771.90
528.35	1896.42
528.55	1929.60
528.76	1916.90
528.96	1686.30
529.16	2023.19
529.36	1983.46
529.57	1760.02
529.77	2049.61
529.97	1795.25
530.18	1928.98
530.38	1815.32
530.58	1941.88
530.78	1916.28
530.99	1822.90
531.19	1946.39
531.39	1823.10
531.60	1883.93
531.80	1837.85
532.00	1992.26
532.20	1927.14
532.41	1787.88
532.61	1800.16
532.81	1818.19
533.01	1834.16
533.22	1923.66
533.42	1961.75
533.62	1684.86
533.82	2032.81
534.03	1859.76
534.23	1891.91
534.43	1774.36
534.63	1818.80
534.84	1912.19
535.04	1889.87
535.24	1873.28
535.44	2203.61
535.65	1846.65
535.85	1816.55
536.05	1801.19
536.25	1907.89
536.46	1773.13
536.66	1986.53
536.86	1879.42
537.06	1978.13
537.27	2052.68
537.47	1944.34
537.67	1806.92
537.87	2066.61
538.08	1884.54
538.28	1760.84
538.48	1770.26
538.68	1888.23
538.88	1978.13
539.09	1748.76
539.29	1853.82
539.49	2012.95
539.69	1907.07
539.90	1909.94
540.10	1770.26
540.30	2071.52
540.50	1843.17
540.70	1743.85
540.91	1842.15
541.11	2021.75
541.31	2088.31
541.51	1890.68
541.72	1891.50
541.92	1928.16
542.12	1807.33
542.32	1830.68
542.52	1826.79
542.73	1799.35
542.93	1943.11
543.13	1829.86
543.33	1941.06
543.53	1992.67
543.74	1956.42
543.94	1810.81
544.14	1932.46
544.34	2049.81
544.54	1886.38
544.75	1958.06
544.95	2046.13
545.15	1999.23
545.35	2116.78
545.55	1959.50
545.75	1799.14
545.96	2203.00
546.16	1815.32
546.36	1855.46
546.56	1868.36
546.76	2034.86
546.97	2124.56
547.17	1848.29
547.37	1932.46
547.57	1823.72
547.77	1981.20
547.97	1906.86
548.18	1900.11
548.38	1885.16
548.58	2070.29
548.78	1809.99
548.98	1906.45
549.18	2055.34
549.39	2150.37
549.59	1957.45
549.79	1914.44
549.99	2108.38
550.19	2036.50
550.39	1959.29
550.60	1868.98
550.80	1943.93
551.00	1990.01
551.20	1830.27
551.40	1828.84
551.60	1951.71
551.80	1896.21
552.01	1953.35
552.21	1861.19
552.41	1902.97
552.61	2123.13
552.81	1900.11
553.01	1770.26
553.21	1917.10
553.42	1797.30
553.62	1800.57
553.82	1804.06
554.02	2084.83
554.22	2007.21
554.42	1805.28
554.62	1925.09
554.83	2113.30
555.03	2089.95
555.23	1888.64
555.43	2124.36
555.63	1962.57
555.83	1945.37
556.03	1914.85
556.23	1746.51
556.44	1952.33
556.64	2071.93
556.84	1643.49
557.04	1869.80
557.24	1962.16
557.44	1941.06
557.64	1878.40
557.84	1755.72
558.04	1854.23
558.25	2004.35
558.45	1787.67
558.65	1870.41
558.85	1919.56
559.05	1714.56
559.25	1827.81
559.45	1970.15
559.65	2173.92
559.85	2540.51
560.05	1886.38
560.26	1940.25
560.46	1938.81
560.66	1864.27
560.86	1843.99
561.06	1787.88
561.26	2078.69
561.46	1997.18
561.66	1837.44
561.86	1946.39
562.06	1798.12
562.26	1894.58
562.47	1907.89
562.67	1765.96
562.87	1971.17
563.07	1733.81
563.27	1861.60
563.47	1891.71
563.67	1857.10
563.87	1986.53
564.07	1848.50
564.27	1868.57
564.47	1909.73
564.67	1952.74
564.87	1805.28
565.08	1924.89
565.28	1825.97
565.48	1956.22
565.68	1924.07
565.88	1934.10
566.08	2158.35
566.28	1893.55
566.48	1757.77
566.68	1859.97
566.88	1839.49
567.08	2012.95
567.28	1853.41
567.48	1862.01
567.68	1955.61
567.88	1770.26
568.08	1901.54
568.28	2002.91
568.48	1876.35
568.68	2059.85
568.89	1902.15
569.09	1720.91
569.29	1958.68
569.49	1994.93
569.69	1769.24
569.89	1782.55
570.09	1685.48
570.29	1819.01
570.49	1739.34
570.69	1780.91
570.89	1983.46
571.09	2166.75
571.29	1721.73
571.49	2010.70
571.69	1949.87
571.89	1969.94
572.09	1812.25
572.29	1832.52
572.49	1984.89
572.69	1973.83
572.89	1864.88
573.09	1637.56
573.29	1876.35
573.49	1924.68
573.69	1884.95
573.89	1990.22
574.09	1847.06
574.29	2031.99
574.49	1821.46
574.69	1803.65
574.89	1758.59
575.09	1813.89
575.29	1754.09
575.49	1882.29
575.69	1928.37
575.89	1760.64
576.09	1876.76
576.29	1887.00
576.49	1751.63
576.69	1862.42
576.89	1805.69
577.09	1847.06
577.29	1722.34
577.49	2095.89
577.69	1798.53
577.89	1961.75
578.09	1875.53
578.29	1703.09
578.49	1886.59
578.69	1780.91
578.89	1999.43
579.09	1917.72
579.29	1752.04
579.49	1974.86
579.69	1821.05
579.89	2126.82
580.09	1694.28
580.29	1714.76
580.49	1815.93
580.69	1770.26
580.89	1847.47
581.09	1836.41
581.29	1826.99
581.49	1867.75
581.69	1755.31
581.89	1773.75
582.09	1815.73
582.28	1804.87
582.48	1935.74
582.68	2030.97
582.88	2071.11
583.08	1876.96
583.28	1847.27
583.48	1845.42
583.68	1799.55
583.88	1891.91
584.08	1888.64
584.28	1862.01
584.48	2149.34
584.68	1938.40
584.88	1824.54
585.08	2011.11
585.28	1983.87
585.48	2035.27
585.68	1922.84
585.87	1957.65
586.07	1943.73
586.27	1887.82
586.47	1963.18
586.67	1873.07
586.87	1905.02
587.07	1871.02
587.27	1781.94
587.47	1881.88
587.67	2068.24
587.87	2214.26
588.07	1947.00
588.27	1857.30
588.46	2000.66
588.66	2051.45
588.86	1877.37
589.06	1967.28
589.26	1974.86
589.46	1985.92
589.66	1767.81
589.86	1786.65
590.06	1839.28
590.26	1943.73
590.46	1849.73
590.66	1935.54
590.85	1832.32
591.05	1958.68
591.25	1790.74
591.45	1852.39
591.65	1997.38
591.85	1941.68
592.05	1840.92
592.25	1956.83
592.45	2042.03
592.64	1893.76
592.84	1906.66
593.04	1788.90
593.24	2235.97
593.44	1854.03
593.64	1920.38
593.84	1927.14
594.04	1853.21
594.24	2096.71
594.43	1816.34
594.63	1894.17
594.83	2034.86
595.03	1972.40
595.23	1800.98
595.43	1730.12
595.63	1806.10
595.83	1991.24
596.02	1662.13
596.22	1859.35
596.42	1908.91
596.62	1901.13
596.82	1822.08
597.02	1964.82
597.22	2105.52
597.41	1920.38
597.61	1795.45
597.81	1958.06
598.01	1973.63
598.21	1849.32
598.41	1819.21
598.61	1747.94
598.80	1890.48
599.00	1908.09
599.20	2027.28
599.40	1806.92
599.60	1843.17
599.80	2012.13
599.99	2020.32
600.19	1847.27
600.39	1890.07
600.59	1950.49
600.79	1903.18
600.99	1893.55
601.19	2097.32
601.38	2126.20
601.58	1910.14
601.78	1649.43
601.98	1984.89
602.18	2041.62
602.37	2212.01
602.57	1990.63
602.77	2137.06
602.97	2064.56
603.17	2171.87
603.37	2071.32
603.56	2140.54
603.76	2096.51
603.96	2021.35
604.16	2040.39
604.36	2145.66
604.56	2074.39
604.75	1836.00
604.95	1912.19
605.15	2099.78
605.35	2019.09
605.55	1868.57
605.74	1790.13
605.94	2047.56
606.14	1917.51
606.34	1916.28
606.54	1878.60
606.73	1848.70
606.93	2003.32
607.13	1798.32
607.33	1904.00
607.53	2092.00
607.72	2043.26
607.92	1931.44
608.12	1992.88
608.32	1876.14
608.51	1990.01
608.71	1806.92
608.91	1923.25
609.11	1984.07
609.31	1858.12
609.50	1942.50
609.70	2080.94
609.90	2032.61
610.10	2008.03
610.29	1874.92
610.49	1789.11
610.69	1975.88
610.89	1933.90
611.09	1905.84
611.28	2015.61
611.48	2015.41
611.68	1851.77
611.88	1834.98
612.07	1803.65
612.27	1983.66
612.47	1830.68
612.67	1904.82
612.86	1991.04
613.06	1893.96
613.26	1700.02
613.46	1839.49
613.65	1891.71
613.85	2245.19
614.05	2006.39
614.25	1944.96
614.44	1874.30
614.64	1880.65
614.84	1832.93
615.04	1811.22
615.23	1843.79
615.43	1944.14
615.63	1982.64
615.83	1788.70
616.02	1736.47
616.22	1959.50
616.42	1775.79
616.62	1786.44
616.81	1867.95
617.01	1933.08
617.21	1903.38
617.41	1782.55
617.60	1866.93
617.80	1978.54
618.00	1973.01
618.19	1917.31
618.39	1922.43
618.59	1955.40
618.79	1887.82
618.98	1706.16
619.18	1867.13
619.38	2145.25
619.57	1874.30
619.77	1842.76
619.97	1853.62
620.17	1846.86
620.36	1754.70
620.56	1980.18
620.76	1763.71
620.95	1769.65
621.15	1836.82
621.35	1788.08
621.54	1818.19
621.74	1915.47
621.94	1782.14
622.14	1764.33
622.33	1733.81
622.53	1874.51
622.73	1851.98
622.92	1715.99
623.12	1898.47
623.32	2143.20
623.51	1951.71
623.71	1735.45
623.91	1977.11
624.10	1774.56
624.30	1876.35
624.50	1747.74
624.69	1762.28
624.89	2360.28
625.09	1829.86
625.29	1668.28
625.48	1707.80
625.68	1912.60
625.88	2011.11
626.07	1890.68
626.27	1772.52
626.47	1847.68
626.66	1720.91
626.86	1859.35
627.06	1845.83
627.25	1910.96
627.45	2090.77
627.64	1870.61
627.84	1998.82
628.04	1796.07
628.23	2155.69
628.43	1779.89
628.63	1791.15
628.82	1825.97
629.02	2111.46
629.22	1977.31
629.41	2029.54
629.61	1923.86
629.81	2154.26
630.00	1799.55
630.20	1749.99
630.40	1895.19
630.59	1944.75
630.79	1880.44
630.98	1861.81
631.18	1889.25
631.38	1874.51
631.57	1998.00
631.77	1735.24
631.97	1938.81
632.16	1923.66
632.36	1889.46
632.56	1884.54
632.75	1916.49
632.95	1994.72
633.14	1766.17
633.34	2024.01
633.54	1686.50
633.73	1848.50
633.93	1811.84
634.12	1700.84
634.32	2222.66
634.52	1866.52
634.71	1747.53
634.91	1929.60
635.11	1760.64
635.30	1804.67
635.50	1898.06
635.69	1753.47
635.89	2122.51
636.09	2006.60
636.28	1761.05
636.48	1768.42
636.67	1955.61
636.87	1968.51
637.07	1966.05
637.26	1794.23
637.46	1900.11
637.65	2021.14
637.85	1889.66
638.04	1789.11
638.24	1840.51
638.44	1947.62
638.63	1859.35
638.83	1857.71
639.02	1928.16
639.22	1968.10
639.42	1824.54
639.61	1868.77
639.81	1886.59
640.00	1858.12
640.20	1944.55
640.39	1920.59
640.59	2137.26
640.79	2039.78
640.98	1916.90
641.18	1871.23
641.37	1893.14
641.57	1847.06
641.76	1898.06
641.96	1693.67
642.15	1896.62
642.35	1825.56
642.55	1883.11
642.74	1750.81
642.94	1961.75
643.13	2049.40
643.33	1844.61
643.52	1793.00
643.72	1811.22
643.91	1882.08
644.11	1801.39
644.31	1785.83
644.50	1795.25
644.70	2042.64
644.89	1849.32
645.09	1923.66
645.28	1900.52
645.48	1924.27
645.67	1768.83
645.87	1677.70
646.06	1840.30
646.26	1928.78
646.45	1641.04
646.65	1644.93
646.84	2118.21
647.04	1837.23
647.24	1725.21
647.43	1860.37
647.63	1909.94
647.82	2063.74
648.02	1727.67
648.21	1783.17
648.41	2060.67
648.60	1855.87
648.80	1981.00
648.99	1880.04
649.19	1804.87
649.38	1717.84
649.58	1878.81
649.77	1882.90
649.97	2001.68
650.16	1925.71
650.36	1650.05
650.55	1957.04
650.75	1910.55
650.94	2086.06
651.14	1870.61
651.33	1886.79
651.53	2091.59
651.72	1820.23
651.92	1856.28
652.11	1684.86
652.31	1924.68
652.50	1934.72
652.70	1883.52
652.89	1737.29
653.09	2066.81
653.28	1867.54
653.48	1651.69
653.67	1662.34
653.87	2266.28
654.06	1897.65
654.25	2039.78
654.45	1782.35
654.64	1843.99
654.84	1882.29
655.03	1636.94
655.23	1964.62
655.42	1965.03
655.62	2077.25
655.81	1875.94
656.01	1749.99
656.20	1984.07
656.40	2067.22
656.59	1875.12
656.79	2002.71
656.98	1928.98
657.17	2009.06
657.37	1853.41
657.56	1812.04
657.76	1909.12
657.95	2015.61
658.15	1558.09
658.34	1876.14
658.54	1902.15
658.73	1768.42
658.92	1822.49
659.12	1891.09
659.31	1941.68
659.51	1761.87
659.70	1908.50
659.90	1827.61
660.09	2016.02
660.29	1882.49
660.48	1787.06
660.67	2002.09
660.87	1806.10
661.06	1929.60
661.26	1938.40
661.45	1928.37
661.65	1939.84
661.84	1819.01
662.03	1815.73
662.23	1809.99
662.42	2138.28
662.62	1754.70
662.81	1780.30
663.00	1803.85
663.20	1891.71
663.39	1911.16
663.59	1940.04
663.78	1817.98
663.97	1815.73
664.17	1958.68
664.36	1704.52
664.56	1781.12
664.75	1988.99
664.94	1951.30
665.14	1873.48
665.33	1801.60
665.53	1886.18
665.72	1869.18
665.91	1951.51
666.11	1851.36
666.30	1896.62
666.50	1860.17
666.69	1894.58
666.88	1829.86
667.08	1884.75
667.27	1832.52
667.47	1852.59
667.66	1812.04
667.85	1969.74
668.05	1867.13
668.24	1795.66
668.43	1980.39
668.63	1823.72
668.82	1996.56
669.02	1943.52
669.21	1855.46
669.40	1730.33
669.60	2119.44
669.79	1720.70
669.98	2316.87
670.18	1782.35
670.37	1758.80
670.56	1819.01
670.76	1866.52
670.95	1862.01
671.15	1984.28
671.34	1925.71
671.53	1864.47
671.73	1837.23
671.92	1782.76
672.11	1747.12
672.31	1820.85
672.50	1935.94
672.69	1719.06
672.89	1628.75
673.08	1813.27
673.27	1988.17
673.47	1888.64
673.66	1905.23
673.85	1763.51
674.05	1914.03
674.24	1905.23
674.43	1811.63
674.63	2016.84
674.82	2244.37
675.01	1727.46
675.21	2026.26
675.40	1909.73
675.59	1903.18
675.79	2119.24
675.98	1842.97
676.17	1991.04
676.37	1940.66
676.56	1846.04
676.75	1888.84
676.95	1856.28
677.14	1878.40
677.33	2006.80
677.52	1729.71
677.72	1826.38
677.91	1908.50
678.10	1734.42
678.30	1759.21
678.49	1704.32
678.68	2164.70
678.88	1693.87
679.07	1955.20
679.26	1809.59
679.45	2124.56
679.65	2046.13
679.84	1665.41
680.03	1685.07
680.23	1855.25
680.42	2193.37
680.61	1731.15
680.81	1808.15
681.00	1884.34
681.19	1943.73
681.38	1939.43
681.58	1933.08
681.77	1831.70
681.96	1961.34
682.15	1812.04
682.35	1885.56
682.54	1921.40
682.73	1750.81
682.93	1789.52
683.12	1776.61
683.31	1970.56
683.50	2246.62
683.70	1789.52
683.89	1875.32
684.08	1766.58
684.27	2014.18
684.47	1705.34
684.66	1862.22
684.85	2111.87
685.04	2018.48
685.24	1775.79
685.43	1855.46
685.62	1679.33
685.81	1918.95
686.01	1877.17
686.20	1804.67
686.39	1755.93
686.58	2190.71
686.78	1927.34
686.97	1936.97
687.16	2037.11
687.35	1956.42
687.55	1861.60
687.74	1868.36
687.93	1782.14
688.12	1892.94
688.32	1879.42
688.51	1727.67
688.70	1952.94
688.89	1758.80
689.08	1712.72
689.28	1776.41
689.47	1885.56
689.66	1899.08
689.85	1933.08
690.05	1788.70
690.24	1784.40
690.43	1900.31
690.62	1896.01
690.81	1818.19
691.01	1881.06
691.20	1840.51
691.39	1758.59
691.58	1896.42
691.77	2117.39
691.97	1867.54
692.16	1897.65
692.35	1849.32
692.54	1789.31
692.73	1947.82
692.93	1885.77
693.12	1877.58
693.31	1955.40
693.50	1917.72
693.69	1978.54
693.89	1850.95
694.08	2044.69
694.27	2024.83
694.46	1783.99
694.65	1881.67
694.85	1931.23
695.04	1961.13
695.23	1858.94
695.42	2048.99
695.61	2104.90
695.80	2205.46
696.00	2357.62
696.19	2372.37
696.38	2080.53
696.57	2172.89
696.76	2127.84
696.95	2023.80
697.15	2214.88
697.34	2169.21
697.53	1929.19
697.72	1958.27
697.91	1899.29
698.10	2117.60
698.30	1806.72
698.49	1859.76
698.68	1919.97
698.87	1870.82
699.06	1788.29
699.25	1841.53
699.45	2007.21
699.64	1894.78
699.83	1972.19
700.02	1784.19
700.21	1962.98
700.40	1833.75
700.59	1851.98
700.79	1835.18
700.98	1941.47
701.17	1798.32
701.36	1792.38
701.55	1805.69
701.74	2021.35
701.93	1732.99
702.12	1871.64
702.32	1823.31
702.51	2049.20
702.70	2005.99
702.89	1915.06
703.08	1834.57
703.27	2057.18
703.46	1975.88
703.65	1869.59
703.85	1753.88
704.04	1798.53
704.23	2020.73
704.42	1774.16
704.61	1817.16
704.80	2060.46
704.99	1816.75
705.18	1900.92
705.37	1797.50
705.57	2000.25
705.76	2160.20
705.95	1989.81
706.14	2325.47
706.33	2405.34
706.52	2569.18
706.71	2146.68
706.90	2040.39
707.09	2114.94
707.28	2068.86
707.47	1908.71
707.67	2013.56
707.86	1896.83
708.05	2080.12
708.24	1895.80
708.43	1918.95
708.62	1870.41
708.81	1809.18
709.00	1725.21
709.19	1796.07
709.38	1982.84
709.57	1762.28
709.76	1907.07
709.96	1817.98
710.15	2063.33
710.34	1877.78
710.53	1967.07
710.72	1880.65
710.91	2038.55
711.10	1926.32
711.29	1947.62
711.48	1815.73
711.67	1755.31
711.86	1933.28
712.05	1753.88
712.24	1791.56
712.43	1953.15
712.62	2057.80
712.81	1889.87
713.00	1992.47
713.19	1748.56
713.39	1926.93
713.58	1740.36
713.77	1850.54
713.96	1942.29
714.15	1865.49
714.34	1807.74
714.53	1753.88
714.72	2121.29
714.91	1768.42
715.10	1849.32
715.29	1756.13
715.48	2246.83
715.67	1969.53
715.86	1866.31
716.05	1869.59
716.24	1839.90
716.43	1840.51
716.62	1770.67
716.81	1721.93
717.00	1816.55
717.19	2036.70
717.38	1888.64
717.57	1857.51
717.76	1690.60
717.95	2011.72
718.14	1879.42
718.33	1841.74
718.52	1695.10
718.71	1711.69
718.90	1724.18
719.09	1845.42
719.28	1868.36
719.47	1994.31
719.66	1944.34
719.85	1933.90
720.04	1863.65
720.23	1906.04
720.42	1802.62
720.61	1899.49
720.80	1696.95
720.99	1931.23
721.18	1800.78
721.37	1790.54
721.56	1838.26
721.75	1969.53
721.94	1769.04
722.13	1855.25
722.32	1822.90
722.51	1956.63
722.70	1872.25
722.89	1904.41
723.08	1855.66
723.27	1989.19
723.46	1902.15
723.65	1831.50
723.84	1798.73
724.03	2046.54
724.22	1725.00
724.41	1910.55
724.60	1823.92
724.79	1990.01
724.98	1914.24
725.16	1822.90
725.35	1945.57
725.54	1739.14
725.73	1865.29
725.92	1856.28
726.11	1831.70
726.30	1981.82
726.49	1788.70
726.68	1892.94
726.87	1963.39
727.06	2099.78
727.25	1836.62
727.44	1945.78
727.63	1896.21
727.82	1872.05
728.01	1898.67
728.20	1940.86
728.38	2070.29
728.57	1842.76
728.76	1864.88
728.95	1952.12
729.14	1721.32
729.33	1774.77
729.52	1641.65
729.71	1769.45
729.90	1776.82
730.09	1820.64
730.28	1821.67
730.47	1790.54
730.66	2000.25
730.84	1902.36
731.03	1874.51
731.22	1921.20
731.41	1866.52
731.60	1964.21
731.79	1675.03
731.98	1793.41
732.17	1937.17
732.36	1915.87
732.55	1809.18
732.73	1737.09
732.92	2033.84
733.11	1930.21
733.30	1801.60
733.49	1705.55
733.68	1945.78
733.87	1874.92
734.06	1756.95
734.25	1781.32
734.43	1825.56
734.62	1930.01
734.81	1878.81
735.00	1835.18
735.19	1858.33
735.38	1961.34
735.57	1714.97
735.76	1927.34
735.94	1937.38
736.13	2214.06
736.32	2022.98
736.51	1974.65
736.70	2254.40
736.89	2225.73
737.08	2118.42
737.27	2212.22
737.45	2484.39
737.64	2409.23
737.83	2576.34
738.02	2520.44
738.21	2595.19
738.40	2485.62
738.59	2214.67
738.77	2260.55
738.96	2077.25
739.15	2127.84
739.34	2166.14
739.53	2074.18
739.72	2158.56
739.90	2125.18
740.09	1857.92
740.28	1936.97
740.47	2004.96
740.66	1980.18
740.85	1799.35
741.03	1890.07
741.22	1756.54
741.41	1845.22
741.60	1717.43
741.79	1892.32
741.98	2027.08
742.16	2114.53
742.35	1914.85
742.54	1843.79
742.73	2153.85
742.92	1847.27
743.10	1712.51
743.29	1805.90
743.48	2178.01
743.67	1789.72
743.86	1703.50
744.05	1748.97
744.23	1758.39
744.42	1774.77
744.61	1837.23
744.80	1720.29
744.99	1806.92
745.17	1656.60
745.36	1701.04
745.55	1890.89
745.74	1855.46
745.93	1797.30
746.11	1783.17
746.30	1756.13
746.49	1997.79
746.68	1749.37
746.86	1829.45
747.05	1826.58
747.24	1880.44
747.43	1936.56
747.62	1737.29
747.80	1777.43
747.99	1988.58
748.18	1954.99
748.37	1904.82
748.56	1924.48
748.74	2011.11
748.93	1895.60
749.12	2076.23
749.31	2583.51
749.49	2952.76
749.68	3223.30
749.87	3547.90
750.06	3506.94
750.24	3480.73
750.43	3352.52
750.62	3435.26
750.81	3463.32
750.99	3591.11
751.18	3574.73
751.37	3168.62
751.56	3036.52
751.74	3208.14
751.93	3155.72
752.12	2531.90
752.31	2385.88
752.49	2333.87
752.68	2469.03
752.87	2209.35
753.06	2056.57
753.24	2023.19
753.43	2133.78
753.62	1878.19
753.81	1879.01
753.99	2097.94
754.18	1947.62
754.37	1783.78
754.55	1885.56
754.74	2089.13
754.93	1699.61
755.12	1788.90
755.30	1771.49
755.49	1985.30
755.68	1874.92
755.86	1930.42
756.05	1745.28
756.24	2034.25
756.43	1727.05
756.61	1755.31
756.80	1895.40
756.99	1999.84
757.17	1845.83
757.36	1735.04
757.55	1850.95
757.74	1934.92
757.92	1862.83
758.11	1713.13
758.30	1647.59
758.48	1833.75
758.67	1716.40
758.86	1860.37
759.04	1731.76
759.23	1799.96
759.42	1870.82
759.60	1761.66
759.79	1856.48
759.98	1836.62
760.16	1768.22
760.35	1768.63
760.54	1720.70
760.73	1887.20
760.91	1709.44
761.10	1890.48
761.29	1891.91
761.47	1860.78
761.66	2146.68
761.85	1871.02
762.03	1928.37
762.22	2138.69
762.41	2712.74
762.59	3326.52
762.78	3596.03
762.97	4265.30
763.15	4355.82
763.34	4069.52
763.52	3408.02
763.71	3325.29
763.90	3275.32
764.08	3021.78
764.27	2973.24
764.46	2983.89
764.64	2653.76
764.83	2564.06
765.02	2451.62
765.20	2380.15
765.39	2298.84
765.58	1993.70
765.76	2048.38
765.95	2016.63
766.13	1972.40
766.32	1905.63
766.51	1870.61
766.69	2447.12
766.88	1925.09
767.07	1774.16
767.25	1671.14
767.44	1986.53
767.62	2005.17
767.81	1778.66
768.00	1860.37
768.18	1866.11
768.37	1772.31
768.56	1686.50
768.74	1760.02
768.93	1706.57
769.11	1939.02
769.30	1863.45
769.49	1796.89
769.67	1841.53
769.86	1800.37
770.04	1825.76
770.23	1817.16
770.42	2023.19
770.60	1896.42
770.79	1752.65
770.97	1774.97
771.16	2062.10
771.35	2077.66
771.53	2157.33
771.72	2265.67
771.90	2463.30
772.09	2628.77
772.27	2510.81
772.46	2199.52
772.65	2402.06
772.83	2275.09
773.02	2221.64
773.20	2045.10
773.39	2191.33
773.58	2184.98
773.76	1888.02
773.95	1966.25
774.13	2033.02
774.32	1922.22
774.50	1796.68
774.69	1915.87
774.87	1852.39
775.06	2129.48
775.25	1795.45
775.43	1835.80
775.62	1915.06
775.80	1946.39
775.99	1900.92
776.17	1763.51
776.36	1825.15
776.54	1956.01
776.73	1717.43
776.92	1807.13
777.10	1921.61
777.29	1851.36
777.47	1706.37
777.66	1775.38
777.84	1862.83
778.03	1805.90
778.21	1718.86
778.40	1833.34
778.58	1904.82
778.77	1971.37
778.95	1714.35
779.14	1776.41
779.32	2090.16
779.51	1956.42
779.70	1832.32
779.88	1732.79
780.07	1801.80
780.25	2213.44
780.44	1829.25
780.62	1939.43
780.81	1941.68
780.99	1901.74
781.18	1801.60
781.36	1787.88
781.55	1859.56
781.73	2056.78
781.92	1727.46
782.10	1732.58
782.29	1939.84
782.47	2075.21
782.66	1851.77
782.84	1710.26
783.03	1764.33
783.21	1991.24
783.40	1818.39
783.58	1781.53
783.77	1804.87
783.95	1863.86
784.14	1769.65
784.32	1873.48
784.51	2000.87
784.69	1771.90
784.88	1701.86
785.06	1829.04
785.24	1719.68
785.43	1963.39
785.61	1894.37
785.80	1743.23
785.98	1915.87
786.17	1890.28
786.35	1743.64
786.54	1901.33
786.72	1952.94
786.91	1996.77
787.09	1836.62
787.28	1730.12
787.46	1868.57
787.65	1975.47
787.83	1715.99
788.01	1829.04
788.20	1705.34
788.38	1859.76
788.57	1777.84
788.75	1791.15
788.94	2087.29
789.12	1964.62
789.31	1842.56
789.49	1958.88
789.67	1824.54
789.86	1900.51
790.04	1767.60
790.23	1657.63
790.41	2120.06
790.60	1833.14
790.78	1796.27
790.96	1825.15
791.15	1969.33
791.33	1835.39
791.52	1823.10
791.70	1746.10
791.89	1854.44
792.07	1989.60
792.25	1838.46
792.44	1722.75
792.62	1999.02
792.81	1801.80
792.99	1836.21
793.17	1773.54
793.36	1754.49
793.54	2108.59
793.73	2098.76
793.91	2085.24
794.10	2353.12
794.28	2492.38
794.46	2302.12
794.65	2343.49
794.83	2115.96
795.01	2185.39
795.20	2267.51
795.38	2107.16
795.57	2178.83
795.75	2163.06
795.93	2002.50
796.12	2027.28
796.30	2084.83
796.49	2081.97
796.67	1833.14
796.85	1986.73
797.04	1932.67
797.22	1976.09
797.40	1745.48
797.59	1887.20
797.77	1892.73
797.96	1773.34
798.14	1740.36
798.32	1769.85
798.51	1968.71
798.69	2115.35
798.87	1831.70
799.06	1830.68
799.24	1691.21
799.42	2017.04
799.61	1982.23
799.79	2005.58
799.98	2387.73
800.16	2128.25
800.34	2313.39
800.53	2493.81
800.71	2541.73
800.89	2947.64
801.08	2818.82
801.26	2801.21
801.44	2558.94
801.63	2379.74
801.81	2329.97
801.99	2293.52
802.18	2248.87
802.36	2236.79
802.54	2214.26
802.73	2018.68
802.91	2080.53
803.09	2070.29
803.28	2057.39
803.46	2048.17
803.64	2152.21
803.83	1827.61
804.01	1793.61
804.19	1740.16
804.38	1973.63
804.56	1963.80
804.74	1837.64
804.92	1854.23
805.11	1751.01
805.29	1989.40
805.47	1827.61
805.66	1692.65
805.84	1703.30
806.02	1984.28
806.21	1789.52
806.39	1940.04
806.57	1979.77
806.76	1958.88
806.94	1831.70
807.12	1799.55
807.30	1763.10
807.49	1876.96
807.67	1849.93
807.85	1937.17
808.04	1974.24
808.22	2163.47
808.40	1734.63
808.58	1747.33
808.77	1939.84
808.95	2053.91
809.13	1896.01
809.31	2297.82
809.50	2540.10
809.68	2671.78
809.86	2602.76
810.05	2757.59
810.23	3162.47
810.41	3576.37
810.59	5191.81
810.78	6107.66
810.96	6879.74
811.14	7371.05
811.32	7040.30
811.51	5961.23
811.69	5182.38
811.87	5179.72
812.05	4628.41
812.24	4473.79
812.42	4335.14
812.60	4072.59
812.78	3515.34
812.97	3171.89
813.15	3337.17
813.33	2987.17
813.51	2772.13
813.70	2431.96
813.88	2256.66
814.06	2197.88
814.24	2088.31
814.42	1870.61
814.61	1996.16
814.79	2153.64
814.97	1734.63
815.15	1850.54
815.34	1928.98
815.52	1991.24
815.70	1758.59
815.88	1794.43
816.06	1791.97
816.25	1787.67
816.43	1763.30
816.61	1924.27
816.79	2046.74
816.98	1675.65
817.16	1762.28
817.34	1736.68
817.52	1884.75
817.70	2038.34
817.89	1795.04
818.07	1723.98
818.25	1841.33
818.43	1880.24
818.61	1831.70
818.80	1795.25
818.98	2082.58
819.16	1889.87
819.34	1739.95
819.52	2046.54
819.70	1747.33
819.89	1861.81
820.07	1718.25
820.25	1690.39
820.43	1890.68
820.61	1979.16
820.80	1851.57
820.98	1729.30
821.16	1665.41
821.34	1728.49
821.52	1817.16
821.70	1849.73
821.89	1882.70
822.07	1831.09
822.25	1822.28
822.43	1751.42
822.61	2057.59
822.79	1942.50
822.98	1813.89
823.16	1650.05
823.34	1907.27
823.52	2022.16
823.70	1956.22
823.88	1677.90
824.06	1942.91
824.25	1860.37
824.43	1927.14
824.61	1733.40
824.79	1863.86
824.97	1894.78
825.15	1949.46
825.33	2067.01
825.52	2171.05
825.70	2065.38
825.88	2075.00
826.06	2215.08
826.24	2195.42
826.42	2232.08
826.60	2106.95
826.78	2114.73
826.97	1981.82
827.15	2144.63
827.33	1861.81
827.51	1989.81
827.69	1870.21
827.87	1976.29
828.05	1969.12
828.23	1790.74
828.41	2016.23
828.60	1992.47
828.78	1711.08
828.96	1890.89
829.14	1790.13
829.32	1832.11
829.50	1797.30
829.68	1817.37
829.86	1843.38
830.04	1909.12
830.22	1911.57
830.41	1744.46
830.59	1848.09
830.77	1940.45
830.95	1763.30
831.13	1783.37
831.31	1766.37
831.49	1967.69
831.67	1960.11
831.85	1935.13
832.03	1838.46
832.21	1922.84
832.39	1730.94
832.57	1755.93
832.76	1981.41
832.94	1835.59
833.12	1677.49
833.30	1838.67
833.48	2012.33
833.66	1884.95
833.84	1765.14
834.02	1840.30
834.20	1985.30
834.38	1947.62
834.56	1654.14
834.74	1721.93
834.92	1743.85
835.10	2059.23
835.28	1872.25
835.46	1821.26
835.64	1883.93
835.82	1767.60
836.01	2062.51
836.19	1964.21
836.37	1811.84
836.55	1763.51
836.73	1778.05
836.91	1724.18
837.09	1927.34
837.27	2054.32
837.45	1687.94
837.63	1706.57
837.81	1735.45
837.99	1853.62
838.17	1790.74
838.35	1744.46
838.53	2164.50
838.71	1953.35
838.89	1780.30
839.07	1779.48
839.25	1859.76
839.43	1973.83
839.61	1818.80
839.79	2199.31
839.97	2303.15
840.15	2420.70
840.33	2399.60
840.51	2645.57
840.69	2477.43
840.87	2360.49
841.05	2326.29
841.23	2270.58
841.41	2473.54
841.59	2942.11
841.77	3037.14
841.95	3162.88
842.13	3511.45
842.31	3256.48
842.49	2876.78
842.67	2836.23
842.85	2802.24
843.03	2492.17
843.21	2475.99
843.39	2522.69
843.57	2422.75
843.75	2366.02
843.93	2197.88
844.11	2184.16
844.29	2167.77
844.47	2034.25
844.65	2151.60
844.83	1971.99
845.01	1928.78
845.19	2053.70
845.36	1883.11
845.54	1944.14
845.72	1922.63
845.90	1968.51
846.08	1737.29
846.26	1827.40
846.44	1934.92
846.62	1912.39
846.80	1865.70
846.98	1743.85
847.16	1836.21
847.34	1907.27
847.52	1728.90
847.70	1751.83
847.88	1870.61
848.06	2041.82
848.24	1881.47
848.41	1724.80
848.59	2005.58
848.77	1939.02
848.95	1768.83
849.13	1794.43
849.31	1976.90
849.49	1927.55
849.67	1783.58
849.85	1726.23
850.03	1910.55
850.21	1925.09
850.39	1774.16
850.57	1916.49
850.74	2064.15
850.92	2054.32
851.10	1958.88
851.28	1962.98
851.46	2111.46
851.64	2376.87
851.82	2119.24
852.00	2166.75
852.18	2299.46
852.36	2161.84
852.53	1982.84
852.71	2065.58
852.89	2062.71
853.07	2044.90
853.25	1869.80
853.43	1778.25
853.61	1960.32
853.79	1995.13
853.97	1828.43
854.14	1769.04
854.32	2074.80
854.50	1971.58
854.68	1823.31
854.86	1819.83
855.04	1787.88
855.22	1940.25
855.40	1726.23
855.57	1778.46
855.75	1960.73
855.93	1921.81
856.11	1665.00
856.29	1748.56
856.47	1776.00
856.65	1886.38
856.82	1742.62
857.00	1716.61
857.18	1854.23
857.36	1804.26
857.54	1870.61
857.72	1947.62
857.89	1958.06
858.07	1897.24
858.25	1997.79
858.43	1710.26
858.61	1857.30
858.79	1863.04
858.97	1757.57
859.14	1877.78
859.32	1841.33
859.50	1823.51
859.68	1877.78
859.86	1770.06
860.03	1888.84
860.21	1909.94
860.39	1771.90
860.57	1875.12
860.75	1925.91
860.93	2098.76
861.10	1958.06
861.28	1774.16
861.46	1911.98
861.64	1915.47
861.82	1797.91
861.99	1911.37
862.17	1976.49
862.35	1989.19
862.53	1834.16
862.71	1853.41
862.88	1896.42
863.06	1957.45
863.24	1812.86
863.42	1762.89
863.60	1832.32
863.77	1931.44
863.95	1660.70
864.13	1849.52
864.31	1825.97
864.49	1968.71
864.66	1703.09
864.84	1811.84
865.02	1898.47
865.20	2212.01
865.37	1851.16
865.55	1799.14
865.73	1749.78
865.91	1965.03
866.09	1884.95
866.26	1878.60
866.44	1956.42
866.62	1859.56
866.80	1730.74
866.97	1872.05
867.15	1866.93
867.33	1908.50
867.51	1879.01
867.68	1826.17
867.86	1813.48
868.04	1783.78
868.22	1640.01
868.39	1783.99
868.57	1933.49
868.75	2057.59
868.93	1683.23
869.10	1778.87
869.28	2106.95
869.46	2033.43
869.64	1835.59
869.81	1807.13
869.99	1894.78
870.17	1888.84
870.35	1777.84
870.52	1757.57
870.70	1998.20
870.88	1791.15
871.05	1735.45
871.23	1625.47
871.41	1851.98
871.59	1847.68
871.76	1803.24
871.94	1762.89
872.12	1894.99
872.29	1703.09
872.47	1800.78
872.65	1737.91
872.83	1906.25
873.00	2058.21
873.18	1828.22
873.36	1770.47
873.53	1976.90
873.71	1734.83
873.89	1771.90
874.06	1843.38
874.24	1922.63
874.42	2036.09
874.60	1926.73
874.77	1873.69
874.95	1787.26
875.13	1976.29
875.30	1769.24
875.48	1774.97
875.66	2035.89
875.83	1781.53
876.01	1791.56
876.19	1917.51
876.36	1720.91
876.54	1887.61
876.72	1736.88
876.89	1893.35
877.07	1965.23
877.25	1673.80
877.42	1874.71
877.60	1837.64
877.78	2105.93
877.95	1815.93
878.13	1784.19
878.31	1888.64
878.48	1972.40
878.66	1962.77
878.84	1765.55
879.01	1832.73
879.19	1926.32
879.37	1936.76
879.54	1797.09
879.72	1726.44
879.90	1661.72
880.07	1946.80
880.25	1581.24
880.42	1909.94
880.60	1891.50
880.78	1961.54
880.95	1804.87
881.13	1832.32
881.31	1877.17
881.48	1814.71
881.66	1762.28
881.83	1880.04
882.01	1793.20
882.19	1735.65
882.36	1868.57
882.54	1809.38
882.72	1969.74
882.89	1887.00
883.07	1750.19
883.24	1830.47
883.42	1960.73
883.60	1897.44
883.77	1738.11
883.95	1792.59
884.12	1962.77
884.30	1890.48
884.48	1938.40
884.65	1834.16
884.83	1903.38
885.00	1894.17
885.18	1714.76
885.36	1797.50
885.53	1930.62
885.71	2016.43
885.88	1705.34
886.06	1784.80
886.23	1953.56
886.41	1849.93
886.59	1775.79
886.76	1791.36
886.94	1969.12
887.11	2210.37
887.29	1836.62
887.47	1696.33
887.64	1975.06
887.82	2045.92
887.99	1693.26
888.17	1848.09
888.34	1856.69
888.52	1761.66
888.69	1858.12
888.87	1718.86
889.05	1819.62
889.22	1818.60
889.40	1808.97
889.57	1941.88
889.75	2102.04
889.92	1842.97
890.10	1723.16
890.27	1796.07
890.45	1805.90
890.62	1685.27
890.80	1723.78
890.98	1689.16
891.15	2041.21
891.33	1980.39
891.50	1770.26
891.68	1695.51
891.85	1963.59
892.03	1972.40
892.20	1804.67
892.38	1721.32
892.55	1936.76
892.73	1946.80
892.90	1746.92
893.08	1780.50
893.25	1774.16
893.43	1801.19
893.60	1890.89
893.78	1642.68
893.95	1913.83
894.13	1863.24
894.30	1761.66
894.48	1812.25
894.65	1965.03
894.83	1896.83
895.00	1660.90
895.18	1647.39
895.35	1967.89
895.53	1965.44
895.70	1753.88
895.88	1891.50
896.05	1941.06
896.23	1695.72
896.40	1777.43
896.58	1869.59
896.75	1957.24
896.93	2051.66
897.10	1776.41
897.28	1702.68
897.45	1904.82
897.63	1937.99
897.80	1919.15
897.98	1834.37
898.15	1928.16
898.33	1774.16
898.50	1846.86
898.67	1821.05
898.85	1836.41
899.02	1919.36
899.20	1947.82
899.37	1811.84
899.55	1879.42
899.72	2042.64
899.90	1768.83
900.07	1784.40
900.25	1916.49
900.42	2018.68
900.59	1785.83
900.77	1904.41
900.94	1928.98
901.12	1901.33
901.29	1759.21
901.47	1910.75
901.64	1919.56
901.82	1857.10
901.99	1624.45
902.16	1735.65
902.34	1990.01
902.51	1905.02
902.69	1802.42
902.86	1846.24
903.03	2293.32
903.21	1898.06
903.38	1824.94
903.56	1786.44
903.73	2001.48
903.91	1830.27
904.08	1752.65
904.25	1662.34
904.43	1777.23
904.60	1950.28
904.78	1808.36
904.95	1737.91
905.12	1819.21
905.30	2073.16
905.47	1897.65
905.65	1935.54
905.82	1848.91
905.99	1944.96
906.17	1827.61
906.34	1745.89
906.52	1786.44
906.69	1948.03
906.86	1913.21
907.04	1841.74
907.21	1961.54
907.38	1967.48
907.56	1761.87
907.73	1764.94
907.91	2050.63
908.08	1990.42
908.25	1769.24
908.43	1741.80
908.60	1924.68
908.77	1891.50
908.95	1786.44
909.12	1719.88
909.30	1961.54
909.47	1705.55
909.64	1803.24
909.82	1947.21
909.99	1848.50
910.16	1881.67
910.34	1770.88
910.51	1790.33
910.68	1889.66
910.86	1884.95
911.03	1716.20
911.20	1808.97
911.38	2096.71
911.55	2478.86
911.72	2586.38
911.90	2488.08
912.07	2695.33
912.24	2835.62
912.42	2362.95
912.59	2136.85
912.76	2278.57
912.94	2139.31
913.11	1997.38
913.28	1926.93
913.46	1852.18
913.63	1988.58
913.80	2140.13
913.98	1882.90
914.15	2056.57
914.32	2023.60
914.49	1907.89
914.67	1784.40
914.84	1925.91
915.01	1961.95
915.19	1913.83
915.36	1785.01
915.53	1994.11
915.71	1918.95
915.88	1889.87
916.05	1785.21
916.22	1993.08
916.40	1895.60
916.57	1759.00
916.74	1871.84
916.92	2072.34
917.09	1769.65
917.26	1729.71
917.43	1709.23
917.61	1819.01
917.78	1674.62
917.95	1662.95
918.13	1706.78
918.30	2130.50
918.47	1871.43
918.64	1739.54
918.82	1733.40
918.99	1842.56
919.16	2073.36
919.33	1813.27
919.51	1758.80
919.68	1851.57
919.85	2027.08
920.02	1689.37
920.20	1795.45
920.37	2067.42
920.54	1976.90
920.71	1749.99
920.89	1763.71
921.06	2061.08
921.23	1738.73
921.40	1730.74
921.58	1894.37
921.75	2289.83
921.92	1880.65
922.09	1919.36
922.27	1904.61
922.44	1924.89
922.61	1988.37
922.78	1860.37
922.96	1821.67
923.13	1840.30
923.30	1999.23
923.47	1728.49
923.64	1774.36
923.82	1922.02
923.99	1912.60
924.16	1857.51
924.33	1716.61
924.50	1879.63
924.68	2052.47
924.85	1709.85
925.02	1774.16
925.19	1997.59
925.36	1877.99
925.54	1835.80
925.71	1808.15
925.88	2246.62
926.05	1830.47
926.22	1756.75
926.40	1825.97
926.57	1911.57
926.74	1939.02
926.91	1776.00
927.08	1925.30
927.26	1993.29
927.43	1913.62
927.60	1760.64
927.77	1812.25
927.94	2066.61
928.11	1991.04
928.29	1684.04
928.46	1801.80
928.63	1764.73
928.80	1836.41
928.97	1879.01
929.14	1746.92
929.32	2137.26
929.49	1892.73
929.66	1756.95
929.83	1661.72
930.00	1796.48
930.17	1917.10
930.35	1704.52
930.52	1799.75
930.69	2054.32
930.86	1742.41
931.03	1835.39
931.20	1631.41
931.37	2009.88
931.55	1867.75
931.72	1856.69
931.89	1700.84
932.06	1728.49
932.23	2060.46
932.40	1889.05
932.57	1878.81
932.74	2031.79
932.92	2015.00
933.09	1905.43
933.26	1573.86
933.43	1820.23
933.60	1887.61
933.77	1836.00
933.94	1865.70
934.11	1837.03
934.29	1924.07
934.46	1720.70
934.63	1835.18
934.80	1720.91
934.97	1865.09
935.14	1811.43
935.31	1678.72
935.48	1751.63
935.65	1916.90
935.82	1848.09
936.00	1693.26
936.17	2029.33
936.34	1847.06
936.51	1903.79
936.68	1706.16
936.85	1900.92
937.02	1876.55
937.19	1890.48
937.36	1793.20
937.53	1903.79
937.70	1968.51
937.87	1826.17
938.05	1868.98
938.22	1850.54
938.39	1736.06
938.56	1819.42
938.73	1735.04
938.90	1830.06
939.07	1791.36
939.24	1824.74
939.41	1657.83
939.58	1914.85
939.75	1932.26
939.92	1746.10
940.09	1955.20
940.26	1815.52
940.43	1987.76
940.60	1770.67
940.77	1761.46
940.95	1922.84
941.12	1946.80
941.29	1788.70
941.46	1818.19
941.63	2034.25
941.80	2047.56
941.97	1684.04
942.14	1693.47
942.31	1949.67
942.48	1847.06
942.65	1873.07
942.82	1800.78
942.99	1925.50
943.16	1865.90
943.33	1727.87
943.50	1744.87
943.67	1957.45
943.84	2002.30
944.01	1800.78
944.18	1729.71
944.35	2026.87
944.52	1760.23
944.69	1853.82
944.86	1680.56
945.03	1949.46
945.20	2169.00
945.37	1618.30
945.54	1785.42
945.71	2004.14
945.88	2093.43
946.05	1718.86
946.22	1711.49
946.39	2036.50
946.56	1849.32
946.73	1702.68
946.90	1731.76
947.07	1813.68
947.24	1829.86
947.41	1662.13
947.58	1907.27
947.75	1933.90
947.92	1905.02
948.09	1573.45
948.26	1680.56
948.43	1885.36
948.60	2101.83
948.77	1742.00
948.94	1763.10
949.11	1968.30
949.27	1899.90
949.44	1734.02
949.61	1754.29
949.78	1913.62
949.95	2018.68
950.12	1733.40
950.29	1679.54
950.46	1797.91
950.63	1987.35
950.80	1770.88
950.97	1822.69
951.14	2005.78
951.31	1840.92
951.48	1745.89
951.65	1707.80
951.82	2090.98
951.99	1887.41
952.15	1675.65
952.32	1788.90
952.49	1820.23
952.66	1790.13
952.83	1754.49
953.00	1747.74
953.17	1857.51
953.34	1971.58
953.51	1851.57
953.68	1787.88
953.85	2030.15
954.02	1988.58
954.18	1789.52
954.35	1830.47
954.52	1762.48
954.69	1903.59
954.86	1647.39
955.03	1807.13
955.20	1948.44
955.37	1871.23
955.54	1773.54
955.71	1769.04
955.87	1899.70
956.04	2074.18
956.21	1800.37
956.38	1717.63
956.55	1885.77
956.72	2190.71
956.89	1809.79
957.06	1745.28
957.23	1788.29
957.39	2044.49
957.56	1762.89
957.73	1738.93
957.90	1612.78
958.07	2085.24
958.24	1812.25
958.41	1777.43
958.57	1956.83
958.74	1875.12
958.91	1711.90
959.08	1760.84
959.25	1942.09
959.42	1850.34
959.59	1829.66
959.75	1789.72
959.92	2046.94
960.09	2010.49
960.26	1750.19
960.43	1820.85
960.60	1926.32
960.76	1840.92
960.93	1665.61
961.10	1832.32
961.27	2000.46
961.44	1865.29
961.61	1685.07
961.77	1712.10
961.94	1881.06
962.11	1975.06
962.28	1779.48
962.45	1698.59
962.62	1849.52
962.78	1997.18
962.95	1719.88
963.12	1769.04
963.29	1926.93
963.46	2230.03
963.62	1841.74
963.79	1764.94
963.96	2206.48
964.13	1816.96
964.30	1853.82
964.46	1777.23
964.63	1744.46
964.80	2209.35
964.97	1631.41
965.14	1842.76
965.30	1926.52
965.47	1990.22
965.64	1899.08
965.81	1858.94
965.98	2081.35
966.14	1920.38
966.31	1797.09
966.48	1764.73
966.65	2012.33
966.81	1914.24
966.98	1779.68
967.15	1785.83
967.32	1855.66
967.49	1793.41
967.65	1659.06
967.82	1627.73
967.99	1839.90
968.16	1666.64
968.32	1901.33
968.49	1769.45
968.66	1856.69
968.83	2044.28
968.99	1844.40
969.16	1707.80
969.33	2035.27
969.50	1947.21
969.66	1891.71
969.83	1978.13
970.00	1980.59
970.17	1921.20
970.33	1771.08
970.50	1741.80
970.67	2066.20
970.84	2063.74
971.00	1729.10
971.17	1721.93
971.34	1949.46
971.50	1872.05
971.67	1911.57
971.84	1797.71
972.01	1771.70
972.17	1639.19
972.34	1738.73
972.51	1862.22
972.67	2012.13
972.84	1922.63
973.01	1718.04
973.18	1753.88
973.34	1998.82
973.51	1770.67
973.68	1785.01
973.84	1794.43
974.01	1836.00
974.18	2101.83
974.34	1855.25
974.51	1867.95
974.68	1752.24
974.85	2121.49
975.01	1868.36
975.18	1774.97
975.35	1885.16
975.51	1795.86
975.68	1666.43
975.85	1915.47
976.01	1790.74
976.18	2026.47
976.35	1777.02
976.51	1766.99
976.68	2095.28
976.85	2019.91
977.01	1836.62
977.18	1865.70
977.35	1957.45
977.51	1703.50
977.68	1629.98
977.85	1684.04
978.01	1999.23
978.18	1940.25
978.35	1835.39
978.51	1816.55
978.68	1969.33
978.85	2052.88
979.01	1772.31
979.18	1828.22
979.34	1829.45
979.51	1882.70
979.68	1706.78
979.84	1810.81
980.01	2176.99
980.18	1891.91
980.34	1751.22
980.51	1849.52
980.67	1952.12
980.84	1959.70
981.01	1801.60
981.17	1863.45
981.34	1660.08
981.51	1975.68
981.67	1725.21
981.84	1892.12
982.00	1922.22
982.17	1878.40
982.34	1670.73
982.50	1579.80
982.67	2064.97
982.83	1815.32
983.00	1702.07
983.17	1607.45
983.33	1996.36
983.50	1676.47
983.66	1701.04
983.83	1577.35
984.00	1809.18
984.16	1900.72
984.33	1616.67
984.49	1616.87
984.66	1754.49
984.83	1964.00
984.99	1642.68
985.16	1565.26
985.32	1972.40
985.49	1954.38
985.65	1731.97
985.82	1624.24
985.99	2067.22
986.15	1883.93
986.32	1701.25
986.48	1678.11
986.65	1796.27
986.81	1975.88
986.98	1623.63
987.14	1684.25
987.31	1865.70
987.48	1695.10
987.64	1549.08
987.81	1596.60
987.97	2151.19
988.14	1781.32
988.30	1629.36
988.47	1529.83
988.63	1896.42
988.80	1742.00
988.96	1674.62
989.13	1751.63
989.30	1848.50
989.46	1957.65
989.63	1597.21
989.79	1590.25
989.96	1872.25
990.12	2057.18
990.29	1645.34
990.45	1662.95
990.62	1877.99
990.78	2030.15
990.95	1757.98
991.11	1628.95
991.28	1811.43
991.44	1912.80
991.61	1553.38
991.77	1682.00
991.94	1903.38
992.10	2025.44
992.27	1725.41
992.43	1645.13
992.60	1914.03
992.76	1791.77
992.93	1785.83
993.09	1616.05
993.26	2004.14
993.42	2075.41
993.59	1628.75
993.75	1573.25
993.92	1777.64
994.08	1785.62
994.25	1717.84
994.41	1619.94
994.58	1928.37
994.74	2048.17
994.91	1629.77
995.07	1715.99
995.24	1860.78
995.40	1866.11
995.56	1780.09
995.73	1725.82
995.89	2069.06
996.06	1849.73
996.22	1619.74
996.39	1562.19
996.55	1867.75
996.72	1937.79
996.88	1559.53
997.05	1624.45
997.21	2120.47
997.37	1932.26
997.54	1728.69
997.70	1660.90
997.87	1905.02
998.03	1866.93
998.20	1551.13
998.36	1580.62
998.52	1939.02
998.69	1992.88
998.85	1545.19
999.02	1640.83
999.18	2020.73
999.35	1967.89
999.51	1661.93
999.67	1661.11
999.84	1757.16
1000.00	1975.88
1000.17	1718.45
1000.33	1618.71
1000.49	1792.38
1000.66	1848.50
1000.82	1630.39
1000.99	1708.83
1001.15	2005.99
1001.31	1844.81
1001.48	1687.94
1001.64	1714.76
1001.81	1844.61
1001.97	2130.91
1002.13	1638.78
1002.30	1649.23
1002.46	2038.14
1002.63	1836.82
1002.79	1730.74
1002.95	1630.59
1003.12	1987.35
1003.28	1927.34
1003.45	1646.16
1003.61	1599.87
1003.77	1886.38
1003.94	1714.97
1004.10	1658.24
1004.26	1689.16
1004.43	1930.21
1004.59	2100.40
1004.75	1640.63
1004.92	1594.55
1005.08	1810.61
1005.25	1868.57
1005.41	1635.92
1005.57	1731.97
1005.74	2024.01
1005.90	1800.78
1006.06	1750.40
1006.23	1645.95
1006.39	1969.12
1006.55	2203.20
1006.72	1797.50
1006.88	1594.34
1007.04	1782.96
1007.21	1833.14
1007.37	1678.31
1007.53	1646.16
1007.70	2046.94
1007.86	1972.81
1008.02	1686.91
1008.19	1608.07
1008.35	1872.87
1008.51	1774.16
1008.68	1673.80
1008.84	1585.13
1009.00	1764.12
1009.17	1980.39
1009.33	1779.28
1009.49	1738.32
1009.65	1773.13
1009.82	1917.10
1009.98	1711.49
1010.14	1578.37
1010.31	1970.97
1010.47	1938.81
1010.63	1720.29
1010.80	1702.68
1010.96	1909.94
1011.12	1835.80
1011.28	1654.76
1011.45	1615.64
1011.61	2204.02
1011.77	1766.37
1011.94	1624.45
1012.10	1594.75
1012.26	1747.74
1012.42	1787.88
1012.59	1688.96
1012.75	1680.56
1012.91	1842.15
1013.07	1984.28
1013.24	1610.11
1013.40	1627.11
1013.56	1885.97
1013.72	1878.60
1013.89	1738.11
1014.05	1726.03
1014.21	2097.73
1014.37	2179.45
1014.54	1700.22
1014.70	1631.21
1014.86	1819.21
1015.02	1735.65
1015.19	1648.41
1015.35	1602.95
1015.51	1838.67
1015.67	1794.43
1015.84	1636.74
1016.00	1641.45
1016.16	2014.79
1016.32	1963.80
1016.49	1636.74
1016.65	1621.38
1016.81	1869.59
1016.97	1935.94
1017.14	1742.00
1017.30	1667.46
1017.46	1807.95
1017.62	1912.80
1017.78	1714.97
1017.95	1630.59
1018.11	1957.86
1018.27	2156.10
1018.43	1773.75
1018.59	1715.79
1018.76	1985.71
1018.92	2198.70
1019.08	1605.40
1019.24	1659.06
1019.40	2067.42
1019.57	1902.77
1019.73	1737.09
1019.89	1645.13
1020.05	1894.58
1020.21	2100.81
1020.38	1618.92
1020.54	1796.89
1020.70	1948.03
1020.86	1954.79
1021.02	1641.04
1021.18	1632.03
1021.35	1816.34
1021.51	1941.47
1021.67	1767.19
1021.83	1650.66
1021.99	1861.19
1022.15	1894.58
1022.32	1726.44
1022.48	1704.73
1022.64	2022.16
1022.80	2062.71
1022.96	1709.23
1023.12	1584.31
1023.29	2020.32
1023.45	1931.44
1023.61	1618.30
1023.77	1828.84
1023.93	1863.86
1024.09	1785.42
1024.25	1623.83
1024.42	1592.09
1024.58	1819.42
1024.74	1910.14
1024.90	1674.01
1025.06	1710.46
1025.22	1809.99
1025.38	2071.73
1025.54	1596.39
1025.71	1730.74
1025.87	1947.82
1026.03	1923.86
1026.19	1610.11
1026.35	1793.00
1026.51	1930.82
1026.67	1860.58
1026.83	1687.32
1026.99	1770.06
1027.16	1921.81
1027.32	2005.78
1027.48	1674.62
1027.64	1635.10
1027.80	1933.90
1027.96	1910.96
1028.12	1666.02
1028.28	1622.40
1028.44	1897.03
1028.60	2065.38
1028.77	1779.48
1028.93	1689.98
1029.09	1812.25
1029.25	1753.88
1029.41	1677.70
1029.57	1735.04
1029.73	1922.84
1029.89	2044.90
1030.05	1764.73
1030.21	1739.34
1030.37	2155.49
1030.53	1947.62
1030.69	1696.95
1030.85	1606.02
1031.02	1744.66
1031.18	1876.96
1031.34	1679.13
1031.50	1757.98
1031.66	1772.93
1031.82	2041.42
1031.98	1690.19
1032.14	1630.80
1032.30	1743.85
1032.46	1965.03
1032.62	1773.13
1032.78	1602.95
1032.94	1810.81
1033.10	1847.47
1033.26	1704.11
1033.42	1754.09
1033.58	2129.27
1033.74	1802.42
1033.90	1644.31
1034.06	1811.02
1034.22	2152.21
1034.38	2010.70
1034.54	1688.35
1034.70	1668.28
1034.86	2071.11
>>>>>End Processed Spectral Data<<<<<
