SpectraSuite Data File
++++++++++++++++++++++++++++++++++++
Date: Thu Mar 30 14:18:45 PDT 2017
User: UCSD _CER
Dark Spectrum Present: No
Reference Spectrum Present: No
Number of Sampled Component Spectra: 1
Spectrometers: USB4C00073
Integration Time (usec): 380000 (USB4C00073)
Spectra Averaged: 10 (USB4C00073)
Boxcar Smoothing: 0 (USB4C00073)
Correct for Electrical Dark: No (USB4C00073)
Strobe/Lamp Enabled: No (USB4C00073)
Correct for Detector Non-linearity: No (USB4C00073)
Correct for Stray Light: No (USB4C00073)
Number of Pixels in Processed Spectrum: 3648
>>>>>Begin Processed Spectral Data<<<<<
345.37	1237.79
345.58	1237.79
345.80	1237.79
346.01	1190.28
346.22	1229.60
346.43	2023.60
346.65	1871.64
346.86	2406.98
347.07	2360.69
347.28	1825.56
347.50	1802.01
347.71	2091.59
347.92	1870.82
348.13	1767.19
348.35	1800.16
348.56	2117.19
348.77	1884.75
348.98	1804.06
349.20	1657.83
349.41	2101.63
349.62	2230.44
349.83	1922.02
350.05	1790.13
350.26	2149.55
350.47	2328.13
350.68	1805.90
350.90	1728.28
351.11	2363.15
351.32	2333.87
351.53	1851.36
351.75	1757.77
351.96	2133.98
352.17	2087.49
352.38	1879.83
352.60	1885.56
352.81	2117.80
353.02	2404.93
353.23	1795.86
353.44	1826.79
353.66	1993.90
353.87	2018.07
354.08	1892.12
354.29	1782.96
354.51	2017.25
354.72	2006.80
354.93	1773.34
355.14	1767.81
355.35	1826.38
355.57	2223.07
355.78	1812.04
355.99	1883.31
356.20	2071.11
356.42	2046.33
356.63	1905.23
356.84	1804.67
357.05	2234.13
357.26	2478.25
357.48	1900.72
357.69	1861.40
357.90	2138.69
358.11	2027.28
358.32	1813.68
358.54	1852.59
358.75	2029.13
358.96	2227.17
359.17	1808.56
359.38	1829.04
359.60	2199.11
359.81	2064.97
360.02	1810.81
360.23	1770.67
360.44	1973.63
360.66	2259.11
360.87	1770.06
361.08	1751.22
361.29	2170.85
361.50	2142.58
361.72	1780.71
361.93	1885.77
362.14	2089.54
362.35	1846.45
362.56	1978.95
362.77	1703.91
362.99	2163.68
363.20	2068.65
363.41	1882.29
363.62	1671.35
363.83	2173.92
364.05	2246.01
364.26	1742.00
364.47	1805.90
364.68	2278.98
364.89	1938.61
365.10	1730.53
365.32	1809.18
365.53	1916.49
365.74	2005.17
365.95	1809.18
366.16	1689.78
366.37	2100.40
366.59	2027.49
366.80	1834.98
367.01	1692.24
367.22	2413.53
367.43	2579.01
367.64	1878.40
367.86	1815.73
368.07	2166.96
368.28	2310.72
368.49	1716.81
368.70	1859.15
368.91	2005.17
369.12	2049.40
369.34	1729.10
369.55	1714.97
369.76	2068.86
369.97	2034.45
370.18	1714.35
370.39	1778.66
370.60	1858.33
370.82	1931.64
371.03	1836.00
371.24	1772.11
371.45	2201.36
371.66	2190.71
371.87	1795.66
372.08	1830.88
372.30	1955.40
372.51	2249.69
372.72	1944.75
372.93	1822.08
373.14	2370.11
373.35	1988.78
373.56	1780.09
373.78	1845.02
373.99	2226.35
374.20	2589.45
374.41	1792.59
374.62	1793.61
374.83	2348.61
375.04	2041.01
375.25	1835.18
375.47	1828.63
375.68	2008.65
375.89	2201.98
376.10	1846.45
376.31	1905.02
376.52	2158.15
376.73	2127.43
376.94	1868.77
377.15	1773.13
377.37	2092.20
377.58	2037.93
377.79	1742.62
378.00	1773.34
378.21	2118.83
378.42	2208.12
378.63	1870.61
378.84	1918.95
379.05	2251.54
379.27	2092.82
379.48	1921.40
379.69	1781.12
379.90	2307.65
380.11	1757.57
380.32	1823.51
380.53	1953.15
380.74	2322.60
380.95	2078.28
381.16	1860.99
381.37	1868.57
381.59	2341.65
381.80	2223.48
382.01	1796.48
382.22	1727.26
382.43	2150.98
382.64	2087.29
382.85	1764.53
383.06	1863.86
383.27	2161.22
383.48	2023.19
383.69	1844.40
383.91	1771.08
384.12	2172.08
384.33	2212.01
384.54	1873.69
384.75	1784.80
384.96	2656.01
385.17	2277.55
385.38	1833.75
385.59	1804.06
385.80	2214.88
386.01	2344.92
386.22	1922.22
386.43	1825.97
386.64	2459.00
386.86	2074.39
387.07	1937.99
387.28	1729.10
387.49	1994.52
387.70	2273.25
387.91	1933.49
388.12	1826.79
388.33	2164.50
388.54	2002.91
388.75	1758.80
388.96	1879.22
389.17	1988.58
389.38	2051.45
389.59	1929.39
389.80	1884.75
390.01	2058.62
390.22	2002.50
390.43	1923.86
390.64	1698.59
390.86	2145.04
391.07	2270.17
391.28	1808.15
391.49	1853.00
391.70	1905.02
391.91	1956.42
392.12	1837.03
392.33	1898.67
392.54	2130.09
392.75	2075.62
392.96	1924.07
393.17	1809.38
393.38	2513.27
393.59	2274.06
393.80	1727.26
394.01	1845.22
394.22	2084.63
394.43	2374.01
394.64	1725.62
394.85	1914.24
395.06	2049.61
395.27	2107.77
395.48	1842.76
395.69	1731.15
395.90	2022.16
396.11	2074.80
396.32	1809.18
396.53	1921.81
396.74	2067.83
396.95	2268.94
397.16	1821.26
397.37	1712.92
397.58	2225.32
397.79	2065.99
398.00	1881.67
398.21	1836.62
398.42	2117.80
398.63	2443.64
398.84	1816.75
399.05	1788.08
399.26	2300.07
399.47	2178.63
399.68	1691.83
399.89	1740.36
400.10	1890.89
400.31	2005.99
400.52	1890.28
400.73	1808.15
400.94	1858.12
401.15	2161.63
401.36	1866.93
401.57	1855.05
401.78	2289.63
401.99	2269.56
402.20	1784.19
402.41	1961.34
402.62	2355.78
402.83	2057.18
403.04	1773.95
403.25	2016.23
403.46	2115.14
403.67	2297.62
403.88	1818.39
404.09	1794.43
404.30	1964.21
404.51	1938.20
404.72	1752.45
404.93	1965.85
405.14	1945.16
405.35	2089.13
405.56	1851.98
405.77	1781.12
405.98	2127.63
406.19	2037.11
406.40	1772.52
406.61	1804.87
406.82	1989.81
407.03	2491.15
407.24	1756.95
407.45	1850.54
407.66	2160.81
407.87	2242.32
408.08	1903.38
408.29	1907.89
408.49	2199.11
408.70	2094.05
408.91	1819.62
409.12	1970.76
409.33	1919.97
409.54	2304.78
409.75	1784.80
409.96	1847.27
410.17	2246.83
410.38	2054.52
410.59	1797.50
410.80	1940.25
411.01	2076.64
411.22	2056.78
411.43	1922.84
411.64	1800.57
411.85	1932.67
412.06	1935.33
412.27	1639.81
412.47	1788.08
412.68	2060.26
412.89	2172.69
413.10	1812.86
413.31	1743.23
413.52	2421.31
413.73	2391.82
413.94	1768.83
414.15	1941.68
414.36	1982.43
414.57	1928.16
414.78	1727.05
414.99	1744.05
415.19	2185.39
415.40	2108.59
415.61	1979.77
415.82	1867.54
416.03	2176.38
416.24	2123.13
416.45	1830.27
416.66	1744.25
416.87	1850.75
417.08	2159.99
417.29	1765.96
417.50	1865.29
417.70	2181.29
417.91	2135.01
418.12	1869.59
418.33	1809.59
418.54	2143.40
418.75	2254.40
418.96	1941.06
419.17	1877.58
419.38	2307.86
419.59	2139.72
419.79	1905.02
420.00	1862.22
420.21	2575.94
420.42	2067.83
420.63	1804.06
420.84	1850.54
421.05	2070.91
421.26	2083.40
421.47	1737.91
421.67	2156.92
421.88	1983.66
422.09	1922.22
422.30	2067.01
422.51	1851.57
422.72	2401.04
422.93	2249.90
423.14	1852.59
423.35	1713.33
423.55	1843.99
423.76	1940.66
423.97	1836.21
424.18	1692.65
424.39	2024.83
424.60	2231.67
424.81	1843.58
425.02	1902.36
425.22	2014.18
425.43	2026.87
425.64	2031.38
425.85	1850.13
426.06	2449.58
426.27	2255.43
426.48	1935.54
426.68	1909.94
426.89	2222.25
427.10	2389.98
427.31	1842.76
427.52	1770.06
427.73	2183.13
427.94	2145.04
428.14	1982.02
428.35	1885.77
428.56	2320.14
428.77	2250.31
428.98	1861.60
429.19	1848.91
429.40	1995.75
429.60	2025.65
429.81	1969.94
430.02	1858.12
430.23	2055.34
430.44	2174.94
430.65	1809.79
430.85	1855.87
431.06	2172.89
431.27	1842.15
431.48	1849.11
431.69	1870.00
431.90	2098.55
432.10	2113.09
432.31	1917.92
432.52	1837.44
432.73	2514.09
432.94	2332.64
433.15	1999.84
433.35	1840.71
433.56	2274.27
433.77	2105.52
433.98	2115.76
434.19	2002.09
434.40	2314.41
434.60	2310.93
434.81	2152.42
435.02	2028.92
435.23	2162.65
435.44	2063.74
435.64	1790.54
435.85	1808.56
436.06	2047.35
436.27	2019.30
436.48	1766.17
436.68	1806.31
436.89	2394.28
437.10	2269.35
437.31	1967.48
437.52	2050.22
437.73	2206.69
437.93	2187.03
438.14	1978.95
438.35	1762.07
438.56	2026.87
438.77	2042.64
438.97	2017.25
439.18	1829.66
439.39	2287.17
439.60	1909.12
439.80	1831.50
440.01	1848.50
440.22	2014.59
440.43	2207.92
440.64	1800.98
440.84	1906.45
441.05	1906.25
441.26	2560.17
441.47	1934.10
441.68	1877.17
441.88	2199.93
442.09	2244.98
442.30	2200.13
442.51	2213.85
442.71	2287.17
442.92	2303.35
443.13	1984.07
443.34	1888.64
443.55	1980.39
443.75	2221.02
443.96	1835.59
444.17	1783.17
444.38	2246.62
444.58	1944.34
444.79	1936.35
445.00	1881.67
445.21	2084.01
445.41	2040.60
445.62	1668.48
445.83	1947.21
446.04	2109.00
446.24	1856.89
446.45	1689.78
446.66	1828.02
446.87	2152.82
447.07	2014.18
447.28	2052.88
447.49	1857.92
447.70	2233.72
447.90	2256.45
448.11	1885.56
448.32	1977.93
448.53	2323.63
448.73	2309.70
448.94	1858.33
449.15	2019.71
449.36	2089.54
449.56	2156.92
449.77	1829.66
449.98	1785.62
450.19	2011.51
450.39	2013.36
450.60	1914.44
450.81	1898.67
451.02	2038.34
451.22	2315.23
451.43	1805.28
451.64	1826.58
451.84	2034.86
452.05	2270.58
452.26	1878.40
452.47	1888.84
452.67	1994.31
452.88	2348.20
453.09	1788.70
453.30	1806.10
453.50	2209.55
453.71	2457.77
453.92	1985.30
454.12	2129.89
454.33	2158.76
454.54	2209.96
454.75	1919.56
454.95	1889.87
455.16	2151.60
455.37	2210.58
455.57	1981.61
455.78	1882.29
455.99	2071.32
456.19	2088.11
456.40	1807.33
456.61	1895.60
456.82	2095.28
457.02	2266.08
457.23	2033.63
457.44	2172.28
457.64	2156.92
457.85	2313.59
458.06	2002.30
458.26	2016.02
458.47	2111.05
458.68	2266.28
458.89	1834.16
459.09	2014.18
459.30	2427.46
459.51	2086.68
459.71	1753.47
459.92	1826.17
460.13	2236.59
460.33	2471.28
460.54	1917.51
460.75	1944.75
460.95	1932.87
461.16	2164.50
461.37	1883.31
461.57	1879.42
461.78	2109.00
461.99	1883.72
462.19	2149.55
462.40	1811.02
462.61	2665.64
462.81	2270.17
463.02	1812.66
463.23	1862.83
463.43	2207.71
463.64	1977.31
463.85	3094.48
464.05	1845.83
464.26	2618.33
464.47	2308.47
464.67	2048.79
464.88	2013.97
465.09	2077.05
465.29	2246.01
465.50	2158.76
465.71	2073.36
465.91	2138.08
466.12	2143.61
466.33	1952.33
466.53	1853.21
466.74	2345.54
466.94	2057.39
467.15	1942.09
467.36	2046.54
467.56	1942.09
467.77	2096.71
467.98	1936.97
468.18	1889.05
468.39	2020.32
468.60	2407.18
468.80	1879.22
469.01	1815.73
469.21	2179.24
469.42	2280.41
469.63	1862.63
469.83	1825.15
470.04	2186.62
470.25	2303.15
470.45	2002.09
470.66	1834.78
470.86	2123.13
471.07	2044.28
471.28	1972.40
471.48	1940.86
471.69	2126.20
471.90	2837.26
472.10	2114.94
472.31	2091.39
472.51	2225.94
472.72	2207.51
472.93	1981.00
473.13	2099.17
473.34	2266.08
473.54	2185.18
473.75	1998.00
473.96	2101.83
474.16	2068.04
474.37	2166.75
474.57	1981.41
474.78	1814.71
474.99	2141.36
475.19	2115.14
475.40	1915.87
475.60	1896.21
475.81	2533.54
476.02	2313.39
476.22	2176.99
476.43	2285.53
476.63	2214.67
476.84	2376.46
477.05	1819.62
477.25	1887.82
477.46	2643.31
477.66	2130.71
477.87	1842.35
478.08	1865.90
478.28	2252.15
478.49	2025.24
478.69	1861.60
478.90	1863.24
479.10	2161.02
479.31	2359.87
479.52	1961.13
479.72	2005.17
479.93	2239.04
480.13	2067.22
480.34	1957.24
480.54	2019.50
480.75	1986.73
480.96	2338.17
481.16	1830.88
481.37	2002.09
481.57	2256.45
481.78	2204.64
481.98	2104.29
482.19	1979.98
482.40	2418.04
482.60	2202.39
482.81	2028.31
483.01	1815.52
483.22	2235.15
483.42	2223.07
483.63	1956.42
483.83	1911.78
484.04	2030.15
484.24	2254.40
484.45	2071.52
484.66	1832.93
484.86	2229.83
485.07	1968.51
485.27	1958.88
485.48	1871.23
485.68	2300.28
485.89	1980.59
486.09	2007.83
486.30	1870.21
486.50	2121.90
486.71	2063.94
486.91	1973.42
487.12	2237.20
487.33	2839.30
487.53	2889.07
487.74	2522.69
487.94	2484.60
488.15	2464.53
488.35	2381.58
488.56	2074.80
488.76	1973.22
488.97	2139.10
489.17	2259.11
489.38	2045.31
489.58	1966.05
489.79	2224.91
489.99	2137.26
490.20	1916.49
490.40	2014.59
490.61	2211.19
490.81	1987.76
491.02	1952.94
491.22	1944.96
491.43	2203.20
491.63	2070.70
491.84	2050.84
492.04	1807.54
492.25	2200.54
492.45	2042.23
492.66	1885.56
492.86	1826.17
493.07	2029.13
493.27	2469.44
493.48	1772.52
493.68	1856.48
493.89	2063.74
494.09	2208.53
494.30	1889.46
494.50	2152.21
494.71	2131.73
494.91	1867.13
495.12	1908.50
495.32	1971.37
495.53	2133.16
495.73	1925.71
495.94	2140.95
496.14	1959.91
496.35	2608.91
496.55	2274.68
496.76	1949.87
496.96	1985.30
497.17	2128.04
497.37	2173.10
497.58	1932.67
497.78	1833.75
497.98	2048.58
498.19	2059.03
498.39	1888.23
498.60	1958.27
498.80	1786.65
499.01	2199.31
499.21	1821.26
499.42	1941.06
499.62	2029.33
499.83	2468.62
500.03	1791.36
500.24	2018.68
500.44	2342.26
500.64	2268.53
500.85	1883.52
501.05	2012.74
501.26	1834.78
501.46	2317.07
501.67	1864.06
501.87	1812.25
502.08	1947.00
502.28	2041.82
502.48	1981.41
502.69	2011.92
502.89	1837.85
503.10	1966.46
503.30	1988.78
503.51	1949.05
503.71	1843.79
503.92	2198.70
504.12	1937.79
504.32	1856.28
504.53	2171.46
504.73	2149.55
504.94	2014.18
505.14	2124.97
505.35	2201.16
505.55	2172.28
505.75	1932.46
505.96	2106.34
506.16	2440.77
506.37	1991.85
506.57	1864.47
506.78	1998.41
506.98	2256.25
507.18	1879.83
507.39	1820.85
507.59	1899.08
507.80	1993.49
508.00	2088.52
508.20	2097.53
508.41	1923.86
508.61	2291.47
508.82	2246.62
509.02	2035.89
509.22	1848.50
509.43	1899.70
509.63	1966.46
509.84	1919.15
510.04	1771.49
510.24	2312.77
510.45	2189.28
510.65	1815.52
510.86	1960.52
511.06	1893.35
511.26	2191.74
511.47	2072.54
511.67	1857.71
511.88	2170.64
512.08	2220.00
512.28	1849.73
512.49	1978.95
512.69	2102.24
512.90	2113.91
513.10	1863.04
513.30	1950.69
513.51	2173.51
513.71	2368.07
513.91	1988.37
514.12	1987.55
514.32	2226.35
514.53	1980.39
514.73	1991.44
514.93	1924.07
515.14	2096.71
515.34	2296.80
515.54	1856.89
515.75	1964.62
515.95	2184.98
516.15	2302.33
516.36	1947.62
516.56	1971.58
516.77	1747.94
516.97	2170.03
517.17	1944.55
517.38	2015.61
517.58	2342.47
517.78	2057.18
517.99	1977.93
518.19	1924.48
518.39	2277.96
518.60	1987.96
518.80	1817.57
519.00	1975.06
519.21	2043.67
519.41	2381.99
519.61	1836.21
519.82	2019.50
520.02	2101.01
520.22	2051.04
520.43	1889.05
520.63	1976.90
520.83	1968.30
521.04	1829.86
521.24	2006.39
521.44	1943.32
521.65	1941.27
521.85	2193.37
522.05	1871.64
522.26	1869.39
522.46	2427.46
522.66	2222.05
522.87	1915.87
523.07	2086.88
523.27	2006.39
523.48	2302.33
523.68	1927.34
523.88	1983.46
524.09	2273.45
524.29	2133.98
524.49	1788.70
524.70	2024.83
524.90	2335.71
525.10	2186.41
525.31	1827.40
525.51	1804.26
525.71	2208.32
525.91	2193.37
526.12	1916.28
526.32	1831.09
526.52	1993.29
526.73	1958.47
526.93	1978.54
527.13	1815.11
527.34	2047.15
527.54	2081.15
527.74	1922.43
527.94	1810.81
528.15	1916.49
528.35	2079.10
528.55	2047.97
528.76	1952.53
528.96	1826.79
529.16	2247.03
529.36	2050.22
529.57	1848.91
529.77	2280.82
529.97	1921.61
530.18	2017.25
530.38	1896.01
530.58	2140.54
530.78	2071.11
530.99	1909.32
531.19	1987.55
531.39	1957.45
531.60	2087.70
531.80	1951.92
532.00	2089.75
532.20	2123.95
532.41	1954.79
532.61	1893.14
532.81	1887.00
533.01	2019.09
533.22	2147.91
533.42	2053.50
533.62	1790.95
533.82	2273.65
534.03	2036.70
534.23	2005.37
534.43	1887.00
534.63	1995.54
534.84	2102.04
535.04	2019.30
535.24	1959.50
535.44	2531.08
535.65	1991.24
535.85	1910.14
536.05	1833.96
536.25	2075.21
536.46	1918.95
536.66	2067.01
536.86	1954.38
537.06	2195.22
537.27	2265.05
537.47	1978.54
537.67	1905.23
537.87	2320.35
538.08	2077.66
538.28	1824.13
538.48	1827.40
538.68	2021.14
538.88	2186.62
539.09	1783.99
539.29	1931.85
539.49	2245.19
539.69	2118.83
539.90	2010.08
540.10	1852.59
540.30	2320.76
540.50	2008.44
540.70	1779.68
540.91	1871.84
541.11	2187.03
541.31	2318.10
541.51	1978.13
541.72	2024.83
541.92	2124.77
542.12	1941.47
542.32	1932.26
542.52	1908.30
542.73	1967.07
542.93	2171.46
543.13	1889.25
543.33	2044.49
543.53	2199.52
543.74	2168.59
543.94	1866.31
544.14	2033.22
544.34	2251.95
544.54	2043.87
544.75	2005.37
544.95	2097.53
545.15	2195.01
545.35	2312.36
545.55	2064.56
545.75	1961.95
545.96	2447.12
546.16	1963.59
546.36	1925.09
546.56	1966.25
546.76	2254.40
546.97	2381.38
547.17	1949.67
547.37	2028.72
547.57	2007.62
547.77	2175.56
547.97	2024.83
548.18	2002.91
548.38	2061.89
548.58	2291.68
548.78	1876.35
548.98	1946.59
549.18	2213.65
549.39	2336.73
549.59	2019.91
549.79	1993.29
549.99	2329.15
550.19	2230.24
550.39	2087.49
550.60	1967.48
550.80	2130.71
551.00	2158.35
551.20	1919.77
551.40	1948.44
551.60	2136.65
551.80	2115.55
552.01	2025.65
552.21	1949.46
552.41	2111.46
552.61	2378.10
552.81	2036.70
553.01	1866.93
553.21	2150.78
553.42	1937.79
553.62	1925.09
553.82	1849.73
554.02	2358.03
554.22	2224.50
554.42	1837.44
554.62	2051.86
554.83	2343.70
555.03	2308.68
555.23	1943.52
555.43	2209.14
555.63	2099.99
555.83	2102.04
556.03	1996.56
556.23	1809.59
556.44	2090.57
556.64	2298.44
556.84	1681.79
557.04	1943.32
557.24	2105.52
557.44	2082.99
557.64	1980.80
557.84	1867.95
558.04	2007.62
558.25	2183.75
558.45	1849.32
558.65	1955.40
558.85	2075.82
559.05	1816.34
559.25	1945.57
559.45	2020.73
559.65	2433.40
559.85	2886.82
560.05	1960.32
560.26	2028.10
560.46	2043.87
560.66	1957.04
560.86	1880.04
561.06	1833.55
561.26	2319.53
561.46	2179.24
561.66	1913.83
561.86	2045.10
562.06	1935.33
562.26	2042.85
562.47	1969.94
562.67	1826.79
562.87	2178.22
563.07	1845.02
563.27	1969.74
563.47	1959.50
563.67	2004.96
563.87	2178.42
564.07	1880.24
564.27	1911.37
564.47	2079.92
564.67	2123.74
564.87	1889.05
565.08	1971.78
565.28	1963.39
565.48	2142.99
565.68	2014.79
565.88	2080.74
566.08	2408.82
566.28	2090.98
566.48	1834.78
566.68	1962.98
566.88	2031.38
567.08	2232.70
567.28	1975.47
567.48	1958.27
567.68	2152.01
567.88	1858.53
568.08	1964.00
568.28	2097.94
568.48	2054.11
568.68	2253.58
568.89	1987.76
569.09	1807.95
569.29	2231.47
569.49	2200.95
569.69	1872.87
569.89	1872.46
570.09	1788.29
570.29	1973.83
570.49	1817.16
570.69	1931.85
570.89	2225.12
571.09	2418.65
571.29	1864.88
571.49	2098.55
571.69	2120.88
571.89	2141.36
572.09	1947.41
572.29	1976.90
572.49	2222.46
572.69	2177.61
572.89	2000.25
573.09	1672.58
573.29	2049.81
573.49	2073.77
573.69	1912.80
573.89	1975.68
574.09	1986.94
574.29	2272.22
574.49	1958.06
574.69	1859.56
574.89	1890.28
575.09	1891.09
575.29	1834.78
575.49	1937.79
575.69	2139.51
575.89	1872.87
576.09	1947.21
576.29	1974.65
576.49	1920.38
576.69	2028.92
576.89	1904.61
577.09	1979.57
577.29	1811.43
577.49	2374.62
577.69	1891.09
577.89	2066.81
578.09	2087.08
578.29	1790.95
578.49	1977.93
578.69	1854.03
578.89	2237.82
579.09	2079.71
579.29	1854.03
579.49	2057.39
579.69	2002.91
579.89	2342.47
580.09	1718.04
580.29	1780.09
580.49	1983.66
580.69	1894.17
580.89	1882.90
581.09	1916.90
581.29	1990.83
581.49	2065.79
581.69	1874.71
581.89	1879.01
582.09	1946.18
582.28	1919.36
582.48	2011.72
582.68	2089.34
582.88	2282.46
583.08	2025.44
583.28	1958.27
583.48	1958.27
583.68	1920.59
583.88	2076.85
584.08	1960.93
584.28	1992.88
584.48	2420.90
584.68	2155.90
584.88	1907.07
585.08	2129.27
585.28	2239.45
585.48	2277.75
585.68	2016.23
585.87	2077.05
586.07	2126.82
586.27	2041.42
586.47	2018.07
586.67	1927.34
586.87	2065.38
587.07	2035.89
587.27	1862.83
587.47	1993.49
587.67	2341.85
587.87	2521.46
588.07	1982.23
588.27	1894.78
588.46	2186.21
588.66	2218.36
588.86	1930.21
589.06	1985.30
589.26	2215.90
589.46	2173.30
589.66	1846.86
589.86	1837.85
590.06	1999.02
590.26	2107.56
590.46	1878.40
590.66	1999.43
590.85	1909.12
591.05	2073.98
591.25	1840.10
591.45	1943.73
591.65	2150.78
591.85	2068.45
592.05	1867.13
592.25	2000.05
592.45	2206.07
592.64	1984.07
592.84	1927.75
593.04	1874.51
593.24	2500.77
593.44	1968.10
593.64	1976.90
593.84	2005.58
594.04	2001.48
594.24	2303.56
594.43	1950.08
594.63	1956.01
594.83	2225.94
595.03	2221.02
595.23	1848.70
595.43	1815.93
595.63	1952.53
595.83	2237.61
596.02	1747.94
596.22	1922.63
596.42	2115.96
596.62	2036.30
596.82	1926.52
597.02	1981.82
597.22	2317.69
597.41	2104.90
597.61	1897.85
597.81	2063.53
598.01	2175.15
598.21	1994.52
598.41	1820.03
598.61	1838.26
598.80	2069.27
599.00	2098.35
599.20	2106.34
599.40	1932.87
599.60	2009.06
599.80	2191.33
599.99	2061.69
600.19	1903.38
600.39	2061.89
600.59	2153.44
600.79	2028.10
600.99	1943.32
601.19	2338.37
601.38	2394.08
601.58	2019.71
601.78	1694.69
601.98	2137.87
602.18	2140.74
602.37	2188.05
602.57	1987.96
602.77	2201.77
602.97	2121.90
603.17	2150.57
603.37	2062.92
603.56	2253.18
603.76	2199.52
603.96	1981.61
604.16	2016.84
604.36	2313.18
604.56	2229.21
604.75	1883.31
604.95	1990.83
605.15	2283.49
605.35	2229.62
605.55	1904.00
605.74	1859.76
605.94	2265.26
606.14	2058.62
606.34	1986.73
606.54	1987.76
606.73	1988.78
606.93	2200.13
607.13	1902.77
607.33	2011.31
607.53	2337.14
607.72	2246.62
607.92	2038.34
608.12	2098.76
608.32	2047.15
608.51	2171.87
608.71	1844.81
608.91	1993.70
609.11	2173.30
609.31	2000.05
609.50	1930.62
609.70	2142.99
609.90	2197.68
610.10	2223.68
610.29	1910.35
610.49	1847.47
610.69	2200.54
610.89	2072.54
611.09	1944.96
611.28	2129.48
611.48	2263.42
611.68	2049.40
611.88	1917.92
612.07	1872.05
612.27	2206.28
612.47	1948.64
612.67	1977.72
612.86	2054.52
613.06	2076.85
613.26	1828.43
613.46	1909.12
613.65	2011.51
613.85	2558.94
614.05	2198.70
614.25	2034.25
614.44	1931.03
614.64	2048.58
614.84	1956.22
615.04	1866.72
615.23	1902.77
615.43	2136.24
615.63	2164.70
615.83	1869.39
616.02	1799.55
616.22	2132.35
616.42	1862.01
616.62	1828.43
616.81	1926.11
617.01	2082.99
617.21	2075.00
617.41	1839.69
617.60	1967.69
617.80	2157.54
618.00	2185.39
618.19	2055.96
618.39	1952.33
618.59	2172.89
618.79	2075.41
618.98	1798.73
619.18	1945.98
619.38	2463.91
619.57	2043.67
619.77	1959.70
619.97	1934.31
620.17	1946.39
620.36	1869.18
620.56	2105.31
620.76	1832.11
620.95	1867.34
621.15	1963.80
621.35	1862.22
621.54	1968.51
621.74	2074.18
621.94	1948.23
622.14	1826.17
622.33	1815.32
622.53	2027.90
622.73	2015.61
622.92	1808.56
623.12	1935.74
623.32	2405.34
623.51	2201.57
623.71	1811.22
623.91	2093.02
624.10	1907.07
624.30	2079.92
624.50	1820.23
624.69	1812.86
624.89	2707.62
625.09	2023.60
625.29	1724.18
625.48	1848.91
625.68	2116.99
625.88	2282.05
626.07	2003.12
626.27	1857.71
626.47	1981.82
626.66	1815.11
626.86	1949.05
627.06	1935.94
627.25	2071.73
627.45	2340.01
627.64	1927.14
627.84	2100.19
628.04	1953.35
628.23	2418.65
628.43	1827.81
628.63	1841.53
628.82	2004.96
629.02	2350.66
629.22	1978.13
629.41	2090.36
629.61	2068.45
629.81	2362.95
630.00	1866.72
630.20	1842.76
630.40	2081.76
630.59	2133.98
630.79	1944.14
630.98	1900.92
631.18	2028.92
631.38	2053.29
631.57	2050.43
631.77	1800.78
631.97	2091.59
632.16	2133.98
632.36	1968.92
632.56	1998.41
632.75	2129.27
632.95	2248.87
633.14	1805.69
633.34	2109.00
633.54	1778.46
633.73	2011.72
633.93	1903.59
634.12	1773.34
634.32	2516.95
634.52	2083.60
634.71	1788.49
634.91	1996.36
635.11	1897.85
635.30	1980.18
635.50	1974.86
635.69	1826.17
635.89	2378.31
636.09	2204.02
636.28	1820.44
636.48	1830.06
636.67	2142.38
636.87	2163.47
637.07	2010.49
637.26	1870.61
637.46	2074.39
637.65	2211.81
637.85	1991.04
638.04	1856.89
638.24	1975.47
638.44	2111.66
638.63	1957.24
638.83	1921.20
639.02	2126.61
639.22	2166.34
639.42	1933.69
639.61	1928.57
639.81	2089.95
640.00	2034.04
640.20	2079.92
640.39	1977.52
640.59	2401.86
640.79	2173.30
640.98	1984.89
641.18	1867.95
641.37	2028.51
641.57	1925.50
641.76	1957.04
641.96	1736.27
642.15	2007.01
642.35	1930.62
642.55	1975.47
642.74	1807.54
642.94	2175.56
643.13	2287.79
643.33	1888.43
643.52	1872.87
643.72	1999.64
643.91	2063.74
644.11	1829.25
644.31	1879.83
644.50	1948.03
644.70	2260.34
644.89	1958.47
645.09	2012.74
645.28	2077.25
645.48	2140.13
645.67	1840.10
645.87	1764.94
646.06	1986.53
646.26	2107.97
646.45	1738.93
646.65	1688.55
646.84	2355.98
647.04	1992.67
647.24	1808.77
647.43	1917.92
647.63	2106.95
647.82	2346.97
648.02	1826.17
648.21	1884.34
648.41	2292.29
648.60	2008.03
648.80	2064.35
648.99	1941.47
649.19	1973.22
649.38	1811.43
649.58	1932.26
649.77	1997.38
649.97	2271.81
650.16	2163.06
650.36	1685.07
650.55	2080.12
650.75	2104.70
650.94	2320.96
651.14	1942.29
651.33	1998.20
651.53	2326.70
651.72	1937.17
651.92	1922.84
652.11	1774.16
652.31	2133.98
652.50	2133.98
652.70	1956.83
652.89	1799.75
653.09	2292.91
653.28	1981.82
653.48	1723.16
653.67	1738.52
653.87	2574.71
654.06	2063.33
654.25	2138.08
654.45	1876.35
654.64	1996.56
654.84	2021.35
655.03	1727.26
655.23	2083.40
655.42	2201.57
655.62	2414.76
655.81	2068.65
656.01	1901.74
656.20	2253.99
656.40	2387.93
656.59	1986.12
656.79	2112.27
656.98	2110.43
657.17	2221.64
657.37	1933.28
657.56	1907.68
657.76	2136.65
657.95	2233.31
658.15	1587.79
658.34	1970.56
658.54	2039.57
658.73	1861.60
658.92	1895.19
659.12	1932.26
659.31	2157.54
659.51	1884.75
659.70	1972.19
659.90	1860.99
660.09	2204.43
660.29	2007.01
660.48	1819.21
660.67	2073.36
660.87	1970.56
661.06	2090.57
661.26	2012.54
661.45	2038.96
661.65	2136.65
661.84	1967.07
662.03	1854.85
662.23	1898.88
662.42	2411.48
662.62	1880.65
662.81	1812.66
663.00	1889.66
663.20	2100.60
663.39	2146.07
663.59	2061.28
663.78	1916.49
663.97	2013.15
664.17	2241.50
664.36	1819.21
664.56	1887.20
664.75	2184.16
664.94	2189.89
665.14	1986.12
665.33	1920.59
665.53	2056.78
665.72	2023.19
665.91	2000.25
666.11	1939.22
666.30	2061.08
666.50	2067.42
666.69	1968.51
666.88	1890.28
667.08	2041.21
667.27	2005.78
667.47	1916.28
667.66	1898.06
667.85	2246.62
668.05	2065.99
668.24	1842.35
668.43	2096.30
668.63	1999.02
668.82	2228.80
669.02	2007.01
669.21	1935.33
669.40	1858.53
669.60	2377.90
669.79	1748.56
669.98	2547.47
670.18	1915.47
670.37	1853.00
670.56	1898.88
670.76	1996.56
670.95	2037.93
671.15	2167.98
671.34	1904.61
671.53	1934.92
671.73	1977.93
671.92	1947.00
672.11	1856.89
672.31	1870.61
672.50	2102.65
672.69	1845.22
672.89	1673.80
673.08	1905.02
673.27	2174.94
673.47	2104.49
673.66	1946.80
673.85	1791.15
674.05	2065.58
674.24	2049.20
674.43	1797.71
674.63	1971.17
674.82	2412.10
675.01	1711.28
675.21	2009.47
675.40	1890.48
675.59	1953.56
675.79	2306.83
675.98	1888.43
676.17	2058.00
676.37	2082.37
676.56	1968.10
676.75	1905.02
676.95	1937.17
677.14	2016.02
677.33	2193.99
677.52	1814.30
677.72	1850.75
677.91	2087.90
678.10	1831.29
678.30	1835.18
678.49	1839.08
678.68	2414.96
678.88	1764.73
679.07	2072.95
679.26	1903.38
679.45	2386.50
679.65	2285.53
679.84	1761.87
680.03	1775.38
680.23	1991.44
680.42	2502.62
680.61	1834.16
680.81	1865.49
681.00	2059.23
681.19	2117.19
681.38	2022.78
681.58	1969.12
681.77	1987.76
681.96	2175.15
682.15	1824.94
682.35	2012.95
682.54	2103.67
682.73	1884.54
682.93	1837.03
683.12	1829.45
683.31	2199.31
683.50	2508.35
683.70	1817.78
683.89	1941.68
684.08	1883.11
684.27	2243.96
684.47	1788.29
684.66	1927.34
684.85	2403.09
685.04	2263.62
685.24	1854.03
685.43	1882.90
685.62	1787.67
685.81	2109.61
686.01	1971.37
686.20	1817.16
686.39	1812.86
686.58	2369.30
686.78	1948.64
686.97	1914.85
687.16	2197.27
687.35	2088.31
687.55	1893.55
687.74	1929.80
687.93	1879.42
688.12	1988.99
688.32	1928.37
688.51	1742.62
688.70	2109.20
688.89	1865.70
689.08	1755.52
689.28	1845.63
689.47	2078.48
689.66	2061.89
689.85	2006.39
690.05	1847.27
690.24	1940.04
690.43	2079.10
690.62	1947.41
690.81	1864.68
691.01	2085.24
691.20	1986.53
691.39	1781.32
691.58	1960.73
691.77	2337.55
691.97	2047.15
692.16	1972.81
692.35	1911.57
692.54	1976.29
692.73	2112.68
692.93	1956.22
693.12	1960.52
693.31	2078.07
693.50	2069.47
693.69	2002.71
693.89	1853.41
694.08	2272.02
694.27	2246.01
694.46	1871.64
694.65	1930.82
694.85	2129.68
695.04	2102.65
695.23	1856.07
695.42	2045.10
695.61	2131.32
695.80	2220.41
696.00	2199.11
696.19	2213.85
696.38	2004.55
696.57	2182.93
696.76	2061.89
696.95	1944.34
697.15	2306.83
697.34	2317.28
697.53	1906.66
697.72	2012.54
697.91	2005.17
698.10	2284.51
698.30	1877.58
698.49	1912.19
698.68	2099.99
698.87	1980.80
699.06	1864.06
699.25	1932.46
699.45	2198.90
699.64	2069.06
699.83	2076.23
700.02	1870.21
700.21	2130.91
700.40	1966.46
700.59	1871.23
700.79	1924.07
700.98	2161.43
701.17	1936.56
701.36	1829.25
701.55	1835.59
701.74	2187.23
701.93	1835.39
702.12	1863.86
702.32	1810.40
702.51	2183.95
702.70	2146.48
702.89	1933.90
703.08	1896.62
703.27	2242.32
703.46	2127.84
703.65	1826.17
703.85	1779.28
704.04	1926.11
704.23	2231.67
704.42	1820.85
704.61	1864.47
704.80	2321.99
704.99	1933.90
705.18	1987.55
705.37	1897.24
705.57	2101.01
705.76	2256.86
705.95	1905.23
706.14	2212.83
706.33	2408.21
706.52	2644.54
706.71	2102.65
706.90	2000.05
707.09	2227.17
707.28	2140.95
707.47	1849.73
707.67	2022.37
707.86	1927.55
708.05	2216.11
708.24	1902.36
708.43	1949.87
708.62	1980.39
708.81	1930.42
709.00	1846.86
709.19	1856.48
709.38	2197.68
709.57	1852.18
709.76	1931.64
709.96	1838.87
710.15	2281.23
710.34	2029.74
710.53	2033.22
710.72	1901.33
710.91	2259.52
711.10	2145.66
711.29	1967.28
711.48	1862.42
711.67	1861.40
711.86	2109.82
712.05	1798.12
712.24	1798.94
712.43	2081.35
712.62	2279.59
712.81	1933.69
713.00	2082.17
713.19	1878.40
713.39	2123.33
713.58	1792.59
713.77	1928.98
713.96	2102.24
714.15	1990.01
714.34	1887.61
714.53	1742.82
714.72	2370.32
714.91	1838.67
715.10	1971.17
715.29	1801.39
715.48	2523.10
715.67	2146.27
715.86	1917.72
716.05	1872.46
716.24	1996.16
716.43	1939.43
716.62	1815.52
716.81	1789.72
717.00	1979.98
717.19	2294.13
717.38	1880.44
717.57	1870.61
717.76	1845.63
717.95	2212.01
718.14	1923.25
718.33	1918.33
718.52	1823.31
718.71	1803.03
718.90	1811.63
719.09	1836.62
719.28	2052.68
719.47	2194.19
719.66	1977.72
719.85	1990.22
720.04	1972.19
720.23	2009.47
720.42	1817.98
720.61	1977.52
720.80	1826.79
720.99	2093.43
721.18	1848.70
721.37	1831.50
721.56	1976.90
721.75	2170.23
721.94	1818.60
722.13	1857.71
722.32	1976.70
722.51	2173.30
722.70	1935.13
722.89	1997.18
723.08	2018.89
723.27	2224.71
723.46	1982.64
723.65	1956.42
723.84	1973.83
724.03	2270.17
724.22	1788.08
724.41	1922.43
724.60	2013.97
724.79	2197.47
724.98	1945.16
725.16	1857.71
725.35	2148.32
725.54	1899.49
725.73	1951.30
725.92	1925.91
726.11	1957.45
726.30	2138.28
726.49	1821.46
726.68	1863.65
726.87	2078.28
727.06	2258.70
727.25	1870.61
727.44	1954.38
727.63	2010.90
727.82	1954.38
728.01	1946.39
728.20	1975.88
728.38	2285.74
728.57	1999.43
728.76	1862.63
728.95	2025.44
729.14	1855.05
729.33	1869.18
729.52	1660.70
729.71	1823.10
729.90	1876.96
730.09	1956.42
730.28	1814.09
730.47	1818.19
730.66	2205.46
730.84	2020.73
731.03	1906.04
731.22	1911.37
731.41	2050.84
731.60	2099.78
731.79	1725.00
731.98	1808.36
732.17	2127.84
732.36	2118.83
732.55	1858.12
732.73	1769.85
732.92	2230.85
733.11	2111.05
733.30	1833.75
733.49	1765.55
733.68	2113.30
733.87	2064.76
734.06	1774.16
734.25	1784.80
734.43	1902.97
734.62	2049.81
734.81	1847.47
735.00	1808.77
735.19	1964.00
735.38	2096.92
735.57	1740.98
735.76	1939.43
735.94	2080.12
736.13	2355.98
736.32	1979.77
736.51	1893.14
736.70	2321.17
736.89	2349.43
737.08	2059.44
737.27	2150.57
737.45	2473.13
737.64	2295.98
737.83	2279.39
738.02	2255.43
738.21	2465.55
738.40	2489.31
738.59	2036.09
738.77	2104.70
738.96	1985.71
739.15	2104.29
739.34	2079.71
739.53	2041.82
739.72	2318.71
739.90	2231.88
740.09	1854.03
740.28	1935.13
740.47	2165.32
740.66	2138.08
740.85	1800.98
741.03	1871.43
741.22	1867.54
741.41	2004.96
741.60	1752.86
741.79	1950.69
741.98	2264.85
742.16	2320.14
742.35	1929.80
742.54	1909.94
742.73	2355.37
742.92	1950.90
743.10	1745.48
743.29	1820.85
743.48	2431.14
743.67	1934.31
743.86	1723.98
744.05	1796.27
744.23	1877.17
744.42	1864.88
744.61	1911.16
744.80	1759.61
744.99	1937.17
745.17	1748.35
745.36	1753.27
745.55	1950.08
745.74	2024.83
745.93	1896.01
746.11	1809.59
746.30	1758.39
746.49	2179.45
746.68	1887.82
746.86	1879.01
747.05	1814.50
747.24	2122.92
747.43	2142.38
747.62	1773.95
747.80	1812.86
747.99	2209.96
748.18	2133.78
748.37	1902.15
748.56	1956.63
748.74	2182.73
748.93	2027.90
749.12	2065.17
749.31	2342.88
749.49	2570.61
749.68	2803.46
749.87	2914.26
750.06	2750.22
750.24	2847.91
750.43	2807.15
750.62	2619.76
750.81	2746.33
750.99	2949.89
751.18	2922.25
751.37	2538.87
751.56	2595.60
751.74	2980.82
751.93	3060.48
752.12	2169.62
752.31	2133.16
752.49	2224.71
752.68	2509.58
752.87	2025.65
753.06	1997.38
753.24	2078.89
753.43	2273.86
753.62	1888.43
753.81	1888.02
753.99	2309.90
754.18	2123.13
754.37	1823.10
754.55	1883.52
754.74	2339.39
754.93	1770.47
755.12	1839.69
755.30	1771.08
755.49	2192.35
755.68	2050.43
755.86	1954.58
756.05	1758.80
756.24	2265.46
756.43	1835.18
756.61	1816.34
756.80	1930.42
756.99	2252.15
757.17	2001.68
757.36	1791.36
757.55	1849.11
757.74	2114.73
757.92	2031.79
758.11	1783.58
758.30	1717.63
758.48	1985.71
758.67	1819.01
758.86	1905.43
759.04	1774.36
759.23	1932.46
759.42	2009.06
759.60	1811.63
759.79	1896.01
759.98	1965.03
760.16	1884.95
760.35	1846.45
760.54	1776.82
760.73	2075.21
760.91	1811.43
761.10	1863.04
761.29	1950.28
761.47	2012.33
761.66	2401.45
761.85	1902.36
762.03	2050.02
762.22	2243.55
762.41	2559.96
762.59	2732.60
762.78	2905.04
762.97	3504.89
763.15	3477.86
763.34	3197.90
763.52	2741.82
763.71	2874.53
763.90	2957.47
764.08	2534.36
764.27	2548.29
764.46	2747.96
764.64	2401.24
764.83	2329.36
765.02	2231.67
765.20	2342.88
765.39	2328.95
765.58	1942.70
765.76	1966.05
765.95	2124.56
766.13	2079.10
766.32	1872.25
766.51	1879.42
766.69	2786.06
766.88	2075.41
767.07	1782.35
767.25	1651.07
767.44	2219.38
767.62	2225.12
767.81	1811.22
768.00	1867.13
768.18	2033.63
768.37	1923.66
768.56	1701.66
768.74	1834.78
768.93	1810.20
769.11	2087.29
769.30	1925.30
769.49	1833.14
769.67	1988.37
769.86	1934.92
770.04	1857.71
770.23	1821.87
770.42	2250.10
770.60	2029.54
770.79	1800.57
770.97	1821.05
771.16	2214.47
771.35	2082.58
771.53	2018.68
771.72	2084.01
771.90	2318.71
772.09	2587.61
772.27	2355.98
772.46	2084.42
772.65	2439.54
772.83	2296.80
773.02	2176.17
773.20	1953.35
773.39	2222.87
773.58	2306.42
773.76	1874.51
773.95	1889.46
774.13	2142.99
774.32	1996.36
774.50	1848.09
774.69	1966.66
774.87	1979.98
775.06	2438.93
775.25	1853.21
775.43	1888.23
775.62	2098.35
775.80	2144.43
775.99	1928.37
776.17	1859.97
776.36	2057.59
776.54	2254.40
776.73	1853.00
776.92	1950.28
777.10	2237.20
777.29	2093.84
777.47	1827.20
777.66	1855.46
777.84	2063.74
778.03	2043.05
778.21	1808.97
778.40	1926.11
778.58	2128.66
778.77	2212.01
778.95	1795.66
779.14	1836.41
779.32	2376.46
779.51	2200.95
779.70	1843.99
779.88	1772.72
780.07	1957.86
780.25	2503.03
780.44	1902.97
780.62	1983.25
780.81	2127.43
780.99	2105.11
781.18	1857.30
781.36	1833.34
781.55	2012.74
781.73	2306.63
781.92	1811.63
782.10	1775.59
782.29	2097.94
782.47	2293.72
782.66	1870.82
782.84	1748.56
783.03	1918.95
783.21	2228.19
783.40	1829.45
783.58	1827.40
783.77	1931.44
783.95	2002.71
784.14	1840.30
784.32	1917.92
784.51	2228.80
784.69	1901.13
784.88	1745.48
785.06	1856.48
785.24	1811.84
785.43	2178.22
785.61	1945.78
785.80	1811.02
785.98	2132.35
786.17	2029.33
786.35	1755.93
786.54	1937.17
786.72	2175.56
786.91	2170.23
787.09	1870.41
787.28	1766.99
787.46	2052.27
787.65	2171.67
787.83	1720.29
788.01	1842.15
788.20	1825.35
788.38	2014.79
788.57	1822.69
788.75	1826.38
788.94	2299.46
789.12	2248.46
789.31	1929.80
789.49	1969.74
789.67	1953.35
789.86	2095.07
790.04	1815.32
790.23	1701.66
790.41	2384.45
790.60	1981.20
790.78	1816.14
790.96	1843.79
791.15	2129.68
791.33	2004.76
791.52	1875.53
791.70	1779.48
791.89	2026.26
792.07	2191.74
792.25	1892.32
792.44	1757.98
792.62	2221.43
792.81	1938.61
792.99	1860.78
793.17	1813.48
793.36	1901.74
793.54	2329.15
793.73	2026.87
793.91	1930.62
794.10	2355.57
794.28	2451.01
794.46	2133.78
794.65	2128.86
794.83	2085.65
795.01	2166.14
795.20	2188.25
795.38	2086.06
795.57	2209.96
795.75	2203.00
795.93	1966.05
796.12	1973.01
796.30	2182.52
796.49	2172.69
796.67	1798.94
796.85	1979.36
797.04	2057.80
797.22	2135.42
797.40	1803.44
797.59	1928.16
797.77	2041.62
797.96	1911.98
798.14	1780.50
798.32	1862.22
798.51	2149.55
798.69	2351.89
798.87	1890.89
799.06	1867.13
799.24	1779.48
799.42	2152.42
799.61	1913.21
799.79	1922.02
799.98	2447.73
800.16	2086.27
800.34	2128.66
800.53	2265.87
800.71	2338.17
800.89	2794.86
801.08	2514.70
801.26	2471.69
801.44	2372.98
801.63	2257.07
801.81	2183.34
801.99	2122.72
802.18	2192.76
802.36	2232.08
802.54	2113.30
802.73	1888.64
802.91	2116.99
803.09	2142.18
803.28	2053.09
803.46	2019.30
803.64	2331.00
803.83	1897.44
804.01	1826.38
804.19	1785.62
804.38	2158.56
804.56	2099.99
804.74	1888.23
804.92	1887.20
805.11	1852.39
805.29	2207.30
805.47	1842.35
805.66	1740.57
805.84	1823.10
806.02	2157.74
806.21	1822.69
806.39	2020.12
806.57	2156.72
806.76	2153.85
806.94	1894.17
807.12	1815.11
807.30	1884.13
807.49	2008.85
807.67	1907.48
807.85	1987.76
808.04	2149.75
808.22	2414.56
808.40	1795.66
808.58	1737.09
808.77	2101.22
808.95	2253.99
809.13	1853.21
809.31	2196.04
809.50	2386.50
809.68	2519.82
809.86	2197.88
810.05	2301.30
810.23	2840.53
810.41	2895.62
810.59	3863.08
810.78	4527.44
810.96	5081.22
811.14	5430.19
811.32	4866.18
811.51	4272.27
811.69	3959.34
811.87	4045.15
812.05	3516.57
812.24	3366.45
812.42	3524.14
812.60	3495.47
812.78	2828.04
812.97	2688.37
813.15	3034.88
813.33	2728.71
813.51	2511.01
813.70	2189.89
813.88	2183.54
814.06	2254.81
814.24	2105.72
814.42	1864.68
814.61	2160.40
814.79	2370.11
814.97	1790.54
815.15	1840.30
815.34	2063.53
815.52	2174.94
815.70	1821.05
815.88	1885.16
816.06	1877.58
816.25	1959.91
816.43	1844.81
816.61	1977.93
816.79	2259.32
816.98	1759.82
817.16	1786.44
817.34	1792.18
817.52	2050.43
817.70	2251.13
817.89	1897.24
818.07	1770.26
818.25	1995.34
818.43	2076.03
818.61	1870.82
818.80	1851.16
818.98	2342.47
819.16	2065.17
819.34	1778.46
819.52	2133.37
819.70	1888.02
819.89	2028.31
820.07	1764.73
820.25	1731.76
820.43	2081.56
820.61	2180.06
820.80	1871.84
820.98	1778.05
821.16	1787.47
821.34	1848.70
821.52	1848.91
821.70	2020.12
821.89	2056.57
822.07	1965.03
822.25	1906.45
822.43	1836.21
822.61	2295.77
822.79	2081.15
822.98	1870.82
823.16	1734.63
823.34	2085.45
823.52	2247.24
823.70	1934.31
823.88	1731.76
824.06	2139.92
824.25	1991.44
824.43	1981.20
824.61	1791.56
824.79	2026.06
824.97	2065.17
825.15	1971.17
825.33	2124.97
825.52	2284.10
825.70	2115.14
825.88	1977.72
826.06	2043.05
826.24	2182.73
826.42	2259.93
826.60	1987.14
826.78	2061.28
826.97	2077.25
827.15	2286.97
827.33	1898.88
827.51	1931.23
827.69	1964.82
827.87	2092.41
828.05	1981.20
828.23	1819.42
828.41	2201.16
828.60	2170.85
828.78	1771.90
828.96	1987.96
829.14	1930.42
829.32	1990.63
829.50	1874.51
829.68	1865.29
829.86	1942.09
830.04	2135.62
830.22	1978.95
830.41	1788.90
830.59	1982.23
830.77	2127.43
830.95	1842.35
831.13	1850.13
831.31	1897.85
831.49	2190.92
831.67	2018.07
831.85	2005.37
832.03	1999.64
832.21	2129.68
832.39	1749.17
832.57	1781.53
832.76	2178.01
832.94	2022.57
833.12	1674.01
833.30	1876.76
833.48	2213.24
833.66	2060.87
833.84	1814.50
834.02	1909.94
834.20	2158.35
834.38	2164.91
834.56	1717.22
834.74	1793.61
834.92	1826.38
835.10	2335.71
835.28	1898.06
835.46	1899.08
835.64	2011.51
835.82	1905.02
836.01	2163.27
836.19	2072.34
836.37	1938.40
836.55	1890.89
836.73	1792.59
836.91	1794.23
837.09	2140.54
837.27	2258.50
837.45	1745.48
837.63	1749.58
837.81	1815.52
837.99	2029.54
838.17	1907.68
838.35	1811.43
838.53	2378.92
838.71	2108.38
838.89	1799.75
839.07	1811.84
839.25	2046.33
839.43	2149.96
839.61	1849.73
839.79	2133.78
839.97	2317.48
840.15	2406.77
840.33	2198.70
840.51	2424.59
840.69	2305.60
840.87	2312.57
841.05	2173.92
841.23	2121.08
841.41	2326.70
841.59	2690.83
841.77	2540.91
841.95	2642.49
842.13	3137.28
842.31	2772.34
842.49	2467.60
842.67	2481.11
842.85	2626.11
843.03	2334.89
843.21	2196.65
843.39	2366.63
843.57	2402.88
843.75	2365.61
843.93	2078.89
844.11	2114.94
844.29	2233.92
844.47	2135.01
844.65	2166.14
844.83	1986.94
845.01	2050.63
845.19	2249.28
845.36	1967.07
845.54	2009.47
845.72	2089.13
845.90	2183.75
846.08	1821.26
846.26	1942.09
846.44	2109.20
846.62	2133.16
846.80	1986.53
846.98	1820.85
847.16	1999.64
847.34	2059.44
847.52	1832.93
847.70	1745.69
847.88	2020.12
848.06	2238.63
848.24	1993.49
848.41	1778.66
848.59	2224.71
848.77	2102.65
848.95	1873.07
849.13	1844.40
849.31	2192.35
849.49	2082.58
849.67	1834.57
849.85	1772.72
850.03	2122.31
850.21	2069.47
850.39	1787.88
850.57	1961.13
850.74	2248.06
850.92	2254.20
851.10	1967.28
851.28	1914.44
851.46	2227.17
851.64	2538.87
851.82	2023.39
852.00	2079.71
852.18	2428.69
852.36	2301.71
852.53	1951.71
852.71	2049.40
852.89	2164.91
853.07	2210.58
853.25	1904.82
853.43	1789.92
853.61	2105.72
853.79	2136.03
853.97	1855.25
854.14	1853.62
854.32	2273.25
854.50	2167.98
854.68	1879.22
854.86	1875.12
855.04	1908.09
855.22	2190.30
855.40	1734.02
855.57	1826.17
855.75	2147.50
855.93	2099.37
856.11	1736.68
856.29	1834.37
856.47	1902.36
856.65	2092.41
856.82	1801.19
857.00	1777.43
857.18	1993.90
857.36	1960.73
857.54	1954.38
857.72	2030.15
857.89	2148.93
858.07	2074.18
858.25	2082.58
858.43	1772.52
858.61	1977.52
858.79	2013.97
858.97	1814.71
859.14	1937.58
859.32	2003.12
859.50	1947.62
859.68	1937.79
859.86	1803.03
860.03	2055.34
860.21	2096.71
860.39	1833.96
860.57	1972.40
860.75	2093.64
860.93	2346.97
861.10	2081.35
861.28	1810.40
861.46	2058.00
861.64	2114.12
861.82	1853.21
861.99	1944.96
862.17	2185.39
862.35	2189.28
862.53	1898.47
862.71	1891.91
862.88	2096.51
863.06	2128.45
863.24	1841.74
863.42	1797.50
863.60	1995.13
863.77	2133.78
863.95	1698.18
864.13	1870.21
864.31	2018.89
864.49	2168.18
864.66	1775.79
864.84	1816.14
865.02	2093.02
865.20	2505.48
865.37	1963.59
865.55	1800.57
865.73	1825.15
865.91	2123.54
866.09	1971.58
866.26	1876.96
866.44	2168.80
866.62	1971.78
866.80	1775.59
866.97	1878.40
867.15	1983.87
867.33	2059.85
867.51	1915.06
867.68	1897.24
867.86	1924.68
868.04	1927.34
868.22	1647.80
868.39	1837.85
868.57	2091.80
868.75	2264.44
868.93	1754.49
869.10	1826.17
869.28	2331.82
869.46	2235.97
869.64	1855.66
869.81	1819.83
869.99	2104.70
870.17	2062.92
870.35	1798.53
870.52	1855.87
870.70	2213.24
870.88	1923.04
871.05	1796.89
871.23	1685.07
871.41	2030.15
871.59	2022.57
871.76	1847.88
871.94	1785.01
872.12	2037.11
872.29	1821.46
872.47	1868.98
872.65	1765.14
872.83	2078.07
873.00	2248.06
873.18	1865.49
873.36	1787.88
873.53	2156.31
873.71	1820.64
873.89	1774.97
874.06	1864.47
874.24	2108.18
874.42	2257.89
874.60	1971.78
874.77	1947.82
874.95	1920.99
875.13	2228.19
875.30	1834.57
875.48	1792.59
875.66	2310.72
875.83	1925.50
876.01	1816.75
876.19	1949.26
876.36	1853.41
876.54	2025.24
876.72	1765.96
876.89	1925.09
877.07	2134.60
877.25	1754.70
877.42	1877.37
877.60	1866.31
877.78	2325.26
877.95	1969.53
878.13	1750.40
878.31	1981.61
878.48	2167.16
878.66	2155.49
878.84	1811.43
879.01	1852.39
879.19	2107.77
879.37	2158.97
879.54	1875.12
879.72	1722.55
879.90	1714.97
880.07	2162.45
880.25	1627.32
880.42	1990.22
880.60	2092.82
880.78	2140.54
880.95	1835.80
881.13	1899.08
881.31	2038.96
881.48	1963.18
881.66	1796.07
881.83	1973.63
882.01	1919.56
882.19	1807.74
882.36	1896.01
882.54	1825.76
882.72	2140.13
882.89	2070.91
883.07	1805.08
883.24	1831.29
883.42	2157.94
883.60	2046.74
883.77	1765.55
883.95	1851.98
884.12	2171.46
884.30	2050.43
884.48	1992.88
884.65	1882.90
884.83	2081.76
885.00	2082.17
885.18	1744.46
885.36	1849.52
885.53	2115.14
885.71	2249.69
885.88	1762.89
886.06	1828.63
886.23	2127.23
886.41	1961.75
886.59	1837.64
886.76	1773.34
886.94	2136.03
887.11	2514.09
887.29	1841.94
887.47	1781.53
887.64	2244.37
887.82	2280.41
887.99	1692.24
888.17	1884.75
888.34	1986.94
888.52	1875.73
888.69	1843.79
888.87	1795.66
889.05	1992.26
889.22	1959.29
889.40	1840.92
889.57	2059.03
889.75	2317.69
889.92	1984.89
890.10	1762.69
890.27	1895.40
890.45	1927.34
890.62	1757.77
890.80	1756.54
890.98	1669.50
891.15	2285.94
891.33	2202.39
891.50	1810.40
891.68	1725.82
891.85	2174.74
892.03	2148.11
892.20	1770.26
892.38	1773.34
892.55	2160.20
892.73	2170.85
892.90	1728.69
893.08	1823.51
893.25	2010.08
893.43	1958.27
893.60	1891.71
893.78	1676.47
893.95	2112.89
894.13	2007.83
894.30	1801.60
894.48	1841.94
894.65	2180.06
894.83	2066.40
895.00	1685.68
895.18	1672.99
895.35	2174.94
895.53	2138.90
895.70	1731.56
895.88	1961.13
896.05	2109.20
896.23	1820.23
896.40	1820.44
896.58	1896.21
896.75	2169.41
896.93	2256.45
897.10	1851.77
897.28	1728.69
897.45	2067.42
897.63	2162.86
897.80	1939.22
897.98	1818.60
898.15	2072.13
898.33	1961.54
898.50	1889.87
898.67	1863.04
898.85	2046.94
899.02	2125.18
899.20	2067.83
899.37	1852.59
899.55	2067.63
899.72	2277.75
899.90	1804.26
900.07	1797.30
900.25	2118.62
900.42	2198.90
900.59	1815.11
900.77	1930.42
900.94	2127.02
901.12	2096.71
901.29	1814.91
901.47	1977.11
901.64	2131.12
901.82	2013.56
901.99	1637.15
902.16	1791.15
902.34	2221.64
902.51	2082.17
902.69	1810.20
902.86	1873.69
903.03	2607.06
903.21	2047.35
903.38	1816.96
903.56	1781.12
903.73	2200.95
903.91	1964.21
904.08	1789.11
904.25	1675.03
904.43	1914.85
904.60	2161.43
904.78	1818.19
904.95	1735.45
905.12	1968.10
905.30	2304.58
905.47	1915.47
905.65	1968.10
905.82	1992.26
905.99	2093.02
906.17	1817.98
906.34	1796.68
906.52	1871.02
906.69	2103.67
906.86	1909.12
907.04	1874.30
907.21	2183.54
907.38	2200.54
907.56	1786.44
907.73	1770.67
907.91	2289.63
908.08	2199.93
908.25	1843.99
908.43	1754.49
908.60	2130.71
908.77	2063.33
908.95	1841.12
909.12	1717.22
909.30	2157.74
909.47	1807.95
909.64	1858.74
909.82	2024.83
909.99	1996.36
910.16	2023.80
910.34	1811.02
910.51	1802.42
910.68	2069.47
910.86	2025.65
911.03	1684.45
911.20	1781.73
911.38	2191.33
911.55	2440.97
911.72	2321.78
911.90	2218.77
912.07	2550.13
912.24	2769.47
912.42	2197.06
912.59	2046.33
912.76	2366.84
912.94	2239.04
913.11	1930.21
913.28	1866.11
913.46	1883.93
913.63	2109.61
913.80	2156.31
913.98	1804.06
914.15	2165.11
914.32	2233.51
914.49	1938.81
914.67	1737.91
914.84	2070.29
915.01	2097.32
915.19	1892.73
915.36	1790.74
915.53	2165.32
915.71	2111.66
915.88	1906.04
916.05	1818.39
916.22	2203.41
916.40	2063.33
916.57	1733.81
916.74	1980.59
916.92	2270.17
917.09	1905.84
917.26	1790.74
917.43	1724.18
917.61	1964.00
917.78	1797.91
917.95	1756.13
918.13	1733.40
918.30	2428.48
918.47	2055.96
918.64	1771.49
918.82	1743.64
918.99	1989.60
919.16	2251.54
919.33	1832.32
919.51	1807.54
919.68	2011.72
919.85	2234.95
920.02	1715.17
920.20	1830.06
920.37	2302.33
920.54	2161.43
920.71	1793.82
920.89	1826.58
921.06	2331.20
921.23	1895.40
921.40	1735.24
921.58	1905.23
921.75	2520.44
921.92	1907.89
922.09	1902.56
922.27	1843.79
922.44	1999.23
922.61	2116.37
922.78	1819.01
922.96	1809.38
923.13	1978.95
923.30	2178.22
923.47	1721.11
923.64	1781.32
923.82	2105.93
923.99	2069.27
924.16	1910.35
924.33	1745.28
924.50	2013.77
924.68	2289.63
924.85	1810.81
925.02	1801.80
925.19	2132.35
925.36	2047.35
925.54	1834.78
925.71	1885.97
925.88	2560.98
926.05	1993.70
926.22	1753.47
926.40	1940.25
926.57	2078.89
926.74	2124.77
926.91	1799.75
927.08	1992.67
927.26	2212.83
927.43	2054.93
927.60	1821.26
927.77	1853.21
927.94	2305.60
928.11	2207.92
928.29	1692.24
928.46	1854.23
928.63	1910.96
928.80	1960.52
928.97	1902.36
929.14	1764.73
929.32	2367.86
929.49	2061.89
929.66	1758.18
929.83	1733.61
930.00	1958.68
930.17	2102.65
930.35	1734.63
930.52	1811.02
930.69	2261.37
930.86	1831.50
931.03	1885.36
931.20	1651.69
931.37	2211.60
931.55	2003.12
931.72	1884.34
931.89	1746.10
932.06	1854.23
932.23	2327.11
932.40	1931.64
932.57	1916.08
932.74	2249.08
932.92	2241.50
933.09	1991.65
933.26	1591.07
933.43	1955.40
933.60	2101.63
933.77	1891.09
933.94	1927.34
934.11	1988.78
934.29	2046.13
934.46	1765.14
934.63	1905.02
934.80	1832.73
934.97	1992.47
935.14	1845.02
935.31	1691.01
935.48	1928.78
935.65	2084.42
935.82	1848.50
936.00	1718.04
936.17	2289.63
936.34	1992.47
936.51	1900.52
936.68	1735.45
936.85	2087.90
937.02	2048.38
937.19	1916.49
937.36	1828.63
937.53	2093.43
937.70	2156.92
937.87	1778.46
938.05	1923.86
938.22	2035.07
938.39	1875.12
938.56	1824.13
938.73	1739.34
938.90	1998.41
939.07	1933.90
939.24	1889.05
939.41	1678.72
939.58	2095.28
939.75	2121.29
939.92	1808.36
940.09	2081.15
940.26	1997.18
940.43	2176.79
940.60	1854.23
940.77	1843.58
940.95	2107.77
941.12	2137.06
941.29	1850.95
941.46	1870.41
941.63	2256.45
941.80	2309.08
941.97	1704.32
942.14	1666.84
942.31	2143.20
942.48	2034.66
942.65	1944.14
942.82	1876.76
942.99	2154.67
943.16	2071.32
943.33	1729.71
943.50	1798.73
943.67	2197.27
943.84	2232.29
944.01	1816.55
944.18	1772.52
944.35	2248.87
944.52	1911.98
944.69	1890.07
944.86	1746.10
945.03	2130.09
945.20	2453.06
945.37	1661.31
945.54	1884.34
945.71	2246.42
945.88	2305.40
946.05	1785.42
946.22	1737.91
946.39	2274.27
946.56	2008.24
946.73	1690.60
946.90	1747.94
947.07	1947.62
947.24	2001.48
947.41	1676.88
947.58	1933.69
947.75	2159.17
947.92	2094.87
948.09	1651.07
948.26	1702.89
948.43	2057.80
948.60	2356.80
948.77	1778.87
948.94	1803.03
949.11	2165.11
949.27	2093.02
949.44	1793.41
949.61	1721.52
949.78	2105.52
949.95	2249.08
950.12	1715.17
950.29	1702.48
950.46	1958.88
950.63	2217.13
950.80	1751.42
950.97	1819.42
951.14	2222.25
951.31	1999.64
951.48	1770.47
951.65	1717.84
951.82	2352.71
951.99	2068.65
952.15	1714.97
952.32	1814.09
952.49	1921.40
952.66	1971.17
952.83	1790.95
953.00	1738.93
953.17	2013.77
953.34	2183.75
953.51	1881.47
953.68	1860.99
953.85	2201.16
954.02	2220.41
954.18	1866.93
954.35	1825.15
954.52	1872.46
954.69	2088.52
954.86	1706.16
955.03	1879.42
955.20	2154.46
955.37	2033.22
955.54	1830.68
955.71	1787.88
955.87	2075.82
956.04	2334.68
956.21	1808.15
956.38	1756.34
956.55	2070.50
956.72	2462.48
956.89	1878.19
957.06	1762.89
957.23	1941.27
957.39	2274.88
957.56	1833.14
957.73	1729.30
957.90	1694.28
958.07	2375.64
958.24	1842.76
958.41	1793.00
958.57	2174.94
958.74	2058.41
958.91	1742.41
959.08	1752.45
959.25	2164.70
959.42	1988.58
959.59	1813.68
959.75	1841.53
959.92	2227.37
960.09	2224.91
960.26	1760.64
960.43	1848.70
960.60	2096.71
960.76	2024.83
960.93	1701.04
961.10	1873.07
961.27	2217.13
961.44	1998.41
961.61	1699.20
961.77	1721.52
961.94	2075.82
962.11	2174.94
962.28	1783.78
962.45	1713.95
962.62	1997.18
962.78	2186.62
962.95	1703.50
963.12	1786.85
963.29	2184.77
963.46	2495.45
963.62	1873.07
963.79	1797.71
963.96	2500.57
964.13	2027.90
964.30	1876.35
964.46	1797.50
964.63	1857.92
964.80	2458.18
964.97	1615.23
965.14	1922.43
965.30	2070.09
965.47	2138.08
965.64	1947.00
965.81	1892.94
965.98	2258.70
966.14	2058.21
966.31	1786.85
966.48	1786.65
966.65	2240.48
966.81	2092.82
966.98	1793.41
967.15	1803.03
967.32	2048.79
967.49	1911.37
967.65	1654.76
967.82	1656.81
967.99	2007.62
968.16	1764.53
968.32	1946.18
968.49	1761.25
968.66	2003.73
968.83	2282.26
968.99	1905.63
969.16	1738.93
969.33	2240.27
969.50	2136.65
969.66	1902.97
969.83	2048.38
970.00	2193.17
970.17	2136.03
970.33	1833.34
970.50	1722.34
970.67	2292.50
970.84	2268.13
971.00	1753.88
971.17	1700.63
971.34	2132.96
971.50	2037.32
971.67	1908.30
971.84	1809.79
972.01	1841.74
972.17	1702.68
972.34	1714.97
972.51	1960.73
972.67	2237.00
972.84	2092.20
973.01	1745.07
973.18	1783.99
973.34	2204.84
973.51	1913.83
973.68	1831.29
973.84	1846.04
974.01	1983.66
974.18	2339.60
974.34	1879.22
974.51	1885.56
974.68	1904.41
974.85	2395.30
975.01	1902.97
975.18	1808.36
975.35	2048.17
975.51	1894.37
975.68	1696.74
975.85	1951.92
976.01	1918.33
976.18	2244.78
976.35	1797.30
976.51	1848.09
976.68	2340.42
976.85	2223.68
977.01	1843.17
977.18	1905.43
977.35	2139.51
977.51	1867.54
977.68	1631.62
977.85	1742.41
978.01	2203.20
978.18	2145.66
978.35	1835.39
978.51	1867.95
978.68	2194.40
978.85	2289.01
979.01	1836.21
979.18	1848.50
979.34	2031.79
979.51	2067.83
979.68	1759.21
979.84	1845.83
980.01	2449.78
980.18	2059.64
980.34	1746.30
980.51	1884.34
980.67	2156.10
980.84	2158.56
981.01	1793.20
981.17	1880.04
981.34	1757.57
981.51	2124.97
981.67	1731.76
981.84	1872.66
982.00	2135.01
982.17	2005.37
982.34	1639.19
982.50	1542.12
982.67	2313.39
982.83	1974.86
983.00	1708.21
983.17	1592.50
983.33	2200.75
983.50	1804.26
983.66	1684.86
983.83	1598.03
984.00	1973.63
984.16	2047.35
984.33	1599.05
984.49	1577.96
984.66	1911.57
984.83	2165.93
984.99	1645.75
985.16	1578.16
985.32	2142.99
985.49	2172.69
985.65	1715.17
985.82	1606.84
985.99	2283.08
986.15	2083.19
986.32	1720.91
986.48	1685.68
986.65	1989.81
986.81	2167.57
986.98	1608.47
987.14	1671.14
987.31	2078.89
987.48	1783.99
987.64	1550.52
987.81	1567.72
987.97	2394.49
988.14	1895.60
988.30	1621.99
988.47	1470.44
988.63	2098.76
988.80	1861.40
988.96	1699.40
989.13	1736.68
989.30	2016.02
989.46	2186.21
989.63	1571.41
989.79	1567.52
989.96	2021.14
990.12	2274.06
990.29	1631.41
990.45	1682.20
990.62	2030.77
990.78	2246.42
990.95	1727.67
991.11	1635.10
991.28	1967.48
991.44	2109.61
991.61	1554.61
991.77	1694.49
991.94	2082.78
992.10	2235.77
992.27	1696.13
992.43	1682.41
992.60	2144.02
992.76	1987.76
992.93	1828.63
993.09	1566.29
993.26	2199.93
993.42	2338.58
993.59	1651.89
993.75	1558.91
993.92	1930.21
994.08	1924.27
994.25	1712.92
994.41	1583.69
994.58	2173.71
994.74	2285.33
994.91	1566.29
995.07	1729.92
995.24	2008.44
995.40	2021.35
995.56	1753.47
995.73	1717.02
995.89	2339.60
996.06	1994.11
996.22	1601.10
996.39	1571.41
996.55	2014.18
996.72	2084.83
996.88	1556.66
997.05	1595.37
997.21	2389.16
997.37	2124.36
997.54	1711.90
997.70	1640.22
997.87	2088.31
998.03	2029.54
998.20	1552.77
998.36	1519.18
998.52	2133.37
998.69	2178.42
998.85	1565.26
999.02	1669.91
999.18	2199.31
999.35	2186.00
999.51	1706.98
999.67	1668.68
999.84	1871.84
1000.00	2153.23
1000.17	1728.69
1000.33	1616.87
1000.49	1944.55
1000.66	2007.01
1000.82	1634.69
1000.99	1713.54
1001.15	2207.10
1001.31	1986.32
1001.48	1649.64
1001.64	1743.85
1001.81	2021.14
1001.97	2417.01
1002.13	1658.65
1002.30	1678.92
1002.46	2273.65
1002.63	1985.71
1002.79	1757.57
1002.95	1619.74
1003.12	2185.39
1003.28	2121.90
1003.45	1606.43
1003.61	1585.54
1003.77	2072.54
1003.94	1821.26
1004.10	1667.87
1004.26	1732.79
1004.43	2107.36
1004.59	2317.28
1004.75	1614.82
1004.92	1574.68
1005.08	1952.53
1005.25	2085.24
1005.41	1636.12
1005.57	1708.01
1005.74	2247.85
1005.90	1949.05
1006.06	1742.21
1006.23	1643.49
1006.39	2153.85
1006.55	2503.03
1006.72	1777.02
1006.88	1565.06
1007.04	1903.59
1007.21	1990.01
1007.37	1642.27
1007.53	1614.21
1007.70	2274.27
1007.86	2154.67
1008.02	1734.22
1008.19	1602.95
1008.35	2077.46
1008.51	1922.43
1008.68	1652.51
1008.84	1596.80
1009.00	1875.73
1009.17	2231.26
1009.33	1820.85
1009.49	1723.57
1009.65	1911.16
1009.82	2094.05
1009.98	1697.36
1010.14	1557.48
1010.31	2165.93
1010.47	2120.06
1010.63	1714.15
1010.80	1699.61
1010.96	2095.48
1011.12	1994.31
1011.28	1646.16
1011.45	1626.70
1011.61	2496.06
1011.77	1886.18
1011.94	1607.66
1012.10	1580.01
1012.26	1855.66
1012.42	1954.79
1012.59	1683.02
1012.75	1680.36
1012.91	2007.62
1013.07	2188.25
1013.24	1632.44
1013.40	1615.23
1013.56	2069.27
1013.72	2034.45
1013.89	1729.30
1014.05	1735.24
1014.21	2376.05
1014.37	2436.88
1014.54	1709.64
1014.70	1602.74
1014.86	2017.86
1015.02	1885.56
1015.19	1622.20
1015.35	1596.39
1015.51	1985.51
1015.67	1957.04
1015.84	1628.95
1016.00	1644.72
1016.16	2213.44
1016.32	2164.91
1016.49	1615.03
1016.65	1586.97
1016.81	2025.03
1016.97	2144.63
1017.14	1747.74
1017.30	1653.33
1017.46	1918.74
1017.62	2082.99
1017.78	1723.98
1017.95	1603.35
1018.11	2176.99
1018.27	2454.70
1018.43	1777.02
1018.59	1716.20
1018.76	2175.97
1018.92	2486.03
1019.08	1603.35
1019.24	1669.09
1019.40	2270.58
1019.57	2078.89
1019.73	1752.65
1019.89	1639.60
1020.05	2082.17
1020.21	2386.50
1020.38	1624.04
1020.54	1778.05
1020.70	2141.15
1020.86	2154.67
1021.02	1637.35
1021.18	1648.21
1021.35	1924.89
1021.51	2127.23
1021.67	1817.78
1021.83	1715.38
1021.99	2050.02
1022.15	2085.65
1022.32	1696.95
1022.48	1690.39
1022.64	2267.92
1022.80	2285.33
1022.96	1701.25
1023.12	1583.28
1023.29	2197.06
1023.45	2099.78
1023.61	1630.39
1023.77	1866.52
1023.93	2095.69
1024.09	1915.87
1024.25	1640.63
1024.42	1556.05
1024.58	1961.75
1024.74	2087.70
1024.90	1663.97
1025.06	1714.15
1025.22	1938.61
1025.38	2302.53
1025.54	1598.23
1025.71	1732.99
1025.87	2139.92
1026.03	2120.06
1026.19	1599.67
1026.35	1816.75
1026.51	2132.14
1026.67	2053.09
1026.83	1686.09
1026.99	1793.41
1027.16	2145.86
1027.32	2031.99
1027.48	1673.40
1027.64	1636.33
1027.80	2118.42
1027.96	2030.56
1028.12	1657.01
1028.28	1641.86
1028.44	2100.81
1028.60	2316.05
1028.77	1778.46
1028.93	1697.15
1029.09	1970.76
1029.25	1882.90
1029.41	1697.97
1029.57	1761.87
1029.73	2100.19
1029.89	2264.23
1030.05	1755.11
1030.21	1734.63
1030.37	2453.88
1030.53	2141.36
1030.69	1702.27
1030.85	1606.84
1031.02	1898.88
1031.18	2026.67
1031.34	1648.41
1031.50	1768.22
1031.66	1934.10
1031.82	2312.57
1031.98	1722.96
1032.14	1597.83
1032.30	1904.00
1032.46	2168.59
1032.62	1788.90
1032.78	1577.76
1032.94	1939.22
1033.10	1983.87
1033.26	1711.49
1033.42	1797.09
1033.58	2382.61
1033.74	1951.71
1033.90	1646.98
1034.06	1804.67
1034.22	2439.75
1034.38	2214.67
1034.54	1691.62
1034.70	1730.53
1034.86	2383.84
>>>>>End Processed Spectral Data<<<<<
