SpectraSuite Data File
++++++++++++++++++++++++++++++++++++
Date: Thu Mar 30 16:17:30 PDT 2017
User: UCSD _CER
Dark Spectrum Present: No
Reference Spectrum Present: No
Number of Sampled Component Spectra: 1
Spectrometers: USB4C00073
Integration Time (usec): 250000 (USB4C00073)
Spectra Averaged: 10 (USB4C00073)
Boxcar Smoothing: 0 (USB4C00073)
Correct for Electrical Dark: No (USB4C00073)
Strobe/Lamp Enabled: No (USB4C00073)
Correct for Detector Non-linearity: No (USB4C00073)
Correct for Stray Light: No (USB4C00073)
Number of Pixels in Processed Spectrum: 3648
>>>>>Begin Processed Spectral Data<<<<<
345.37	1277.52
345.58	1277.52
345.80	1277.52
346.01	1264.42
346.22	1265.03
346.43	1966.87
346.65	1777.84
346.86	2137.26
347.07	2084.42
347.28	1776.41
347.50	1795.04
347.71	1919.77
347.92	1692.44
348.13	1812.25
348.35	1695.31
348.56	1929.80
348.77	1772.93
348.98	1820.44
349.20	1667.05
349.41	1913.01
349.62	1987.96
349.83	1864.27
350.05	1728.90
350.26	1942.70
350.47	2076.23
350.68	1779.28
350.90	1705.75
351.11	2080.74
351.32	2068.86
351.53	1804.06
351.75	1701.25
351.96	1932.05
352.17	1914.85
352.38	1840.71
352.60	1847.27
352.81	1922.84
353.02	2116.78
353.23	1759.82
353.44	1780.91
353.66	1845.63
353.87	1839.90
354.08	1873.89
354.29	1796.27
354.51	1795.66
354.72	1877.58
354.93	1748.76
355.14	1686.09
355.35	1706.16
355.57	2027.90
355.78	1788.08
355.99	1857.30
356.20	1908.50
356.42	1864.47
356.63	1869.18
356.84	1797.09
357.05	2004.35
357.26	2156.72
357.48	1899.29
357.69	1846.65
357.90	1947.41
358.11	1869.18
358.32	1819.83
358.54	1848.91
358.75	1847.47
358.96	2003.94
359.17	1788.08
359.38	1798.94
359.60	1982.43
359.81	1879.42
360.02	1799.14
360.23	1734.63
360.44	1817.57
360.66	2017.45
360.87	1741.39
361.08	1732.58
361.29	1959.29
361.50	1937.17
361.72	1780.09
361.93	1838.26
362.14	1926.93
362.35	1707.60
362.56	1867.34
362.77	1729.10
362.99	1981.00
363.20	1932.67
363.41	1849.93
363.62	1682.00
363.83	1948.03
364.05	2011.92
364.26	1688.96
364.47	1744.66
364.68	2028.31
364.89	1811.22
365.10	1723.78
365.32	1775.59
365.53	1813.48
365.74	1843.17
365.95	1812.45
366.16	1703.91
366.37	1896.01
366.59	1850.54
366.80	1794.43
367.01	1670.73
367.22	2164.50
367.43	2263.42
367.64	1822.28
367.86	1793.82
368.07	1959.70
368.28	2055.55
368.49	1727.26
368.70	1824.54
368.91	1864.06
369.12	1893.96
369.34	1709.23
369.55	1732.79
369.76	1881.26
369.97	1836.00
370.18	1717.22
370.39	1747.12
370.60	1738.73
370.82	1781.73
371.03	1775.18
371.24	1727.67
371.45	1986.12
371.66	1978.34
371.87	1768.01
372.08	1752.04
372.30	1791.97
372.51	1999.02
372.72	1857.10
372.93	1762.89
373.14	2087.70
373.35	1814.09
373.56	1754.90
373.78	1805.49
373.99	2033.02
374.20	2237.00
374.41	1804.47
374.62	1817.57
374.83	2117.60
375.04	1865.70
375.25	1792.59
375.47	1762.69
375.68	1834.16
375.89	1987.76
376.10	1800.57
376.31	1882.08
376.52	1978.95
376.73	1928.98
376.94	1829.25
377.15	1779.07
377.37	1904.20
377.58	1873.89
377.79	1671.96
378.00	1744.66
378.21	1924.89
378.42	1983.46
378.63	1820.44
378.84	1887.61
379.05	2017.45
379.27	1897.85
379.48	1887.41
379.69	1757.98
379.90	2032.20
380.11	1675.24
380.32	1796.68
380.53	1903.59
380.74	2050.63
380.95	1893.96
381.16	1799.75
381.37	1769.04
381.59	2064.35
381.80	2023.80
382.01	1742.82
382.22	1685.07
382.43	1953.56
382.64	1905.43
382.85	1734.42
383.06	1832.52
383.27	1978.95
383.48	1852.18
383.69	1838.26
383.91	1717.02
384.12	1977.11
384.33	1953.76
384.54	1811.84
384.75	1677.29
384.96	2253.38
385.17	2018.27
385.38	1752.04
385.59	1765.35
385.80	1967.69
386.01	2110.84
386.22	1879.63
386.43	1832.73
386.64	2172.08
386.86	1885.36
387.07	1900.72
387.28	1712.51
387.49	1842.35
387.70	2073.16
387.91	1851.57
388.12	1723.37
388.33	1935.94
388.54	1820.03
388.75	1786.65
388.96	1841.33
389.17	1809.99
389.38	1861.19
389.59	1858.74
389.80	1798.12
390.01	1880.04
390.22	1823.92
390.43	1883.11
390.64	1686.71
390.86	1937.99
391.07	2043.26
391.28	1804.87
391.49	1838.05
391.70	1754.29
391.91	1806.51
392.12	1800.57
392.33	1771.70
392.54	1905.84
392.75	1859.76
392.96	1868.98
393.17	1752.45
393.38	2193.99
393.59	2026.67
393.80	1725.82
394.01	1796.68
394.22	1887.41
394.43	2130.30
394.64	1754.29
394.85	1894.78
395.06	1900.92
395.27	1916.49
395.48	1793.20
395.69	1734.02
395.90	1883.31
396.11	1886.59
396.32	1751.01
396.53	1901.74
396.74	1859.15
396.95	2020.12
397.16	1762.89
397.37	1718.66
397.58	2000.87
397.79	1948.44
398.00	1837.85
398.21	1793.00
398.42	1954.58
398.63	2173.71
398.84	1802.62
399.05	1780.09
399.26	2048.79
399.47	1945.78
399.68	1635.71
399.89	1713.54
400.10	1767.60
400.31	1843.38
400.52	1812.45
400.73	1797.71
400.94	1726.23
401.15	1928.78
401.36	1779.48
401.57	1843.17
401.78	2036.70
401.99	2018.48
402.20	1714.35
402.41	1924.27
402.62	2101.83
402.83	1904.20
403.04	1724.59
403.25	1941.68
403.46	1926.73
403.67	2068.86
403.88	1788.08
404.09	1769.65
404.30	1833.34
404.51	1799.96
404.72	1764.33
404.93	1877.58
405.14	1817.16
405.35	1886.38
405.56	1802.62
405.77	1777.43
405.98	1941.88
406.19	1892.12
406.40	1741.80
406.61	1771.70
406.82	1796.48
407.03	2205.87
407.24	1703.30
407.45	1810.81
407.66	1952.53
407.87	2011.72
408.08	1842.15
408.29	1852.80
408.49	1966.87
408.70	1903.18
408.91	1825.35
409.12	1885.36
409.33	1759.61
409.54	2045.10
409.75	1765.35
409.96	1782.14
410.17	2015.00
410.38	1854.23
410.59	1789.31
410.80	1901.74
411.01	1878.81
411.22	1872.46
411.43	1830.68
411.64	1783.58
411.85	1796.89
412.06	1772.93
412.27	1638.58
412.47	1791.56
412.68	1865.29
412.89	1954.79
413.10	1739.34
413.31	1694.28
413.52	2131.73
413.73	2136.65
413.94	1757.57
414.15	1877.58
414.36	1813.68
414.57	1765.96
414.78	1684.45
414.99	1770.88
415.19	1984.69
415.40	1963.18
415.61	1986.12
415.82	1857.51
416.03	2025.65
416.24	1983.46
416.45	1803.44
416.66	1763.51
416.87	1738.52
417.08	1979.98
417.29	1740.57
417.50	1848.70
417.70	1979.57
417.91	1970.56
418.12	1821.05
418.33	1809.18
418.54	1984.48
418.75	2081.15
418.96	1994.31
419.17	1937.79
419.38	2182.11
419.59	2085.86
419.79	1958.06
420.00	1895.60
420.21	2342.26
420.42	1951.10
420.63	1830.06
420.84	1873.69
421.05	1899.90
421.26	1930.82
421.47	1731.15
421.67	2063.33
421.88	1782.76
422.09	1743.44
422.30	1925.91
422.51	1776.20
422.72	2113.71
422.93	1987.55
423.14	1790.54
423.35	1683.84
423.55	1730.33
423.76	1801.39
423.97	1807.95
424.18	1674.21
424.39	1860.17
424.60	2007.42
424.81	1817.57
425.02	1914.24
425.22	1907.48
425.43	1910.55
425.64	1996.56
425.85	1888.43
426.06	2185.18
426.27	2037.93
426.48	1919.56
426.68	1892.94
426.89	2015.82
427.10	2168.39
427.31	1813.27
427.52	1757.77
427.73	1954.38
427.94	1936.56
428.14	1886.79
428.35	1805.28
428.56	2073.57
428.77	2018.07
428.98	1846.65
429.19	1809.59
429.40	1864.47
429.60	1877.17
429.81	1919.15
430.02	1840.10
430.23	1896.21
430.44	1979.57
430.65	1769.04
430.85	1835.39
431.06	1975.27
431.27	1722.75
431.48	1809.18
431.69	1835.39
431.90	1895.60
432.10	1912.60
432.31	1842.35
432.52	1736.27
432.73	2197.27
432.94	2085.04
433.15	1895.60
433.35	1811.63
433.56	2059.85
433.77	1919.36
433.98	1890.68
434.19	1788.70
434.40	1898.88
434.60	1882.70
434.81	1781.73
435.02	1821.87
435.23	1869.39
435.44	1818.19
435.64	1686.09
435.85	1739.34
436.06	1847.27
436.27	1814.91
436.48	1716.20
436.68	1760.84
436.89	2084.63
437.10	1951.71
437.31	1817.78
437.52	1887.82
437.73	1908.91
437.93	1912.80
438.14	1867.13
438.35	1685.07
438.56	1839.90
438.77	1895.80
438.97	1920.38
439.18	1749.17
439.39	2005.37
439.60	1721.93
439.80	1685.27
440.01	1798.53
440.22	1811.22
440.43	1977.11
440.64	1709.85
440.84	1831.91
441.05	1767.40
441.26	2239.66
441.47	1831.70
441.68	1747.94
441.88	1849.11
442.09	1825.76
442.30	1941.88
442.51	1863.65
442.71	1843.17
442.92	1925.30
443.13	1746.10
443.34	1762.07
443.55	1764.94
443.75	1959.70
443.96	1737.09
444.17	1746.51
444.38	2021.75
444.58	1781.32
444.79	1866.93
445.00	1817.78
445.21	1890.07
445.41	1842.76
445.62	1593.93
445.83	1873.48
446.04	1892.73
446.24	1742.00
446.45	1643.29
446.66	1764.73
446.87	1947.62
447.07	1820.44
447.28	1982.43
447.49	1809.59
447.70	1981.00
447.90	2007.62
448.11	1795.66
448.32	1906.86
448.53	2071.32
448.73	2056.78
448.94	1801.39
449.15	1917.51
449.36	1918.33
449.56	1928.57
449.77	1780.50
449.98	1718.86
450.19	1833.34
450.39	1872.87
450.60	1874.30
450.81	1856.07
451.02	1919.36
451.22	2073.36
451.43	1760.23
451.64	1781.53
451.84	1848.91
452.05	2048.79
452.26	1833.14
452.47	1802.62
452.67	1866.31
452.88	2050.63
453.09	1764.94
453.30	1711.08
453.50	1990.01
453.71	2071.73
453.92	1795.45
454.12	1872.46
454.33	1796.68
454.54	1851.16
454.75	1738.93
454.95	1721.32
455.16	1894.17
455.37	1989.19
455.57	1799.35
455.78	1795.25
455.99	1874.10
456.19	1896.21
456.40	1723.78
456.61	1818.60
456.82	1896.21
457.02	1951.30
457.23	1850.75
457.44	1983.25
457.64	1825.97
457.85	1917.92
458.06	1772.93
458.26	1937.79
458.47	1883.52
458.68	1975.06
458.89	1700.22
459.09	1893.14
459.30	2140.74
459.51	1882.90
459.71	1698.18
459.92	1764.53
460.13	1968.30
460.33	2169.21
460.54	1786.03
460.75	1779.48
460.95	1779.89
461.16	1950.08
461.37	1792.18
461.57	1832.32
461.78	1907.48
461.99	1745.69
462.19	1970.76
462.40	1774.56
462.61	2348.41
462.81	2021.14
463.02	1742.21
463.23	1767.81
463.43	1985.71
463.64	1827.20
463.85	2685.30
464.05	1743.23
464.26	2264.64
464.47	2046.33
464.67	1949.87
464.88	1844.20
465.09	1775.18
465.29	1876.55
465.50	1928.98
465.71	1803.24
465.91	1817.57
466.12	1877.17
466.33	1858.94
466.53	1802.62
466.74	2078.89
466.94	1863.86
467.15	1811.02
467.36	1985.30
467.56	1787.06
467.77	1958.88
467.98	1851.57
468.18	1788.08
468.39	1837.03
468.60	2139.51
468.80	1849.52
469.01	1743.03
469.21	1948.23
469.42	2009.47
469.63	1793.00
469.83	1717.02
470.04	1964.82
470.25	2084.83
470.45	1875.53
470.66	1791.36
470.86	1924.89
471.07	1857.92
471.28	1874.92
471.48	1914.03
471.69	1920.99
471.90	2344.51
472.10	1813.27
472.31	1812.86
472.51	1802.62
472.72	1741.39
472.93	1740.16
473.13	1923.04
473.34	1922.22
473.54	1869.18
473.75	1816.96
473.96	1962.77
474.16	1858.33
474.37	1937.99
474.57	1839.28
474.78	1769.04
474.99	1941.47
475.19	1917.51
475.40	1775.18
475.60	1720.50
475.81	2067.63
476.02	1858.12
476.22	1805.90
476.43	1945.57
476.63	1853.21
476.84	2012.13
477.05	1658.45
477.25	1772.93
477.46	2279.18
477.66	1880.85
477.87	1686.91
478.08	1789.31
478.28	1994.52
478.49	1872.87
478.69	1763.71
478.90	1828.84
479.10	1955.81
479.31	2088.52
479.52	1850.34
479.72	1912.80
479.93	1962.57
480.13	1818.19
480.34	1766.78
480.54	1884.75
480.75	1785.83
480.96	2056.37
481.16	1779.07
481.37	1883.72
481.57	1995.95
481.78	1925.71
481.98	2009.88
482.19	1878.81
482.40	2135.21
482.60	1957.65
482.81	1881.26
483.01	1763.10
483.22	2029.95
483.42	1985.71
483.63	1900.31
483.83	1892.94
484.04	1855.05
484.24	1974.45
484.45	1879.63
484.66	1683.23
484.86	1920.18
485.07	1809.38
485.27	1826.99
485.48	1755.93
485.68	2037.73
485.89	1807.54
486.09	1863.24
486.30	1811.84
486.50	1919.56
486.71	1877.78
486.91	1830.68
487.12	1888.43
487.33	2105.11
487.53	2114.32
487.74	1953.76
487.94	1822.28
488.15	1889.05
488.35	1956.01
488.56	1825.97
488.76	1769.45
488.97	1875.53
489.17	1965.44
489.38	1823.72
489.58	1805.08
489.79	1953.97
489.99	1940.86
490.20	1847.47
490.40	1926.11
490.61	1925.71
490.81	1815.32
491.02	1836.00
491.22	1886.59
491.43	1975.88
491.63	1877.78
491.84	1947.21
492.04	1705.96
492.25	1934.31
492.45	1860.37
492.66	1791.77
492.86	1707.60
493.07	1849.52
493.27	2130.09
493.48	1695.10
493.68	1821.87
493.89	1849.52
494.09	1968.51
494.30	1748.97
494.50	2032.40
494.71	1947.21
494.91	1757.16
495.12	1778.05
495.32	1897.03
495.53	1864.88
495.73	1680.15
495.94	1819.62
496.14	1676.67
496.35	2177.20
496.55	1857.30
496.76	1789.72
496.96	1844.40
497.17	1855.87
497.37	1933.08
497.58	1763.92
497.78	1735.24
497.98	1851.36
498.19	1861.81
498.39	1834.16
498.60	1871.02
498.80	1702.48
499.01	1997.79
499.21	1784.19
499.42	1823.92
499.62	1868.16
499.83	2145.66
500.03	1696.13
500.24	1869.39
500.44	2058.41
500.64	2011.92
500.85	1811.84
501.05	1934.10
501.26	1703.30
501.46	2058.41
501.67	1761.66
501.87	1734.42
502.08	1789.92
502.28	1884.13
502.48	1882.49
502.69	1934.31
502.89	1709.85
503.10	1801.19
503.30	1833.96
503.51	1839.08
503.71	1749.99
503.92	1982.43
504.12	1889.66
504.32	1821.87
504.53	1967.89
504.73	2003.94
504.94	1951.92
505.14	2027.49
505.35	1959.50
505.55	1928.37
505.75	1869.80
505.96	1923.04
506.16	2141.56
506.37	1848.29
506.57	1749.78
506.78	1872.66
506.98	1986.53
507.18	1719.68
507.39	1747.12
507.59	1826.38
507.80	1757.16
508.00	1874.71
508.20	1962.57
508.41	1830.06
508.61	2019.30
508.82	1980.80
509.02	1932.46
509.22	1747.74
509.43	1772.72
509.63	1813.89
509.84	1833.96
510.04	1723.98
510.24	2064.76
510.45	1983.87
510.65	1726.64
510.86	1845.02
511.06	1753.27
511.26	1977.93
511.47	1925.50
511.67	1759.61
511.88	1953.56
512.08	1993.70
512.28	1727.87
512.49	1917.92
512.69	1859.35
512.90	1919.97
513.10	1795.86
513.30	1850.95
513.51	1943.11
513.71	2070.09
513.91	1881.67
514.12	1874.10
514.32	1980.80
514.53	1793.82
514.73	1885.77
514.93	1830.06
515.14	1879.83
515.34	2053.09
515.54	1852.39
515.75	1879.01
515.95	1998.82
516.15	2051.45
516.36	1898.67
516.56	1900.11
516.77	1679.33
516.97	1926.11
517.17	1825.15
517.38	1909.73
517.58	2062.71
517.78	1846.45
517.99	1882.49
518.19	1864.68
518.39	2056.37
518.60	1867.95
518.80	1795.25
519.00	1932.26
519.21	1895.80
519.41	2116.17
519.61	1777.64
519.82	1891.91
520.02	1909.53
520.22	1894.58
520.43	1854.64
520.63	1826.17
520.83	1827.20
521.04	1696.54
521.24	1900.31
521.44	1822.90
521.65	1829.04
521.85	1967.48
522.05	1774.56
522.26	1842.35
522.46	2152.01
522.66	1987.35
522.87	1810.40
523.07	1986.53
523.27	1828.02
523.48	2060.87
523.68	1892.73
523.88	1853.62
524.09	2032.81
524.29	1919.77
524.49	1694.90
524.70	1955.20
524.90	2083.19
525.10	1988.17
525.31	1782.14
525.51	1768.83
525.71	1973.63
525.91	1934.10
526.12	1768.63
526.32	1742.00
526.52	1836.21
526.73	1829.45
526.93	1861.60
527.13	1715.38
527.34	1888.84
527.54	1886.59
527.74	1824.33
527.94	1730.94
528.15	1767.40
528.35	1889.25
528.55	1950.69
528.76	1916.49
528.96	1671.76
529.16	2023.80
529.36	1957.04
529.57	1782.35
529.77	2035.07
529.97	1771.90
530.18	1935.33
530.38	1841.53
530.58	1969.94
530.78	1918.74
530.99	1815.32
531.19	1924.68
531.39	1804.06
531.60	1926.32
531.80	1824.94
532.00	1993.49
532.20	1932.87
532.41	1797.30
532.61	1827.81
532.81	1816.34
533.01	1817.78
533.22	1974.24
533.42	1968.51
533.62	1690.39
533.82	2046.74
534.03	1866.52
534.23	1894.99
534.43	1785.83
534.63	1835.39
534.84	1917.10
535.04	1867.13
535.24	1875.32
535.44	2228.60
535.65	1841.33
535.85	1798.94
536.05	1813.48
536.25	1894.99
536.46	1805.28
536.66	1987.55
536.86	1897.44
537.06	1973.01
537.27	2059.85
537.47	1933.28
537.67	1820.44
537.87	2058.00
538.08	1871.64
538.28	1772.93
538.48	1734.63
538.68	1874.71
538.88	1970.76
539.09	1714.15
539.29	1885.77
539.49	2007.21
539.69	1940.66
539.90	1908.30
540.10	1786.44
540.30	2065.58
540.50	1794.43
540.70	1723.16
540.91	1860.37
541.11	1975.68
541.31	2096.92
541.51	1901.74
541.72	1899.29
541.92	1947.21
542.12	1826.17
542.32	1831.70
542.52	1817.78
542.73	1803.24
542.93	1964.00
543.13	1808.56
543.33	1888.64
543.53	1989.19
543.74	1960.73
543.94	1835.18
544.14	1960.93
544.34	2054.32
544.54	1892.73
544.75	1963.18
544.95	2074.80
545.15	1997.18
545.35	2102.44
545.55	1961.95
545.75	1822.69
545.96	2196.86
546.16	1832.52
546.36	1832.11
546.56	1871.02
546.76	2037.93
546.97	2110.64
547.17	1877.58
547.37	1944.55
547.57	1822.49
547.77	1973.22
547.97	1899.70
548.18	1902.77
548.38	1862.22
548.58	2082.37
548.78	1796.89
548.98	1910.55
549.18	2029.74
549.39	2144.63
549.59	1944.55
549.79	1887.00
549.99	2086.68
550.19	2029.33
550.39	1958.06
550.60	1852.59
550.80	1937.17
551.00	1974.04
551.20	1779.07
551.40	1810.40
551.60	1967.69
551.80	1932.26
552.01	1959.50
552.21	1861.81
552.41	1927.55
552.61	2115.35
552.81	1901.54
553.01	1774.56
553.21	1952.94
553.42	1789.31
553.62	1772.72
553.82	1780.50
554.02	2087.29
554.22	1999.43
554.42	1754.09
554.62	1909.12
554.83	2105.93
555.03	2093.23
555.23	1879.63
555.43	2117.80
555.63	1996.56
555.83	1967.69
556.03	1909.94
556.23	1744.25
556.44	1942.09
556.64	2090.77
556.84	1674.83
557.04	1837.23
557.24	1931.03
557.44	1922.02
557.64	1885.16
557.84	1757.57
558.04	1882.49
558.25	2017.45
558.45	1815.32
558.65	1887.41
558.85	1915.06
559.05	1724.80
559.25	1810.20
559.45	1937.17
559.65	2161.02
559.85	2564.47
560.05	1927.34
560.26	1938.20
560.46	1929.60
560.66	1837.85
560.86	1851.16
561.06	1798.73
561.26	2087.08
561.46	1985.51
561.66	1830.47
561.86	1966.25
562.06	1821.26
562.26	1884.34
562.47	1896.42
562.67	1758.80
562.87	1958.88
563.07	1731.56
563.27	1869.59
563.47	1904.20
563.67	1819.42
563.87	1996.16
564.07	1812.04
564.27	1884.34
564.47	1940.45
564.67	1950.49
564.87	1822.69
565.08	1917.10
565.28	1826.79
565.48	1975.68
565.68	1903.38
565.88	1931.03
566.08	2135.21
566.28	1890.28
566.48	1737.91
566.68	1840.30
566.88	1868.16
567.08	2028.92
567.28	1847.27
567.48	1851.36
567.68	1940.86
567.88	1745.07
568.08	1922.22
568.28	2002.09
568.48	1880.24
568.68	2031.99
568.89	1878.81
569.09	1719.88
569.29	1996.16
569.49	1981.41
569.69	1755.93
569.89	1764.73
570.09	1663.77
570.29	1821.26
570.49	1726.85
570.69	1769.04
570.89	2010.49
571.09	2173.30
571.29	1737.91
571.49	1984.07
571.69	1916.49
571.89	1974.24
572.09	1816.55
572.29	1810.61
572.49	1999.23
572.69	1986.53
572.89	1885.77
573.09	1626.29
573.29	1891.91
573.49	1916.69
573.69	1847.27
573.89	1972.19
574.09	1847.68
574.29	2032.20
574.49	1813.89
574.69	1811.84
574.89	1745.89
575.09	1760.02
575.29	1795.86
575.49	1870.41
575.69	1937.79
575.89	1739.95
576.09	1886.18
576.29	1896.21
576.49	1788.90
576.69	1860.17
576.89	1820.03
577.09	1863.04
577.29	1747.94
577.49	2118.21
577.69	1783.37
577.89	1933.90
578.09	1896.21
578.29	1696.33
578.49	1840.71
578.69	1796.27
578.89	1986.53
579.09	1897.44
579.29	1783.58
579.49	1972.19
579.69	1834.98
579.89	2081.15
580.09	1708.83
580.29	1704.93
580.49	1814.71
580.69	1768.42
580.89	1850.34
581.09	1816.34
581.29	1834.98
581.49	1889.25
581.69	1759.61
581.89	1774.36
582.09	1778.05
582.28	1776.00
582.48	1946.39
582.68	2003.94
582.88	2059.85
583.08	1889.66
583.28	1843.79
583.48	1868.77
583.68	1792.59
583.88	1892.12
584.08	1867.75
584.28	1867.75
584.48	2152.42
584.68	1948.85
584.88	1837.85
585.08	2020.53
585.28	2008.85
585.48	2047.15
585.68	1941.47
585.87	1953.15
586.07	1969.53
586.27	1909.73
586.47	1943.52
586.67	1896.21
586.87	1887.41
587.07	1850.95
587.27	1752.65
587.47	1865.09
587.67	2099.58
587.87	2198.49
588.07	1949.05
588.27	1855.46
588.46	2022.37
588.66	2047.15
588.86	1869.39
589.06	1950.08
589.26	2015.00
589.46	1984.07
589.66	1781.32
589.86	1797.09
590.06	1879.63
590.26	1944.75
590.46	1843.38
590.66	1955.20
590.85	1852.39
591.05	1981.20
591.25	1797.50
591.45	1857.51
591.65	1961.75
591.85	1927.34
592.05	1885.56
592.25	1976.29
592.45	2028.72
592.64	1903.18
592.84	1896.83
593.04	1773.95
593.24	2249.08
593.44	1824.94
593.64	1937.17
593.84	1976.09
594.04	1871.02
594.24	2126.61
594.43	1810.61
594.63	1861.40
594.83	1994.93
595.03	1982.02
595.23	1820.03
595.43	1708.42
595.63	1820.64
595.83	2003.32
596.02	1660.29
596.22	1859.76
596.42	1921.81
596.62	1870.41
596.82	1837.64
597.02	1962.36
597.22	2068.24
597.41	1916.08
597.61	1811.63
597.81	1939.63
598.01	1999.84
598.21	1810.81
598.41	1816.96
598.61	1775.79
598.80	1891.30
599.00	1921.81
599.20	1995.34
599.40	1849.52
599.60	1858.94
599.80	1970.97
599.99	2022.57
600.19	1875.12
600.39	1887.00
600.59	1973.63
600.79	1908.30
600.99	1900.92
601.19	2111.25
601.38	2160.81
601.58	1929.39
601.78	1658.85
601.98	1945.78
602.18	2021.75
602.37	2182.32
602.57	2035.07
602.77	2109.82
602.97	2084.42
603.17	2161.22
603.37	2063.12
603.56	2168.18
603.76	2117.19
603.96	2046.54
604.16	2055.14
604.36	2160.40
604.56	2075.41
604.75	1806.72
604.95	1904.61
605.15	2073.16
605.35	2036.09
605.55	1840.71
605.74	1828.84
605.94	2042.85
606.14	1924.68
606.34	1899.70
606.54	1860.37
606.73	1863.86
606.93	2008.24
607.13	1802.21
607.33	1907.07
607.53	2114.94
607.72	2039.16
607.92	1924.89
608.12	1980.39
608.32	1882.49
608.51	1987.14
608.71	1819.42
608.91	1943.11
609.11	1970.56
609.31	1874.51
609.50	1943.52
609.70	2096.71
609.90	2052.27
610.10	2019.71
610.29	1887.61
610.49	1798.32
610.69	2013.15
610.89	1916.49
611.09	1925.71
611.28	2015.41
611.48	2025.24
611.68	1867.54
611.88	1816.96
612.07	1763.51
612.27	1991.85
612.47	1828.22
612.67	1903.38
612.86	1993.49
613.06	1906.66
613.26	1720.91
613.46	1841.74
613.65	1888.64
613.85	2274.06
614.05	2010.29
614.25	1961.75
614.44	1861.40
614.64	1911.16
614.84	1825.35
615.04	1786.85
615.23	1839.69
615.43	1975.27
615.63	1969.74
615.83	1796.27
616.02	1732.38
616.22	1994.52
616.42	1766.17
616.62	1787.06
616.81	1885.56
617.01	1941.27
617.21	1906.25
617.41	1801.80
617.60	1872.46
617.80	1973.42
618.00	1995.54
618.19	1919.36
618.39	1931.85
618.59	1958.27
618.79	1881.26
618.98	1688.35
619.18	1854.85
619.38	2192.15
619.57	1858.33
619.77	1883.93
619.97	1847.68
620.17	1823.92
620.36	1748.97
620.56	1971.17
620.76	1759.61
620.95	1757.77
621.15	1840.30
621.35	1765.96
621.54	1860.37
621.74	1913.21
621.94	1790.54
622.14	1787.47
622.33	1718.66
622.53	1889.66
622.73	1860.99
622.92	1715.58
623.12	1896.42
623.32	2137.06
623.51	1936.56
623.71	1737.70
623.91	1997.18
624.10	1769.65
624.30	1868.77
624.50	1743.64
624.69	1757.98
624.89	2373.80
625.09	1842.56
625.29	1677.90
625.48	1756.75
625.68	1886.18
625.88	2036.30
626.07	1908.30
626.27	1771.29
626.47	1838.26
626.66	1692.44
626.86	1850.95
627.06	1867.13
627.25	1863.65
627.45	2096.71
627.64	1868.36
627.84	2012.95
628.04	1796.48
628.23	2143.20
628.43	1778.25
628.63	1789.72
628.82	1834.78
629.02	2147.30
629.22	1948.44
629.41	2028.10
629.61	1918.33
629.81	2142.38
630.00	1812.25
630.20	1761.66
630.40	1914.44
630.59	1945.98
630.79	1895.60
630.98	1881.06
631.18	1875.73
631.38	1881.06
631.57	1994.52
631.77	1725.21
631.97	1896.62
632.16	1957.24
632.36	1884.75
632.56	1878.19
632.75	1902.97
632.95	2028.72
633.14	1742.82
633.34	2026.06
633.54	1682.61
633.73	1851.36
633.93	1795.04
634.12	1714.56
634.32	2239.66
634.52	1887.82
634.71	1747.74
634.91	1905.84
635.11	1728.90
635.30	1792.59
635.50	1915.87
635.69	1769.04
635.89	2100.19
636.09	1989.81
636.28	1771.29
636.48	1785.83
636.67	1953.76
636.87	1968.71
637.07	1928.78
637.26	1803.85
637.46	1910.14
637.65	2000.05
637.85	1873.28
638.04	1790.54
638.24	1840.51
638.44	1923.25
638.63	1840.30
638.83	1857.92
639.02	1940.86
639.22	1955.61
639.42	1867.95
639.61	1848.91
639.81	1905.23
640.00	1867.75
640.20	1959.50
640.39	1919.36
640.59	2107.56
640.79	2005.37
640.98	1931.03
641.18	1873.69
641.37	1884.34
641.57	1854.64
641.76	1866.93
641.96	1708.62
642.15	1913.21
642.35	1840.71
642.55	1895.40
642.74	1744.05
642.94	1975.47
643.13	2058.21
643.33	1818.39
643.52	1799.96
643.72	1808.36
643.91	1879.83
644.11	1809.79
644.31	1795.66
644.50	1791.56
644.70	2049.20
644.89	1843.58
645.09	1935.94
645.28	1902.77
645.48	1935.74
645.67	1771.49
645.87	1682.00
646.06	1833.34
646.26	1920.99
646.45	1644.72
646.65	1660.08
646.84	2099.58
647.04	1841.33
647.24	1765.35
647.43	1860.78
647.63	1912.39
647.82	2064.15
648.02	1734.83
648.21	1799.55
648.41	2043.26
648.60	1813.89
648.80	1954.38
648.99	1890.89
649.19	1810.20
649.38	1688.14
649.58	1871.23
649.77	1901.33
649.97	2040.60
650.16	1945.37
650.36	1638.78
650.55	1966.25
650.75	1900.11
650.94	2087.08
651.14	1840.51
651.33	1893.55
651.53	2067.22
651.72	1799.96
651.92	1860.17
652.11	1677.29
652.31	1967.48
652.50	1923.45
652.70	1881.26
652.89	1759.21
653.09	2065.38
653.28	1859.56
653.48	1663.97
653.67	1702.48
653.87	2287.58
654.06	1890.28
654.25	2033.43
654.45	1799.35
654.64	1853.62
654.84	1859.15
655.03	1665.61
655.23	1953.97
655.42	1954.58
655.62	2084.63
655.81	1872.87
656.01	1791.56
656.20	1977.93
656.40	2089.75
656.59	1865.09
656.79	2007.83
656.98	1902.77
657.17	1981.41
657.37	1869.59
657.56	1796.68
657.76	1931.85
657.95	2009.26
658.15	1564.44
658.34	1877.17
658.54	1882.90
658.73	1760.02
658.92	1820.03
659.12	1865.70
659.31	1943.93
659.51	1769.24
659.70	1916.49
659.90	1833.96
660.09	2009.06
660.29	1879.42
660.48	1756.75
660.67	2018.68
660.87	1795.25
661.06	1941.68
661.26	1953.76
661.45	1933.49
661.65	1958.47
661.84	1842.56
662.03	1818.80
662.23	1813.48
662.42	2135.21
662.62	1747.33
662.81	1765.35
663.00	1814.50
663.20	1885.36
663.39	1943.93
663.59	1937.99
663.78	1791.77
663.97	1822.28
664.17	2011.31
664.36	1713.95
664.56	1792.59
664.75	1967.07
664.94	1954.38
665.14	1872.25
665.33	1830.27
665.53	1862.63
665.72	1846.65
665.91	1952.33
666.11	1870.41
666.30	1877.78
666.50	1842.35
666.69	1881.26
666.88	1833.34
667.08	1900.52
667.27	1840.30
667.47	1858.94
667.66	1834.37
667.85	2006.80
668.05	1873.07
668.24	1780.71
668.43	1993.70
668.63	1831.29
668.82	2006.80
669.02	1937.99
669.21	1834.78
669.40	1718.45
669.60	2096.30
669.79	1707.60
669.98	2317.07
670.18	1770.06
670.37	1757.77
670.56	1836.00
670.76	1891.30
670.95	1868.16
671.15	1983.46
671.34	1904.00
671.53	1873.48
671.73	1847.68
671.92	1787.06
672.11	1743.03
672.31	1810.40
672.50	1927.14
672.69	1725.00
672.89	1642.27
673.08	1815.32
673.27	1967.89
673.47	1939.43
673.66	1923.25
673.85	1775.59
674.05	1902.15
674.24	1907.27
674.43	1814.71
674.63	2029.33
674.82	2236.38
675.01	1750.81
675.21	2024.42
675.40	1921.20
675.59	1900.52
675.79	2143.20
675.98	1861.40
676.17	2000.66
676.37	1958.27
676.56	1861.19
676.75	1890.07
676.95	1859.56
677.14	1859.76
677.33	2019.09
677.52	1737.09
677.72	1812.04
677.91	1924.27
678.10	1718.45
678.30	1755.11
678.49	1735.86
678.68	2156.31
678.88	1650.05
679.07	1973.83
679.26	1823.92
679.45	2126.82
679.65	2020.12
679.84	1661.11
680.03	1702.07
680.23	1859.56
680.42	2204.64
680.61	1748.15
680.81	1815.11
681.00	1892.73
681.19	1909.73
681.38	1956.22
681.58	1910.75
681.77	1826.99
681.96	1971.17
682.15	1830.68
682.35	1882.70
682.54	1941.47
682.73	1757.77
682.93	1768.83
683.12	1781.12
683.31	1966.25
683.50	2227.58
683.70	1793.61
683.89	1888.23
684.08	1762.07
684.27	1991.85
684.47	1703.91
684.66	1862.01
684.85	2110.23
685.04	1981.82
685.24	1782.55
685.43	1858.74
685.62	1667.46
685.81	1901.33
686.01	1858.94
686.20	1805.49
686.39	1761.87
686.58	2208.94
686.78	1956.22
686.97	1957.86
687.16	2051.04
687.35	1950.49
687.55	1853.41
687.74	1865.90
687.93	1789.92
688.12	1889.25
688.32	1875.32
688.51	1718.04
688.70	1936.76
688.89	1758.39
689.08	1723.16
689.28	1782.14
689.47	1887.41
689.66	1876.76
689.85	1950.69
690.05	1801.80
690.24	1785.42
690.43	1915.47
690.62	1861.81
690.81	1798.32
691.01	1887.82
691.20	1817.37
691.39	1749.99
691.58	1866.31
691.77	2115.35
691.97	1912.39
692.16	1907.68
692.35	1833.14
692.54	1801.19
692.73	1929.80
692.93	1888.23
693.12	1885.16
693.31	1939.84
693.50	1918.54
693.69	1959.29
693.89	1863.86
694.08	2063.12
694.27	2053.29
694.46	1771.70
694.65	1873.89
694.85	1961.13
695.04	1939.63
695.23	1840.30
695.42	2062.10
695.61	2117.19
695.80	2250.92
696.00	2390.39
696.19	2409.44
696.38	2114.32
696.57	2181.70
696.76	2174.53
696.95	2058.21
697.15	2227.78
697.34	2203.00
697.53	1914.03
697.72	1981.41
697.91	1907.07
698.10	2124.15
698.30	1855.46
698.49	1847.68
698.68	1931.23
698.87	1851.36
699.06	1765.96
699.25	1871.64
699.45	2009.06
699.64	1937.99
699.83	1974.24
700.02	1766.37
700.21	1968.92
700.40	1797.30
700.59	1854.03
700.79	1816.55
700.98	1953.15
701.17	1807.13
701.36	1818.19
701.55	1774.16
701.74	2025.24
701.93	1752.24
702.12	1885.97
702.32	1831.91
702.51	2023.19
702.70	2009.26
702.89	1892.32
703.08	1840.30
703.27	2026.06
703.46	1929.39
703.65	1856.48
703.85	1764.33
704.04	1829.45
704.23	2019.30
704.42	1776.61
704.61	1821.67
704.80	2078.89
704.99	1808.77
705.18	1913.21
705.37	1805.90
705.57	1978.34
705.76	2179.24
705.95	2017.04
706.14	2341.03
706.33	2414.56
706.52	2597.23
706.71	2172.08
706.90	2032.20
707.09	2132.35
707.28	2061.28
707.47	1915.47
707.67	2065.99
707.86	1892.32
708.05	2090.57
708.24	1879.42
708.43	1913.83
708.62	1861.60
708.81	1796.68
709.00	1737.09
709.19	1774.56
709.38	2000.87
709.57	1764.73
709.76	1904.20
709.96	1801.19
710.15	2064.56
710.34	1868.57
710.53	1969.33
710.72	1866.31
710.91	2021.55
711.10	1960.93
711.29	1942.29
711.48	1805.28
711.67	1750.19
711.86	1931.64
712.05	1743.03
712.24	1777.64
712.43	1963.59
712.62	2063.94
712.81	1880.85
713.00	2011.92
713.19	1755.11
713.39	1938.40
713.58	1747.53
713.77	1848.50
713.96	1981.61
714.15	1835.59
714.34	1832.52
714.53	1742.82
714.72	2149.75
714.91	1758.18
715.10	1854.44
715.29	1721.11
715.48	2258.70
715.67	1990.01
715.86	1891.30
716.05	1875.53
716.24	1821.46
716.43	1828.43
716.62	1746.71
716.81	1719.27
717.00	1825.76
717.19	2095.07
717.38	1882.08
717.57	1811.84
717.76	1718.86
717.95	2004.55
718.14	1895.19
718.33	1824.74
718.52	1680.15
718.71	1714.15
718.90	1742.41
719.09	1819.83
719.28	1866.72
719.47	1999.43
719.66	1937.17
719.85	1975.06
720.04	1867.54
720.23	1910.55
720.42	1780.50
720.61	1913.83
720.80	1725.21
720.99	1915.47
721.18	1813.68
721.37	1785.01
721.56	1844.61
721.75	1982.64
721.94	1779.68
722.13	1831.91
722.32	1814.91
722.51	1961.13
722.70	1837.64
722.89	1908.30
723.08	1855.87
723.27	1997.18
723.46	1897.44
723.65	1836.82
723.84	1812.25
724.03	2036.30
724.22	1715.17
724.41	1890.07
724.60	1854.85
724.79	1996.97
724.98	1921.81
725.16	1812.45
725.35	1971.58
725.54	1749.17
725.73	1888.02
725.92	1854.44
726.11	1883.52
726.30	1991.85
726.49	1819.62
726.68	1887.82
726.87	1974.65
727.06	2095.89
727.25	1857.10
727.44	1944.14
727.63	1916.90
727.82	1834.78
728.01	1908.91
728.20	1954.17
728.38	2067.83
728.57	1850.95
728.76	1859.35
728.95	2002.91
729.14	1744.66
729.33	1751.01
729.52	1653.53
729.71	1779.07
729.90	1776.82
730.09	1807.95
730.28	1820.44
730.47	1797.09
730.66	2033.63
730.84	1899.70
731.03	1877.78
731.22	1913.01
731.41	1874.71
731.60	1948.64
731.79	1693.87
731.98	1768.42
732.17	1940.25
732.36	1932.87
732.55	1794.64
732.73	1759.21
732.92	2021.75
733.11	1938.61
733.30	1785.83
733.49	1699.20
733.68	1958.47
733.87	1912.80
734.06	1753.68
734.25	1767.81
734.43	1815.73
734.62	1918.54
734.81	1864.06
735.00	1872.25
735.19	1851.36
735.38	1932.46
735.57	1749.17
735.76	1909.73
735.94	1942.91
736.13	2225.12
736.32	2037.93
736.51	1964.82
736.70	2241.09
736.89	2234.33
737.08	2130.09
737.27	2245.60
737.45	2514.50
737.64	2444.87
737.83	2620.17
738.02	2565.29
738.21	2596.01
738.40	2556.48
738.59	2229.83
738.77	2300.69
738.96	2133.16
739.15	2153.23
739.34	2161.84
739.53	2095.48
739.72	2160.40
739.90	2129.89
740.09	1901.54
740.28	1934.31
740.47	2030.56
740.66	1954.38
740.85	1785.42
741.03	1857.30
741.22	1759.21
741.41	1869.80
741.60	1726.03
741.79	1883.31
741.98	2037.32
742.16	2108.38
742.35	1912.80
742.54	1842.56
742.73	2140.74
742.92	1856.07
743.10	1720.50
743.29	1781.73
743.48	2194.60
743.67	1816.34
743.86	1714.35
744.05	1730.74
744.23	1755.52
744.42	1783.99
744.61	1848.91
744.80	1760.43
744.99	1815.11
745.17	1682.00
745.36	1710.67
745.55	1887.41
745.74	1881.26
745.93	1768.83
746.11	1785.21
746.30	1752.24
746.49	1986.12
746.68	1756.13
746.86	1835.39
747.05	1819.42
747.24	1985.92
747.43	1964.41
747.62	1762.48
747.80	1803.24
747.99	2039.98
748.18	1946.18
748.37	1931.44
748.56	1909.53
748.74	2004.35
748.93	1882.29
749.12	2088.52
749.31	2622.01
749.49	3036.52
749.68	3367.48
749.87	3636.99
750.06	3653.78
750.24	3591.32
750.43	3477.66
750.62	3548.31
750.81	3624.29
750.99	3752.29
751.18	3702.52
751.37	3252.58
751.56	3105.13
751.74	3310.95
751.93	3254.63
752.12	2557.71
752.31	2435.44
752.49	2353.12
752.68	2507.94
752.87	2201.57
753.06	2070.29
753.24	2020.94
753.43	2156.31
753.62	1893.35
753.81	1874.30
753.99	2087.08
754.18	1944.75
754.37	1766.58
754.55	1889.87
754.74	2078.89
754.93	1676.26
755.12	1827.81
755.30	1796.68
755.49	2008.85
755.68	1880.85
755.86	1887.00
756.05	1725.00
756.24	2068.45
756.43	1722.75
756.61	1743.64
756.80	1907.89
756.99	2020.12
757.17	1851.57
757.36	1734.22
757.55	1845.42
757.74	1927.14
757.92	1837.44
758.11	1711.08
758.30	1646.36
758.48	1810.40
758.67	1745.07
758.86	1812.04
759.04	1721.93
759.23	1790.95
759.42	1845.83
759.60	1760.02
759.79	1866.11
759.98	1823.51
760.16	1759.00
760.35	1799.14
760.54	1705.14
760.73	1882.49
760.91	1693.87
761.10	1871.23
761.29	1888.84
761.47	1871.64
761.66	2144.43
761.85	1888.84
762.03	1974.65
762.22	2195.01
762.41	2815.96
762.59	3443.86
762.78	3722.80
762.97	4448.39
763.15	4512.90
763.34	4166.18
763.52	3497.93
763.71	3442.23
763.90	3363.99
764.08	3079.74
764.27	3018.30
764.46	3037.55
764.64	2696.77
764.83	2605.02
765.02	2486.44
765.20	2430.73
765.39	2310.93
765.58	2010.70
765.76	2046.54
765.95	2017.04
766.13	1931.64
766.32	1882.08
766.51	1889.66
766.69	2461.86
766.88	1901.95
767.07	1752.86
767.25	1685.89
767.44	1971.37
767.62	1998.00
767.81	1791.36
768.00	1844.81
768.18	1847.27
768.37	1792.79
768.56	1695.72
768.74	1790.95
768.93	1735.65
769.11	1908.71
769.30	1863.24
769.49	1770.47
769.67	1844.81
769.86	1829.45
770.04	1831.09
770.23	1814.30
770.42	2040.60
770.60	1862.01
770.79	1781.53
770.97	1790.95
771.16	2057.59
771.35	2085.45
771.53	2190.10
771.72	2290.86
771.90	2507.53
772.09	2695.54
772.27	2526.99
772.46	2238.63
772.65	2406.36
772.83	2270.79
773.02	2264.64
773.20	2064.15
773.39	2187.85
773.58	2213.65
773.76	1920.38
773.95	1947.41
774.13	2025.85
774.32	1925.50
774.50	1789.72
774.69	1934.51
774.87	1867.75
775.06	2153.64
775.25	1784.40
775.43	1873.89
775.62	1911.37
775.80	1953.56
775.99	1905.23
776.17	1761.66
776.36	1836.82
776.54	1961.34
776.73	1724.80
776.92	1815.73
777.10	1900.11
777.29	1874.10
777.47	1717.43
777.66	1757.57
777.84	1860.37
778.03	1825.56
778.21	1733.40
778.40	1856.69
778.58	1891.30
778.77	1985.10
778.95	1694.49
779.14	1743.85
779.32	2078.07
779.51	1960.52
779.70	1824.33
779.88	1733.40
780.07	1828.43
780.25	2187.44
780.44	1821.67
780.62	1957.86
780.81	1933.49
780.99	1918.54
781.18	1809.99
781.36	1799.35
781.55	1845.42
781.73	2077.05
781.92	1745.07
782.10	1748.76
782.29	1925.71
782.47	2074.80
782.66	1870.41
782.84	1701.66
783.03	1783.37
783.21	2035.89
783.40	1831.09
783.58	1801.39
783.77	1812.66
783.95	1834.57
784.14	1762.89
784.32	1841.12
784.51	1996.36
784.69	1770.47
784.88	1693.06
785.06	1799.75
785.24	1719.68
785.43	1983.66
785.61	1898.88
785.80	1771.70
785.98	1950.28
786.17	1871.02
786.35	1739.54
786.54	1901.74
786.72	1973.22
786.91	2008.03
787.09	1835.80
787.28	1723.37
787.46	1861.19
787.65	1982.43
787.83	1740.98
788.01	1854.44
788.20	1731.15
788.38	1850.54
788.57	1782.76
788.75	1809.99
788.94	2097.32
789.12	2031.58
789.31	1843.58
789.49	1920.99
789.67	1798.73
789.86	1901.33
790.04	1749.58
790.23	1683.43
790.41	2145.04
790.60	1831.09
790.78	1824.74
790.96	1825.97
791.15	1942.91
791.33	1849.11
791.52	1834.78
791.70	1779.68
791.89	1840.30
792.07	1937.38
792.25	1852.18
792.44	1712.92
792.62	1998.20
792.81	1789.31
792.99	1845.83
793.17	1792.79
793.36	1789.92
793.54	2115.55
793.73	2100.19
793.91	2067.83
794.10	2368.27
794.28	2538.66
794.46	2341.44
794.65	2388.75
794.83	2120.67
795.01	2184.36
795.20	2286.35
795.38	2141.56
795.57	2181.29
795.75	2139.72
795.93	2012.74
796.12	2044.69
796.30	2081.35
796.49	2033.63
796.67	1853.00
796.85	2020.12
797.04	1940.45
797.22	1983.05
797.40	1749.99
797.59	1881.26
797.77	1894.58
797.96	1779.48
798.14	1770.26
798.32	1767.81
798.51	1973.22
798.69	2130.91
798.87	1852.80
799.06	1817.78
799.24	1701.25
799.42	2003.32
799.61	2014.79
799.79	2033.02
799.98	2419.06
800.16	2176.58
800.34	2360.69
800.53	2556.68
800.71	2568.77
800.89	2984.71
801.08	2852.82
801.26	2852.82
801.44	2603.58
801.63	2417.63
801.81	2383.02
801.99	2323.42
802.18	2271.81
802.36	2280.21
802.54	2215.70
802.73	2014.79
802.91	2101.42
803.09	2076.03
803.28	2082.17
803.46	2077.87
803.64	2175.97
803.83	1815.52
804.01	1782.96
804.19	1741.39
804.38	1980.59
804.56	1950.49
804.74	1843.99
804.92	1882.29
805.11	1756.54
805.29	2012.13
805.47	1780.50
805.66	1722.14
805.84	1755.11
806.02	1981.00
806.21	1793.00
806.39	1961.54
806.57	1979.36
806.76	1981.82
806.94	1849.73
807.12	1759.61
807.30	1782.76
807.49	1885.56
807.67	1858.53
807.85	1924.27
808.04	1954.79
808.22	2157.74
808.40	1711.08
808.58	1738.93
808.77	1923.25
808.95	2034.66
809.13	1910.35
809.31	2294.75
809.50	2534.16
809.68	2746.12
809.86	2650.48
810.05	2807.56
810.23	3230.47
810.41	3642.72
810.59	5335.57
810.78	6356.08
810.96	7186.12
811.14	7707.33
811.32	7315.55
811.51	6236.47
811.69	5353.60
811.87	5428.35
812.05	4851.02
812.24	4621.65
812.42	4517.61
812.60	4203.46
812.78	3617.53
812.97	3336.55
813.15	3370.14
813.33	3028.95
813.51	2836.85
813.70	2440.97
813.88	2281.03
814.06	2238.23
814.24	2121.70
814.42	1889.46
814.61	2001.89
814.79	2156.51
814.97	1756.75
815.15	1838.05
815.34	1916.69
815.52	1980.59
815.70	1772.11
815.88	1789.92
816.06	1790.13
816.25	1822.69
816.43	1747.12
816.61	1932.87
816.79	2050.43
816.98	1675.85
817.16	1766.99
817.34	1735.45
817.52	1905.43
817.70	2063.12
817.89	1800.98
818.07	1713.13
818.25	1841.33
818.43	1899.90
818.61	1824.74
818.80	1796.48
818.98	2083.40
819.16	1892.94
819.34	1744.05
819.52	2022.16
819.70	1746.71
819.89	1848.91
820.07	1712.31
820.25	1690.80
820.43	1896.21
820.61	1988.17
820.80	1835.80
820.98	1754.49
821.16	1689.98
821.34	1735.24
821.52	1816.55
821.70	1868.98
821.89	1883.72
822.07	1827.81
822.25	1822.69
822.43	1750.60
822.61	2063.94
822.79	1913.01
822.98	1796.68
823.16	1681.59
823.34	1908.30
823.52	2003.32
823.70	1942.91
823.88	1666.02
824.06	1941.47
824.25	1853.82
824.43	1939.22
824.61	1737.29
824.79	1869.59
824.97	1890.28
825.15	1932.87
825.33	2089.13
825.52	2182.11
825.70	2108.18
825.88	2114.53
826.06	2224.30
826.24	2230.03
826.42	2202.80
826.60	2101.22
826.78	2129.48
826.97	2029.13
827.15	2145.66
827.33	1883.11
827.51	2011.31
827.69	1880.44
827.87	1984.69
828.05	1982.64
828.23	1834.57
828.41	2003.53
828.60	1979.98
828.78	1726.64
828.96	1886.59
829.14	1811.02
829.32	1836.62
829.50	1822.28
829.68	1813.89
829.86	1819.21
830.04	1954.99
830.22	1863.65
830.41	1733.81
830.59	1869.80
830.77	1928.78
830.95	1773.54
831.13	1789.92
831.31	1776.41
831.49	1963.59
831.67	1973.63
831.85	1915.47
832.03	1816.55
832.21	1957.24
832.39	1705.55
832.57	1727.87
832.76	1974.86
832.94	1852.59
833.12	1685.27
833.30	1808.97
833.48	2022.16
833.66	1912.60
833.84	1789.11
834.02	1811.84
834.20	1991.65
834.38	1954.79
834.56	1647.39
834.74	1730.74
834.92	1729.71
835.10	2082.78
835.28	1884.75
835.46	1826.58
835.64	1832.52
835.82	1773.54
836.01	2033.22
836.19	1957.04
836.37	1811.63
836.55	1748.97
836.73	1766.58
836.91	1695.31
837.09	1913.01
837.27	2046.33
837.45	1681.79
837.63	1739.54
837.81	1731.15
837.99	1865.49
838.17	1824.74
838.35	1727.46
838.53	2145.86
838.71	1941.88
838.89	1800.37
839.07	1755.93
839.25	1882.90
839.43	1960.32
839.61	1810.40
839.79	2196.86
839.97	2313.80
840.15	2487.05
840.33	2426.84
840.51	2685.91
840.69	2498.32
840.87	2370.73
841.05	2340.83
841.23	2288.61
841.41	2515.72
841.59	3042.46
841.77	3107.59
841.95	3214.08
842.13	3592.34
842.31	3332.05
842.49	2918.56
842.67	2859.37
842.85	2831.52
843.03	2540.51
843.21	2497.91
843.39	2577.37
843.57	2448.35
843.75	2407.39
843.93	2219.79
844.11	2180.88
844.29	2165.52
844.47	2080.33
844.65	2170.64
844.83	1928.16
845.01	1938.20
845.19	2069.27
845.36	1909.73
845.54	1960.52
845.72	1898.47
845.90	1957.45
846.08	1749.37
846.26	1850.34
846.44	1937.58
846.62	1933.08
846.80	1882.29
846.98	1752.86
847.16	1826.17
847.34	1897.65
847.52	1745.69
847.70	1752.04
847.88	1857.10
848.06	2047.76
848.24	1888.84
848.41	1699.40
848.59	1967.48
848.77	1917.72
848.95	1812.04
849.13	1785.42
849.31	1967.48
849.49	1908.09
849.67	1766.99
849.85	1733.61
850.03	1919.15
850.21	1907.89
850.39	1775.38
850.57	1909.32
850.74	2025.65
850.92	2062.92
851.10	1951.51
851.28	1973.63
851.46	2143.81
851.64	2405.75
851.82	2131.32
852.00	2183.13
852.18	2296.39
852.36	2200.54
852.53	1970.76
852.71	2072.34
852.89	2048.58
853.07	2076.23
853.25	1879.01
853.43	1817.98
853.61	1971.99
853.79	1975.27
853.97	1811.43
854.14	1803.24
854.32	2073.77
854.50	2009.88
854.68	1814.09
854.86	1842.76
855.04	1811.02
855.22	1962.98
855.40	1743.64
855.57	1787.67
855.75	1955.81
855.93	1944.75
856.11	1662.54
856.29	1738.11
856.47	1783.37
856.65	1909.32
856.82	1764.53
857.00	1700.02
857.18	1858.74
857.36	1806.31
857.54	1870.00
857.72	1953.76
857.89	1933.49
858.07	1901.54
858.25	1957.24
858.43	1707.60
858.61	1832.73
858.79	1855.46
858.97	1763.30
859.14	1859.97
859.32	1841.53
859.50	1810.40
859.68	1889.66
859.86	1777.64
860.03	1844.20
860.21	1941.27
860.39	1762.48
860.57	1880.65
860.75	1913.21
860.93	2084.83
861.10	1954.58
861.28	1771.29
861.46	1907.89
861.64	1922.22
861.82	1797.30
861.99	1896.83
862.17	1998.00
862.35	1993.08
862.53	1835.18
862.71	1833.34
862.88	1914.65
863.06	1961.34
863.24	1781.12
863.42	1773.34
863.60	1841.53
863.77	1925.91
863.95	1662.75
864.13	1841.53
864.31	1839.49
864.49	1946.39
864.66	1707.39
864.84	1757.57
865.02	1876.14
865.20	2218.36
865.37	1878.81
865.55	1805.28
865.73	1730.74
865.91	1966.87
866.09	1926.73
866.26	1857.71
866.44	1974.04
866.62	1851.98
866.80	1730.74
866.97	1858.74
867.15	1847.68
867.33	1897.24
867.51	1900.52
867.68	1853.82
867.86	1809.18
868.04	1798.12
868.22	1658.04
868.39	1790.95
868.57	1934.10
868.75	2026.26
868.93	1691.21
869.10	1744.05
869.28	2097.94
869.46	2025.03
869.64	1846.04
869.81	1827.20
869.99	1894.99
870.17	1905.43
870.35	1772.93
870.52	1762.89
870.70	1987.76
870.88	1798.53
871.05	1716.61
871.23	1630.59
871.41	1846.04
871.59	1845.02
871.76	1795.04
871.94	1774.36
872.12	1863.45
872.29	1713.74
872.47	1784.80
872.65	1746.51
872.83	1909.73
873.00	2057.18
873.18	1818.80
873.36	1794.43
873.53	1931.23
873.71	1703.71
873.89	1749.99
874.06	1844.40
874.24	1921.81
874.42	2023.80
874.60	1918.54
874.77	1865.09
874.95	1788.08
875.13	2011.11
875.30	1752.65
875.48	1806.92
875.66	2045.72
875.83	1785.83
876.01	1804.67
876.19	1931.85
876.36	1729.30
876.54	1864.68
876.72	1738.11
876.89	1887.00
877.07	1961.34
877.25	1676.67
877.42	1856.89
877.60	1805.90
877.78	2108.38
877.95	1830.06
878.13	1771.90
878.31	1892.12
878.48	1957.65
878.66	1952.53
878.84	1788.08
879.01	1820.85
879.19	1912.39
879.37	1951.71
879.54	1803.24
879.72	1724.39
879.90	1617.08
880.07	1946.80
880.25	1570.18
880.42	1931.85
880.60	1895.40
880.78	1941.68
880.95	1809.99
881.13	1828.43
881.31	1834.37
881.48	1809.38
881.66	1785.01
881.83	1857.51
882.01	1780.09
882.19	1702.68
882.36	1864.68
882.54	1809.79
882.72	1935.54
882.89	1885.56
883.07	1721.93
883.24	1794.64
883.42	1987.76
883.60	1875.12
883.77	1734.42
883.95	1780.71
884.12	1949.26
884.30	1884.34
884.48	1921.81
884.65	1854.23
884.83	1888.84
885.00	1887.41
885.18	1739.14
885.36	1760.84
885.53	1938.81
885.71	2015.20
885.88	1726.23
886.06	1792.18
886.23	1946.18
886.41	1831.70
886.59	1775.59
886.76	1768.83
886.94	1934.31
887.11	2247.44
887.29	1842.97
887.47	1717.84
887.64	1993.29
887.82	2049.61
887.99	1681.38
888.17	1830.27
888.34	1813.89
888.52	1742.00
888.69	1834.57
888.87	1735.24
889.05	1807.13
889.22	1813.07
889.40	1787.06
889.57	1959.09
889.75	2058.62
889.92	1828.84
890.10	1744.46
890.27	1820.85
890.45	1777.02
890.62	1696.95
890.80	1737.29
890.98	1675.44
891.15	2059.44
891.33	1989.81
891.50	1762.69
891.68	1696.74
891.85	1949.05
892.03	1949.67
892.20	1779.07
892.38	1726.64
892.55	1955.61
892.73	1968.51
892.90	1749.37
893.08	1802.83
893.25	1806.92
893.43	1815.93
893.60	1946.59
893.78	1649.64
893.95	1934.72
894.13	1875.12
894.30	1740.98
894.48	1802.62
894.65	1987.14
894.83	1886.18
895.00	1645.95
895.18	1658.04
895.35	1984.07
895.53	1953.97
895.70	1718.66
895.88	1905.63
896.05	1913.62
896.23	1706.98
896.40	1759.82
896.58	1836.82
896.75	1942.70
896.93	2036.09
897.10	1752.45
897.28	1703.30
897.45	1895.60
897.63	1947.00
897.80	1913.21
897.98	1809.38
898.15	1905.02
898.33	1754.09
898.50	1863.24
898.67	1819.42
898.85	1832.11
899.02	1940.66
899.20	1984.48
899.37	1819.21
899.55	1867.13
899.72	2040.60
899.90	1785.42
900.07	1767.81
900.25	1931.64
900.42	2022.37
900.59	1786.85
900.77	1895.60
900.94	1943.93
901.12	1931.23
901.29	1775.79
901.47	1897.85
901.64	1908.91
901.82	1873.89
901.99	1658.24
902.16	1748.76
902.34	2006.39
902.51	1902.97
902.69	1802.62
902.86	1831.70
903.03	2287.58
903.21	1880.04
903.38	1841.53
903.56	1786.03
903.73	1990.22
903.91	1808.77
904.08	1709.23
904.25	1639.81
904.43	1788.29
904.60	1955.20
904.78	1775.59
904.95	1731.76
905.12	1828.43
905.30	2094.87
905.47	1882.29
905.65	1911.98
905.82	1872.46
905.99	1926.93
906.17	1833.96
906.34	1762.69
906.52	1776.00
906.69	1946.80
906.86	1906.86
907.04	1856.89
907.21	1993.90
907.38	1979.57
907.56	1781.53
907.73	1756.34
907.91	2026.26
908.08	2006.80
908.25	1758.59
908.43	1752.24
908.60	1956.22
908.77	1873.28
908.95	1786.03
909.12	1741.39
909.30	1962.98
909.47	1704.52
909.64	1823.72
909.82	1953.76
909.99	1837.44
910.16	1885.16
910.34	1746.71
910.51	1803.65
910.68	1873.07
910.86	1880.85
911.03	1694.28
911.20	1792.79
911.38	2109.20
911.55	2525.35
911.72	2593.75
911.90	2514.29
912.07	2789.54
912.24	2923.07
912.42	2398.58
912.59	2165.11
912.76	2312.77
912.94	2157.74
913.11	2019.09
913.28	1906.25
913.46	1859.97
913.63	2030.97
913.80	2133.78
913.98	1848.50
914.15	2055.14
914.32	2094.25
914.49	1903.38
914.67	1768.42
914.84	1938.20
915.01	1974.86
915.19	1885.97
915.36	1806.92
915.53	1988.58
915.71	1940.66
915.88	1860.78
916.05	1788.70
916.22	1993.49
916.40	1899.90
916.57	1750.40
916.74	1882.29
916.92	2067.63
917.09	1780.71
917.26	1754.49
917.43	1719.47
917.61	1807.54
917.78	1664.18
917.95	1625.27
918.13	1694.49
918.30	2132.96
918.47	1890.68
918.64	1762.89
918.82	1725.21
918.99	1850.95
919.16	2068.65
919.33	1786.85
919.51	1750.40
919.68	1857.10
919.85	1990.63
920.02	1680.77
920.20	1817.16
920.37	2071.93
920.54	1989.19
920.71	1761.66
920.89	1790.13
921.06	2089.13
921.23	1767.19
921.40	1721.11
921.58	1870.21
921.75	2305.40
921.92	1886.79
922.09	1930.82
922.27	1939.22
922.44	1949.67
922.61	2004.35
922.78	1860.37
922.96	1800.37
923.13	1835.18
923.30	2000.46
923.47	1737.29
923.64	1779.68
923.82	1923.66
923.99	1926.73
924.16	1885.16
924.33	1732.38
924.50	1864.68
924.68	2081.35
924.85	1715.38
925.02	1786.44
925.19	1949.26
925.36	1879.83
925.54	1840.30
925.71	1828.43
925.88	2242.53
926.05	1818.60
926.22	1745.48
926.40	1838.67
926.57	1887.20
926.74	1941.47
926.91	1764.33
927.08	1970.35
927.26	1997.38
927.43	1876.35
927.60	1738.73
927.77	1816.34
927.94	2049.81
928.11	2016.23
928.29	1681.18
928.46	1832.73
928.63	1772.72
928.80	1824.54
928.97	1886.59
929.14	1715.58
929.32	2151.39
929.49	1895.80
929.66	1744.87
929.83	1700.63
930.00	1809.79
930.17	1924.07
930.35	1697.97
930.52	1782.76
930.69	2076.03
930.86	1731.97
931.03	1881.26
931.20	1622.20
931.37	2000.05
931.55	1864.68
931.72	1835.18
931.89	1678.52
932.06	1780.30
932.23	2072.95
932.40	1873.28
932.57	1913.83
932.74	2034.25
932.92	2022.78
933.09	1913.01
933.26	1575.09
933.43	1820.03
933.60	1899.49
933.77	1830.47
933.94	1834.98
934.11	1826.38
934.29	1887.61
934.46	1721.52
934.63	1868.16
934.80	1692.44
934.97	1843.38
935.14	1790.54
935.31	1672.78
935.48	1789.92
935.65	1914.65
935.82	1857.71
936.00	1721.32
936.17	2051.86
936.34	1832.73
936.51	1896.42
936.68	1703.71
936.85	1894.78
937.02	1873.48
937.19	1853.82
937.36	1823.10
937.53	1890.07
937.70	1962.16
937.87	1825.35
938.05	1878.81
938.22	1871.64
938.39	1750.19
938.56	1799.55
938.73	1750.60
938.90	1842.56
939.07	1803.24
939.24	1826.38
939.41	1645.34
939.58	1894.37
939.75	1932.67
939.92	1740.57
940.09	1947.00
940.26	1824.74
940.43	1982.02
940.60	1763.10
940.77	1789.72
940.95	1917.72
941.12	1966.46
941.29	1776.20
941.46	1812.45
941.63	2044.90
941.80	2065.38
941.97	1688.14
942.14	1660.90
942.31	1946.59
942.48	1859.76
942.65	1878.81
942.82	1808.36
942.99	1940.45
943.16	1892.94
943.33	1711.08
943.50	1781.32
943.67	1966.25
943.84	1993.90
944.01	1780.09
944.18	1733.81
944.35	2048.79
944.52	1785.21
944.69	1834.78
944.86	1713.74
945.03	1956.63
945.20	2168.59
945.37	1659.88
945.54	1817.57
945.71	2031.79
945.88	2067.22
946.05	1710.87
946.22	1727.46
946.39	2054.93
946.56	1873.07
946.73	1681.38
946.90	1740.77
947.07	1824.54
947.24	1850.34
947.41	1652.30
947.58	1884.75
947.75	1952.53
947.92	1904.41
948.09	1581.65
948.26	1674.83
948.43	1875.94
948.60	2109.61
948.77	1751.42
948.94	1764.33
949.11	1961.95
949.27	1913.01
949.44	1746.30
949.61	1753.88
949.78	1921.81
949.95	1998.82
950.12	1722.96
950.29	1680.97
950.46	1817.16
950.63	2009.88
950.80	1767.81
950.97	1800.57
951.14	2004.55
951.31	1836.41
951.48	1736.68
951.65	1709.03
951.82	2114.12
951.99	1909.12
952.15	1691.83
952.32	1757.98
952.49	1813.89
952.66	1796.48
952.83	1733.20
953.00	1731.76
953.17	1859.56
953.34	1957.04
953.51	1811.84
953.68	1787.88
953.85	2001.07
954.02	2007.21
954.18	1804.26
954.35	1816.55
954.52	1776.20
954.69	1893.14
954.86	1633.46
955.03	1810.61
955.20	1951.30
955.37	1867.13
955.54	1772.52
955.71	1774.36
955.87	1940.25
956.04	2103.06
956.21	1784.19
956.38	1724.59
956.55	1877.99
956.72	2194.81
956.89	1820.23
957.06	1769.24
957.23	1813.89
957.39	2027.69
957.56	1771.49
957.73	1700.43
957.90	1654.55
958.07	2112.48
958.24	1823.31
958.41	1749.99
958.57	1974.86
958.74	1846.86
958.91	1705.14
959.08	1779.07
959.25	1942.29
959.42	1829.45
959.59	1829.86
959.75	1773.34
959.92	2032.20
960.09	1972.19
960.26	1746.30
960.43	1835.80
960.60	1917.72
960.76	1848.70
960.93	1669.09
961.10	1854.03
961.27	1988.37
961.44	1870.21
961.61	1693.87
961.77	1688.96
961.94	1896.42
962.11	1986.32
962.28	1803.85
962.45	1713.74
962.62	1848.50
962.78	1994.93
962.95	1696.95
963.12	1765.96
963.29	1940.25
963.46	2211.81
963.62	1854.85
963.79	1749.78
963.96	2175.76
964.13	1828.22
964.30	1846.65
964.46	1762.48
964.63	1760.84
964.80	2195.01
964.97	1634.48
965.14	1851.77
965.30	1938.20
965.47	2019.09
965.64	1937.79
965.81	1850.75
965.98	2073.16
966.14	1887.00
966.31	1815.52
966.48	1744.87
966.65	2020.94
966.81	1926.93
966.98	1776.00
967.15	1836.82
967.32	1880.85
967.49	1772.52
967.65	1660.08
967.82	1619.74
967.99	1855.46
968.16	1694.69
968.32	1926.73
968.49	1735.24
968.66	1846.65
968.83	2071.32
968.99	1822.28
969.16	1698.38
969.33	2022.78
969.50	1949.05
969.66	1865.29
969.83	1964.82
970.00	1986.12
970.17	1964.21
970.33	1784.19
970.50	1671.96
970.67	2095.69
970.84	2063.94
971.00	1720.70
971.17	1689.57
971.34	1950.28
971.50	1871.02
971.67	1894.58
971.84	1831.09
972.01	1729.51
972.17	1624.24
972.34	1718.45
972.51	1861.40
972.67	2003.12
972.84	1920.99
973.01	1714.15
973.18	1764.12
973.34	1961.75
973.51	1743.23
973.68	1811.84
973.84	1807.13
974.01	1834.98
974.18	2064.15
974.34	1872.05
974.51	1876.76
974.68	1779.89
974.85	2146.48
975.01	1879.01
975.18	1796.27
975.35	1877.37
975.51	1772.72
975.68	1651.69
975.85	1907.89
976.01	1797.71
976.18	2054.93
976.35	1773.54
976.51	1764.53
976.68	2084.01
976.85	2032.40
977.01	1805.90
977.18	1833.96
977.35	1952.94
977.51	1713.54
977.68	1625.06
977.85	1695.92
978.01	1995.34
978.18	1928.57
978.35	1788.08
978.51	1786.85
978.68	1978.34
978.85	2079.51
979.01	1772.72
979.18	1804.67
979.34	1827.20
979.51	1875.53
979.68	1734.02
979.84	1811.43
980.01	2192.15
980.18	1874.92
980.34	1744.87
980.51	1853.62
980.67	1976.70
980.84	1957.65
981.01	1813.07
981.17	1870.41
981.34	1680.77
981.51	1958.47
981.67	1732.79
981.84	1901.54
982.00	1942.50
982.17	1855.05
982.34	1647.39
982.50	1568.95
982.67	2066.61
982.83	1800.78
983.00	1690.80
983.17	1602.95
983.33	2005.58
983.50	1695.10
983.66	1686.30
983.83	1618.51
984.00	1835.59
984.16	1891.50
984.33	1637.35
984.49	1593.11
984.66	1773.13
984.83	1991.04
984.99	1633.66
985.16	1614.62
985.32	1939.84
985.49	1987.35
985.65	1729.92
985.82	1629.36
985.99	2043.26
986.15	1894.78
986.32	1716.40
986.48	1664.59
986.65	1824.94
986.81	1962.77
986.98	1609.29
987.14	1690.19
987.31	1912.19
987.48	1694.69
987.64	1549.70
987.81	1580.42
987.97	2145.04
988.14	1763.51
988.30	1622.40
988.47	1522.05
988.63	1940.45
988.80	1742.82
988.96	1675.65
989.13	1712.92
989.30	1842.76
989.46	1961.75
989.63	1588.81
989.79	1586.36
989.96	1841.12
990.12	2055.96
990.29	1666.43
990.45	1701.25
990.62	1841.33
990.78	2029.33
990.95	1699.61
991.11	1641.04
991.28	1819.21
991.44	1917.72
991.61	1555.23
991.77	1689.78
991.94	1902.56
992.10	2047.97
992.27	1702.89
992.43	1656.19
992.60	1942.50
992.76	1818.80
992.93	1814.91
993.09	1606.84
993.26	1991.85
993.42	2089.34
993.59	1644.52
993.75	1557.28
993.92	1788.90
994.08	1777.02
994.25	1726.03
994.41	1631.00
994.58	1947.82
994.74	2045.72
994.91	1608.27
995.07	1717.63
995.24	1855.25
995.40	1867.95
995.56	1773.75
995.73	1723.16
995.89	2062.51
996.06	1863.24
996.22	1642.06
996.39	1555.02
996.55	1846.86
996.72	1900.72
996.88	1566.08
997.05	1614.62
997.21	2116.78
997.37	1942.50
997.54	1713.95
997.70	1667.05
997.87	1915.26
998.03	1887.61
998.20	1571.41
998.36	1585.54
998.52	1976.09
998.69	1979.16
998.85	1554.00
999.02	1668.28
999.18	1977.72
999.35	1972.19
999.51	1677.49
999.67	1697.15
999.84	1736.68
1000.00	1953.76
1000.17	1721.73
1000.33	1620.35
1000.49	1797.50
1000.66	1854.85
1000.82	1637.35
1000.99	1717.43
1001.15	2009.88
1001.31	1806.72
1001.48	1683.64
1001.64	1719.68
1001.81	1848.91
1001.97	2107.97
1002.13	1622.40
1002.30	1654.14
1002.46	2022.16
1002.63	1827.61
1002.79	1718.25
1002.95	1630.80
1003.12	2005.37
1003.28	1900.11
1003.45	1632.23
1003.61	1618.71
1003.77	1904.00
1003.94	1716.61
1004.10	1675.24
1004.26	1696.95
1004.43	1910.14
1004.59	2072.95
1004.75	1640.22
1004.92	1610.93
1005.08	1805.49
1005.25	1912.60
1005.41	1634.69
1005.57	1703.71
1005.74	1992.47
1005.90	1828.02
1006.06	1751.83
1006.23	1637.97
1006.39	1942.09
1006.55	2207.92
1006.72	1790.33
1006.88	1607.45
1007.04	1758.39
1007.21	1838.46
1007.37	1675.44
1007.53	1626.09
1007.70	2049.81
1007.86	1990.63
1008.02	1704.73
1008.19	1603.15
1008.35	1907.27
1008.51	1754.49
1008.68	1651.69
1008.84	1575.09
1009.00	1773.95
1009.17	2003.73
1009.33	1798.53
1009.49	1711.90
1009.65	1769.65
1009.82	1945.98
1009.98	1716.61
1010.14	1562.40
1010.31	1969.53
1010.47	1941.06
1010.63	1705.55
1010.80	1694.49
1010.96	1940.45
1011.12	1848.70
1011.28	1662.95
1011.45	1637.15
1011.61	2199.93
1011.77	1756.95
1011.94	1621.99
1012.10	1595.16
1012.26	1754.70
1012.42	1803.44
1012.59	1675.85
1012.75	1705.34
1012.91	1861.60
1013.07	1973.22
1013.24	1590.66
1013.40	1628.34
1013.56	1895.60
1013.72	1849.73
1013.89	1732.17
1014.05	1721.73
1014.21	2108.38
1014.37	2198.70
1014.54	1705.55
1014.70	1611.55
1014.86	1835.59
1015.02	1721.73
1015.19	1681.38
1015.35	1599.26
1015.51	1840.10
1015.67	1811.63
1015.84	1626.50
1016.00	1662.95
1016.16	2011.31
1016.32	1970.15
1016.49	1628.95
1016.65	1630.39
1016.81	1884.54
1016.97	1954.99
1017.14	1759.41
1017.30	1644.31
1017.46	1814.09
1017.62	1904.00
1017.78	1697.56
1017.95	1619.12
1018.11	1972.40
1018.27	2169.00
1018.43	1753.06
1018.59	1708.62
1018.76	1975.27
1018.92	2189.89
1019.08	1606.84
1019.24	1640.22
1019.40	2057.59
1019.57	1889.25
1019.73	1719.68
1019.89	1648.61
1020.05	1870.41
1020.21	2137.26
1020.38	1594.34
1020.54	1808.97
1020.70	1927.14
1020.86	1957.24
1021.02	1657.42
1021.18	1653.94
1021.35	1787.06
1021.51	1950.90
1021.67	1791.15
1021.83	1670.73
1021.99	1895.40
1022.15	1879.22
1022.32	1750.60
1022.48	1695.51
1022.64	2017.04
1022.80	2071.93
1022.96	1726.85
1023.12	1599.87
1023.29	1992.47
1023.45	1907.07
1023.61	1640.63
1023.77	1797.71
1023.93	1893.55
1024.09	1783.58
1024.25	1644.11
1024.42	1594.75
1024.58	1818.60
1024.74	1895.40
1024.90	1664.18
1025.06	1706.98
1025.22	1808.36
1025.38	2093.23
1025.54	1611.96
1025.71	1733.20
1025.87	1947.82
1026.03	1917.31
1026.19	1611.34
1026.35	1791.36
1026.51	1948.23
1026.67	1855.25
1026.83	1712.72
1026.99	1778.66
1027.16	1899.70
1027.32	1995.75
1027.48	1688.76
1027.64	1639.60
1027.80	1951.71
1027.96	1896.01
1028.12	1655.58
1028.28	1614.00
1028.44	1901.33
1028.60	2041.82
1028.77	1761.05
1028.93	1684.45
1029.09	1839.69
1029.25	1743.64
1029.41	1693.06
1029.57	1749.37
1029.73	1906.45
1029.89	2067.42
1030.05	1786.65
1030.21	1744.25
1030.37	2160.81
1030.53	1959.29
1030.69	1675.03
1030.85	1578.37
1031.02	1776.61
1031.18	1875.73
1031.34	1675.24
1031.50	1732.79
1031.66	1782.14
1031.82	2071.32
1031.98	1693.87
1032.14	1619.94
1032.30	1758.39
1032.46	1981.82
1032.62	1770.88
1032.78	1598.85
1032.94	1801.39
1033.10	1831.29
1033.26	1703.91
1033.42	1743.23
1033.58	2146.07
1033.74	1788.90
1033.90	1638.38
1034.06	1830.88
1034.22	2158.15
1034.38	2007.01
1034.54	1710.87
1034.70	1684.86
1034.86	2107.97
>>>>>End Processed Spectral Data<<<<<
