SpectraSuite Data File
++++++++++++++++++++++++++++++++++++
Date: Thu Mar 30 16:25:00 PDT 2017
User: UCSD _CER
Dark Spectrum Present: No
Reference Spectrum Present: No
Number of Sampled Component Spectra: 1
Spectrometers: USB4C00073
Integration Time (usec): 250000 (USB4C00073)
Spectra Averaged: 10 (USB4C00073)
Boxcar Smoothing: 0 (USB4C00073)
Correct for Electrical Dark: No (USB4C00073)
Strobe/Lamp Enabled: No (USB4C00073)
Correct for Detector Non-linearity: No (USB4C00073)
Correct for Stray Light: No (USB4C00073)
Number of Pixels in Processed Spectrum: 3648
>>>>>Begin Processed Spectral Data<<<<<
345.37	1279.57
345.58	1279.57
345.80	1279.57
346.01	1270.97
346.22	1288.58
346.43	1987.35
346.65	1781.94
346.86	2121.29
347.07	2079.10
347.28	1808.77
347.50	1797.30
347.71	1916.49
347.92	1711.90
348.13	1816.34
348.35	1689.98
348.56	1915.26
348.77	1769.65
348.98	1773.95
349.20	1669.09
349.41	1923.04
349.62	1962.16
349.83	1878.81
350.05	1728.49
350.26	1966.87
350.47	2079.51
350.68	1789.72
350.90	1732.17
351.11	2091.39
351.32	2059.44
351.53	1818.39
351.75	1719.68
351.96	1947.41
352.17	1899.29
352.38	1847.27
352.60	1871.02
352.81	1928.78
353.02	2138.69
353.23	1782.76
353.44	1805.49
353.66	1829.66
353.87	1861.40
354.08	1880.85
354.29	1814.09
354.51	1843.99
354.72	1880.85
354.93	1803.44
355.14	1735.24
355.35	1752.45
355.57	2061.49
355.78	1812.45
355.99	1885.36
356.20	1928.57
356.42	1915.67
356.63	1904.41
356.84	1830.06
357.05	2040.19
357.26	2207.10
357.48	1867.95
357.69	1823.10
357.90	1974.24
358.11	1863.45
358.32	1831.29
358.54	1855.46
358.75	1853.82
358.96	1999.84
359.17	1777.02
359.38	1785.42
359.60	2006.80
359.81	1912.19
360.02	1806.31
360.23	1771.08
360.44	1836.21
360.66	2043.46
360.87	1760.23
361.08	1758.39
361.29	1949.05
361.50	1925.71
361.72	1767.40
361.93	1847.47
362.14	1925.50
362.35	1749.37
362.56	1901.74
362.77	1718.66
362.99	1973.83
363.20	1938.20
363.41	1875.94
363.62	1724.80
363.83	1970.76
364.05	2033.02
364.26	1695.92
364.47	1779.48
364.68	2068.24
364.89	1833.34
365.10	1741.80
365.32	1816.14
365.53	1818.60
365.74	1854.64
365.95	1793.41
366.16	1696.13
366.37	1877.78
366.59	1864.88
366.80	1781.53
367.01	1683.02
367.22	2170.03
367.43	2258.50
367.64	1805.49
367.86	1783.17
368.07	1959.50
368.28	2052.68
368.49	1736.47
368.70	1835.39
368.91	1854.85
369.12	1893.55
369.34	1721.73
369.55	1727.05
369.76	1884.75
369.97	1821.87
370.18	1734.22
370.39	1736.06
370.60	1743.03
370.82	1787.06
371.03	1814.71
371.24	1768.42
371.45	2010.08
371.66	1998.82
371.87	1803.44
372.08	1759.82
372.30	1803.85
372.51	2007.62
372.72	1881.47
372.93	1740.98
373.14	2046.54
373.35	1832.11
373.56	1749.58
373.78	1824.13
373.99	2026.06
374.20	2257.48
374.41	1790.74
374.62	1802.83
374.83	2103.06
375.04	1879.01
375.25	1804.06
375.47	1760.84
375.68	1863.04
375.89	2019.50
376.10	1795.04
376.31	1888.64
376.52	1953.15
376.73	1953.97
376.94	1829.66
377.15	1790.33
377.37	1911.16
377.58	1865.29
377.79	1678.11
378.00	1726.03
378.21	1936.76
378.42	1979.16
378.63	1817.16
378.84	1869.59
379.05	2025.24
379.27	1934.31
379.48	1901.95
379.69	1733.61
379.90	2048.79
380.11	1671.96
380.32	1823.92
380.53	1906.04
380.74	2060.67
380.95	1921.61
381.16	1802.01
381.37	1808.77
381.59	2108.59
381.80	2030.36
382.01	1756.75
382.22	1710.26
382.43	1983.05
382.64	1899.70
382.85	1769.04
383.06	1851.57
383.27	2018.07
383.48	1889.46
383.69	1870.00
383.91	1712.51
384.12	2004.76
384.33	1965.85
384.54	1816.34
384.75	1691.21
384.96	2276.11
385.17	2034.25
385.38	1769.24
385.59	1771.29
385.80	1987.35
386.01	2099.78
386.22	1872.25
386.43	1841.12
386.64	2179.86
386.86	1872.66
387.07	1898.88
387.28	1723.98
387.49	1833.55
387.70	2058.82
387.91	1868.36
388.12	1751.63
388.33	1968.92
388.54	1856.28
388.75	1761.46
388.96	1856.48
389.17	1862.63
389.38	1886.79
389.59	1877.17
389.80	1844.20
390.01	1901.13
390.22	1837.64
390.43	1907.48
390.64	1677.70
390.86	1960.73
391.07	2048.58
391.28	1785.21
391.49	1845.83
391.70	1766.58
391.91	1820.64
392.12	1819.21
392.33	1765.76
392.54	1903.79
392.75	1854.23
392.96	1898.88
393.17	1756.54
393.38	2183.95
393.59	2044.49
393.80	1760.64
394.01	1870.00
394.22	1994.31
394.43	2255.43
394.64	1862.22
394.85	2029.13
395.06	1989.81
395.27	1962.36
395.48	1847.88
395.69	1743.23
395.90	1903.59
396.11	1905.63
396.32	1759.82
396.53	1915.87
396.74	1881.47
396.95	2028.72
397.16	1759.41
397.37	1720.70
397.58	2016.43
397.79	1910.14
398.00	1852.18
398.21	1808.15
398.42	1943.11
398.63	2192.76
398.84	1790.54
399.05	1757.16
399.26	2080.94
399.47	1955.20
399.68	1615.85
399.89	1741.80
400.10	1770.88
400.31	1885.16
400.52	1840.30
400.73	1802.01
400.94	1722.96
401.15	1921.40
401.36	1780.30
401.57	1876.76
401.78	2055.55
401.99	2035.68
402.20	1736.47
402.41	1928.57
402.62	2093.23
402.83	1864.27
403.04	1756.75
403.25	1943.11
403.46	1998.41
403.67	2165.52
403.88	1947.00
404.09	1949.05
404.30	2019.50
404.51	1950.69
404.72	1854.85
404.93	1972.40
405.14	1834.37
405.35	1925.30
405.56	1825.76
405.77	1797.30
405.98	1932.26
406.19	1882.29
406.40	1757.98
406.61	1783.17
406.82	1816.34
407.03	2166.14
407.24	1726.03
407.45	1833.14
407.66	1923.45
407.87	2014.38
408.08	1834.98
408.29	1870.61
408.49	1965.85
408.70	1913.62
408.91	1827.20
409.12	1892.73
409.33	1793.20
409.54	2069.88
409.75	1765.76
409.96	1804.67
410.17	2009.26
410.38	1891.71
410.59	1776.00
410.80	1896.83
411.01	1888.84
411.22	1886.18
411.43	1870.82
411.64	1775.59
411.85	1799.55
412.06	1785.62
412.27	1644.31
412.47	1790.95
412.68	1885.16
412.89	1976.29
413.10	1786.85
413.31	1723.98
413.52	2176.99
413.73	2159.17
413.94	1757.36
414.15	1929.60
414.36	1845.42
414.57	1841.33
414.78	1820.85
414.99	2193.37
415.19	2677.31
415.40	2832.34
415.61	2991.67
415.82	2803.87
416.03	2753.70
416.24	2474.77
416.45	2198.29
416.66	1984.28
416.87	1843.58
417.08	2036.70
417.29	1834.37
417.50	1963.18
417.70	2115.35
417.91	2119.24
418.12	2082.58
418.33	2186.21
418.54	2344.51
418.75	2521.25
418.96	2561.60
419.17	2861.22
419.38	3363.17
419.59	3363.79
419.79	3213.88
420.00	3111.68
420.21	3134.83
420.42	2478.04
420.63	2182.32
420.84	2087.08
421.05	1968.51
421.26	1949.87
421.47	1748.15
421.67	2058.62
421.88	1816.34
422.09	1753.68
422.30	1946.80
422.51	1790.54
422.72	2116.78
422.93	1985.71
423.14	1811.02
423.35	1714.97
423.55	1732.38
423.76	1849.52
423.97	1816.55
424.18	1725.82
424.39	1913.83
424.60	2104.29
424.81	1901.54
425.02	2084.22
425.22	2184.98
425.43	2213.44
425.64	2393.26
425.85	2374.41
426.06	2659.70
426.27	2507.33
426.48	2535.79
426.68	2485.62
426.89	2615.67
427.10	2618.53
427.31	2225.53
427.52	1960.73
427.73	2139.92
427.94	2059.23
428.14	1945.16
428.35	1841.33
428.56	2090.57
428.77	2046.33
428.98	1925.71
429.19	2045.10
429.40	2148.73
429.60	2218.77
429.81	2283.49
430.02	2198.70
430.23	2091.59
430.44	2127.23
430.65	1909.94
430.85	1909.53
431.06	2001.48
431.27	1731.15
431.48	1828.43
431.69	1864.47
431.90	1915.06
432.10	1932.46
432.31	1902.56
432.52	1964.82
432.73	2555.46
432.94	2532.93
433.15	2393.05
433.35	2283.28
433.56	2416.19
433.77	2178.22
433.98	2161.22
434.19	2021.96
434.40	2018.68
434.60	2006.60
434.81	1862.63
435.02	1913.21
435.23	1894.99
435.44	1845.83
435.64	1724.80
435.85	1759.00
436.06	1900.52
436.27	1850.75
436.48	1736.68
436.68	1778.05
436.89	2160.40
437.10	1965.03
437.31	1841.94
437.52	1903.79
437.73	1942.29
437.93	1909.12
438.14	1865.09
438.35	1679.13
438.56	1839.49
438.77	1889.46
438.97	1947.62
439.18	1756.34
439.39	2060.67
439.60	1722.14
439.80	1705.96
440.01	1823.72
440.22	1821.87
440.43	1957.24
440.64	1721.11
440.84	1825.97
441.05	1795.25
441.26	2278.16
441.47	1828.43
441.68	1778.66
441.88	1878.19
442.09	1892.32
442.30	1928.16
442.51	1843.17
442.71	1866.93
442.92	1936.15
443.13	1762.48
443.34	1781.94
443.55	1769.04
443.75	1982.43
443.96	1764.33
444.17	1760.64
444.38	2043.46
444.58	1817.78
444.79	1892.94
445.00	1857.92
445.21	1880.24
445.41	1876.55
445.62	1651.28
445.83	1902.56
446.04	1892.73
446.24	1745.07
446.45	1655.78
446.66	1787.67
446.87	1954.38
447.07	1836.62
447.28	2011.51
447.49	1833.14
447.70	2012.74
447.90	2033.43
448.11	1816.34
448.32	1872.05
448.53	2087.90
448.73	2068.04
448.94	1831.70
449.15	1946.18
449.36	1933.90
449.56	1952.33
449.77	1821.67
449.98	1745.28
450.19	1916.49
450.39	2000.87
450.60	2009.26
450.81	2006.19
451.02	2079.71
451.22	2200.13
451.43	1898.88
451.64	1888.23
451.84	1965.64
452.05	2138.08
452.26	1907.27
452.47	1880.65
452.67	1894.99
452.88	2085.04
453.09	1778.66
453.30	1761.87
453.50	1998.00
453.71	2072.75
453.92	1807.33
454.12	1907.48
454.33	1824.74
454.54	1891.91
454.75	1755.52
454.95	1742.41
455.16	1940.66
455.37	2002.50
455.57	1846.86
455.78	1795.04
455.99	1903.18
456.19	1924.07
456.40	1746.71
456.61	1834.78
456.82	1917.51
457.02	2013.15
457.23	1856.28
457.44	1986.53
457.64	1863.65
457.85	1987.14
458.06	1846.04
458.26	1988.58
458.47	1920.59
458.68	2069.68
458.89	1788.08
459.09	2018.48
459.30	2246.42
459.51	1978.54
459.71	1757.98
459.92	1817.57
460.13	2058.41
460.33	2208.94
460.54	1805.49
460.75	1814.71
460.95	1793.00
461.16	1968.10
461.37	1817.37
461.57	1845.63
461.78	1920.38
461.99	1796.27
462.19	2055.34
462.40	1848.91
462.61	2211.81
462.81	2081.15
463.02	1792.59
463.23	1826.38
463.43	2046.94
463.64	1860.58
463.85	2795.27
464.05	1809.38
464.26	2354.75
464.47	2124.36
464.67	2006.19
464.88	1900.31
465.09	1832.32
465.29	1929.39
465.50	1958.68
465.71	1851.16
465.91	1841.33
466.12	1888.64
466.33	1885.16
466.53	1798.94
466.74	2079.10
466.94	1868.16
467.15	1839.69
467.36	2021.75
467.56	1778.46
467.77	1923.04
467.98	1857.30
468.18	1794.84
468.39	1866.52
468.60	2162.66
468.80	1863.24
469.01	1765.55
469.21	1981.20
469.42	2075.41
469.63	1902.77
469.83	1838.87
470.04	2113.50
470.25	2224.91
470.45	1933.49
470.66	1837.44
470.86	1992.06
471.07	1911.98
471.28	1944.75
471.48	2011.92
471.69	1956.01
471.90	2384.86
472.10	1819.83
472.31	1815.93
472.51	1826.99
472.72	1832.93
472.93	1755.31
473.13	1936.15
473.34	1933.90
473.54	1913.62
473.75	1850.75
473.96	2022.37
474.16	1949.87
474.37	2000.25
474.57	1931.64
474.78	1856.69
474.99	2022.57
475.19	1998.82
475.40	1839.90
475.60	1771.08
475.81	2087.08
476.02	1936.76
476.22	1955.81
476.43	2055.96
476.63	1980.39
476.84	2173.92
477.05	1740.16
477.25	1803.65
477.46	2309.29
477.66	1947.62
477.87	1748.97
478.08	1837.44
478.28	2045.92
478.49	1910.55
478.69	1797.91
478.90	1830.06
479.10	2004.55
479.31	2143.81
479.52	1886.79
479.72	1981.61
479.93	2013.97
480.13	1846.86
480.34	1799.35
480.54	1889.46
480.75	1825.35
480.96	2068.45
481.16	1799.75
481.37	1939.84
481.57	2022.57
481.78	2019.50
481.98	2026.06
482.19	1894.17
482.40	2161.84
482.60	2023.39
482.81	1945.98
483.01	1867.13
483.22	2097.12
483.42	2113.30
483.63	1996.16
483.83	1945.98
484.04	1882.90
484.24	2037.52
484.45	1899.08
484.66	1724.59
484.86	1984.48
485.07	1825.97
485.27	1909.94
485.48	1822.69
485.68	2102.85
485.89	1842.97
486.09	1933.90
486.30	1844.20
486.50	1953.15
486.71	1959.09
486.91	2000.66
487.12	2071.73
487.33	2293.11
487.53	2294.75
487.74	2057.59
487.94	2022.98
488.15	2140.33
488.35	2229.42
488.56	2094.46
488.76	2093.02
488.97	2084.01
489.17	2121.90
489.38	1967.48
489.58	1901.74
489.79	2039.16
489.99	1995.54
490.20	1909.53
490.40	1988.17
490.61	1985.51
490.81	1865.90
491.02	1879.83
491.22	1972.40
491.43	2048.38
491.63	1962.77
491.84	2027.90
492.04	1779.07
492.25	2038.55
492.45	1883.93
492.66	1862.22
492.86	1736.47
493.07	1905.02
493.27	2200.75
493.48	1741.80
493.68	1883.31
493.89	1914.24
494.09	2039.57
494.30	1832.73
494.50	2114.12
494.71	2022.57
494.91	1834.16
495.12	1947.41
495.32	2052.27
495.53	2036.50
495.73	1798.32
495.94	1870.41
496.14	1731.15
496.35	2169.62
496.55	1913.62
496.76	1857.10
496.96	1922.84
497.17	1930.01
497.37	2014.38
497.58	1853.21
497.78	1801.80
497.98	1917.92
498.19	1925.09
498.39	1924.48
498.60	1965.23
498.80	1771.90
499.01	2073.98
499.21	1792.18
499.42	1902.56
499.62	1895.19
499.83	2199.11
500.03	1740.77
500.24	1908.09
500.44	2098.14
500.64	2060.87
500.85	1843.79
501.05	1948.23
501.26	1738.32
501.46	2068.86
501.67	1825.97
501.87	1772.11
502.08	1817.78
502.28	1893.14
502.48	1924.07
502.69	2019.71
502.89	1811.63
503.10	1902.97
503.30	1961.75
503.51	1923.66
503.71	1811.22
503.92	2063.53
504.12	2002.71
504.32	1977.52
504.53	2155.08
504.73	2180.68
504.94	2139.51
505.14	2224.91
505.35	2277.55
505.55	2256.45
505.75	2175.97
505.96	2238.63
506.16	2373.60
506.37	2014.79
506.57	1938.20
506.78	2020.53
506.98	2154.26
507.18	1861.81
507.39	1870.82
507.59	1927.34
507.80	1930.21
508.00	2011.31
508.20	2079.92
508.41	1952.33
508.61	2154.05
508.82	2087.08
509.02	2004.35
509.22	1811.63
509.43	1796.07
509.63	1868.98
509.84	1882.08
510.04	1787.47
510.24	2137.67
510.45	2012.95
510.65	1773.95
510.86	1908.71
511.06	1852.39
511.26	2073.36
511.47	2026.26
511.67	1879.63
511.88	2072.75
512.08	2080.12
512.28	1791.56
512.49	1968.10
512.69	1949.05
512.90	1976.09
513.10	1843.17
513.30	1911.78
513.51	1993.08
513.71	2127.02
513.91	1937.58
514.12	1945.98
514.32	2111.25
514.53	2024.42
514.73	2137.46
514.93	2082.17
515.14	2160.81
515.34	2415.58
515.54	2257.27
515.75	2392.64
515.95	2558.94
516.15	2578.80
516.36	2229.62
516.56	2140.13
516.77	1822.08
516.97	2134.60
517.17	1991.24
517.38	2086.88
517.58	2279.39
517.78	2129.89
517.99	2294.95
518.19	2409.03
518.39	2688.78
518.60	2471.08
518.80	2320.55
519.00	2316.66
519.21	2150.37
519.41	2295.36
519.61	1929.39
519.82	2018.07
520.02	2041.82
520.22	2036.70
520.43	2010.90
520.63	2045.31
520.83	1948.44
521.04	1899.90
521.24	2244.57
521.44	2274.68
521.65	2366.02
521.85	2586.17
522.05	2346.36
522.26	2202.39
522.46	2392.44
522.66	2183.75
522.87	1938.81
523.07	2122.11
523.27	1997.59
523.48	2240.89
523.68	2018.27
523.88	2028.31
524.09	2178.01
524.29	2126.82
524.49	1985.71
524.70	2273.45
524.90	2423.36
525.10	2355.98
525.31	2048.17
525.51	1946.39
525.71	2147.09
525.91	2088.52
526.12	1884.75
526.32	1793.20
526.52	1900.11
526.73	1851.77
526.93	1925.09
527.13	1778.46
527.34	1924.48
527.54	1975.47
527.74	1899.49
527.94	1871.64
528.15	1890.89
528.35	1999.84
528.55	1982.02
528.76	1977.93
528.96	1759.61
529.16	2077.87
529.36	2016.02
529.57	1801.80
529.77	2069.68
529.97	1817.16
530.18	1954.17
530.38	1880.24
530.58	2019.50
530.78	1980.18
530.99	1863.04
531.19	1988.37
531.39	1879.22
531.60	1962.16
531.80	1875.32
532.00	2020.32
532.20	1983.46
532.41	1844.40
532.61	1842.15
532.81	1887.61
533.01	1907.48
533.22	1997.18
533.42	1992.67
533.62	1740.36
533.82	2099.99
534.03	1909.73
534.23	1965.03
534.43	1822.49
534.63	1887.61
534.84	1949.46
535.04	1942.50
535.24	1888.23
535.44	2262.60
535.65	1874.51
535.85	1818.39
536.05	1829.45
536.25	1932.26
536.46	1874.30
536.66	2100.81
536.86	1975.47
537.06	2113.50
537.27	2196.45
537.47	2028.92
537.67	1894.37
537.87	2157.33
538.08	1942.91
538.28	1830.88
538.48	1845.02
538.68	1968.71
538.88	2039.98
539.09	1837.64
539.29	1914.03
539.49	2059.23
539.69	1987.76
539.90	1962.77
540.10	1842.76
540.30	2162.25
540.50	1958.68
540.70	1866.72
540.91	2006.80
541.11	2142.18
541.31	2326.90
541.51	2166.34
541.72	2225.73
541.92	2254.61
542.12	2063.12
542.32	2019.09
542.52	1956.22
542.73	1953.15
542.93	2064.56
543.13	1929.80
543.33	2110.23
543.53	2191.74
543.74	2209.96
543.94	2064.56
544.14	2240.68
544.34	2421.52
544.54	2303.15
544.75	2426.43
544.95	2594.57
545.15	2483.98
545.35	2486.23
545.55	2291.27
545.75	2116.99
545.96	2386.09
546.16	1986.73
546.36	2023.80
546.56	2025.44
546.76	2181.91
546.97	2233.92
547.17	1972.19
547.37	2003.53
547.57	1892.32
547.77	2039.37
547.97	1973.63
548.18	1982.23
548.38	2029.74
548.58	2540.51
548.78	2616.28
548.98	3008.26
549.18	3361.54
549.39	3545.44
549.59	3157.56
549.79	2827.84
549.99	2898.29
550.19	2704.96
550.39	2552.79
550.60	2311.75
550.80	2266.08
551.00	2294.75
551.20	2040.39
551.40	2005.17
551.60	2103.26
551.80	2068.04
552.01	2128.25
552.21	2012.95
552.41	2086.88
552.61	2251.33
552.81	2052.47
553.01	1898.67
553.21	2061.28
553.42	1900.11
553.62	1886.38
553.82	1861.19
554.02	2152.21
554.22	2045.31
554.42	1845.42
554.62	2010.08
554.83	2359.26
555.03	2645.57
555.23	2630.21
555.43	3055.77
555.63	3016.04
555.83	2808.17
556.03	2546.65
556.23	2355.16
556.44	2504.87
556.64	2610.96
556.84	2163.68
557.04	2378.31
557.24	2402.06
557.44	2288.61
557.64	2140.95
557.84	1991.65
558.04	2022.98
558.25	2152.01
558.45	1918.54
558.65	2023.19
558.85	2072.13
559.05	1877.58
559.25	2052.06
559.45	2201.57
559.65	2591.70
559.85	3135.03
560.05	2613.00
560.26	2724.21
560.46	2753.90
560.66	2534.16
560.86	2350.04
561.06	2199.31
561.26	2456.54
561.46	2254.81
561.66	2097.12
561.86	2174.94
562.06	2016.23
562.26	2054.52
562.47	2027.49
562.67	1869.59
562.87	2096.51
563.07	1858.53
563.27	2032.40
563.47	2036.30
563.67	1979.77
563.87	2146.68
564.07	2073.36
564.27	2175.76
564.47	2283.08
564.67	2367.66
564.87	2249.49
565.08	2330.59
565.28	2146.07
565.48	2257.07
565.68	2162.65
565.88	2129.48
566.08	2294.54
566.28	2026.67
566.48	1840.92
566.68	1946.39
566.88	1898.88
567.08	2074.39
567.28	1960.11
567.48	1981.41
567.68	2113.30
567.88	1909.32
568.08	2119.03
568.28	2212.42
568.48	2090.77
568.68	2237.41
568.89	2064.56
569.09	1839.08
569.29	2108.59
569.49	2115.55
569.69	1864.06
569.89	1850.75
570.09	1730.33
570.29	1879.22
570.49	1770.88
570.69	1861.19
570.89	2044.08
571.09	2176.79
571.29	1776.20
571.49	2030.36
571.69	1982.43
571.89	1973.01
572.09	1831.50
572.29	1847.06
572.49	2016.43
572.69	2042.64
572.89	1960.11
573.09	1755.52
573.29	2102.24
573.49	2172.49
573.69	2152.42
573.89	2190.10
574.09	2027.28
574.29	2173.92
574.49	1930.62
574.69	1880.04
574.89	1861.81
575.09	1816.75
575.29	1816.34
575.49	1920.99
575.69	1976.70
575.89	1756.75
576.09	1927.55
576.29	1973.22
576.49	1834.98
576.69	1952.33
576.89	1923.86
577.09	2011.72
577.29	1830.06
577.49	2225.32
577.69	1902.36
577.89	2042.44
578.09	1978.34
578.29	1767.60
578.49	1928.78
578.69	1837.64
578.89	2046.94
579.09	1948.03
579.29	1844.61
579.49	2049.61
579.69	1970.35
579.89	2223.89
580.09	1790.13
580.29	1787.88
580.49	1895.80
580.69	1845.22
580.89	1859.76
581.09	1843.38
581.29	1866.72
581.49	1913.83
581.69	1782.55
581.89	1836.82
582.09	1807.95
582.28	1831.50
582.48	2056.16
582.68	2140.33
582.88	2218.56
583.08	2071.32
583.28	2048.58
583.48	2010.90
583.68	1907.89
583.88	1990.83
584.08	1980.80
584.28	1933.28
584.48	2192.35
584.68	1993.90
584.88	1893.14
585.08	2069.47
585.28	2081.35
585.48	2132.14
585.68	2034.45
585.87	2066.40
586.07	2030.77
586.27	1996.77
586.47	2016.02
586.67	1937.99
586.87	1972.60
587.07	1900.52
587.27	1848.91
587.47	2007.42
587.67	2314.61
587.87	2684.68
588.07	2530.88
588.27	2539.28
588.46	2774.79
588.66	2830.09
588.86	2475.18
589.06	2422.95
589.26	2395.30
589.46	2253.79
589.66	1996.16
589.86	1944.14
590.06	2032.40
590.26	2257.48
590.46	2149.14
590.66	2332.64
590.85	2272.43
591.05	2348.61
591.25	2129.27
591.45	2113.09
591.65	2225.73
591.85	2250.31
592.05	2180.88
592.25	2354.75
592.45	2461.86
592.64	2296.80
592.84	2234.95
593.04	2069.27
593.24	2473.95
593.44	2094.25
593.64	2197.47
593.84	2186.62
594.04	2078.28
594.24	2290.24
594.43	1994.72
594.63	2028.51
594.83	2137.67
595.03	2080.12
595.23	1866.93
595.43	1798.32
595.63	1862.42
595.83	2085.45
596.02	1744.05
596.22	1973.22
596.42	2030.56
596.62	2009.47
596.82	1930.01
597.02	2084.42
597.22	2146.68
597.41	1995.34
597.61	1922.43
597.81	2080.53
598.01	2172.49
598.21	2029.74
598.41	2034.66
598.61	1950.28
598.80	2066.61
599.00	2120.26
599.20	2177.61
599.40	2021.14
599.60	2066.61
599.80	2165.11
599.99	2206.28
600.19	1996.16
600.39	2085.45
600.59	2113.09
600.79	2053.70
600.99	2016.23
601.19	2245.60
601.38	2282.87
601.58	2086.06
601.78	1861.81
601.98	2385.27
602.18	3204.87
602.37	3937.83
602.57	4142.43
602.77	4631.28
602.97	4776.89
603.17	4425.46
603.37	4221.68
603.56	4243.19
603.76	4096.55
603.96	3930.46
604.16	3702.11
604.36	3447.14
604.56	3185.21
604.75	2730.35
604.95	2694.10
605.15	2719.91
605.35	2572.66
605.55	2358.65
605.74	2237.82
605.94	2375.64
606.14	2169.62
606.34	2141.97
606.54	2044.69
606.73	1968.92
606.93	2082.78
607.13	1859.76
607.33	1994.72
607.53	2159.17
607.72	2080.94
607.92	2009.47
608.12	2087.70
608.32	1962.36
608.51	2077.46
608.71	1950.08
608.91	2118.83
609.11	2226.76
609.31	2155.28
609.50	2293.32
609.70	2509.58
609.90	2477.02
610.10	2471.69
610.29	2291.88
610.49	2177.20
610.69	2306.22
610.89	2186.82
611.09	2154.67
611.28	2206.28
611.48	2179.04
611.68	2020.73
611.88	1983.87
612.07	1943.32
612.27	2135.01
612.47	1953.97
612.67	2019.09
612.86	2079.30
613.06	1984.28
613.26	1799.35
613.46	1992.26
613.65	2096.92
613.85	2499.34
614.05	2267.92
614.25	2245.80
614.44	2161.63
614.64	2166.96
614.84	2121.70
615.04	2082.58
615.23	2098.76
615.43	2167.98
615.63	2172.28
615.83	1994.52
616.02	2010.49
616.22	2337.14
616.42	2208.53
616.62	2283.08
616.81	2389.57
617.01	2473.95
617.21	2335.50
617.41	2147.91
617.60	2175.35
617.80	2221.64
618.00	2146.07
618.19	2064.35
618.39	2056.98
618.59	2068.24
618.79	1964.41
618.98	1762.48
619.18	1901.54
619.38	2189.28
619.57	1896.01
619.77	1878.81
619.97	1910.75
620.17	1920.38
620.36	1957.04
620.56	2256.25
620.76	2071.93
620.95	2155.49
621.15	2224.30
621.35	2101.42
621.54	2137.06
621.74	2163.68
621.94	2030.56
622.14	1951.30
622.33	1864.27
622.53	1970.15
622.73	1948.03
622.92	1784.19
623.12	1934.51
623.32	2184.36
623.51	2009.67
623.71	1787.26
623.91	2041.01
624.10	1823.31
624.30	1933.90
624.50	1803.85
624.69	1801.39
624.89	2419.47
625.09	1900.72
625.29	1698.18
625.48	1771.29
625.68	1956.63
625.88	2029.74
626.07	1926.73
626.27	1793.61
626.47	1826.58
626.66	1719.88
626.86	1892.94
627.06	1857.71
627.25	1934.72
627.45	2111.46
627.64	1865.09
627.84	2069.27
628.04	1830.27
628.23	2164.09
628.43	1790.74
628.63	1899.29
628.82	1983.05
629.02	2303.76
629.22	2198.29
629.41	2257.89
629.61	2164.29
629.81	2426.23
630.00	2089.75
630.20	2094.66
630.40	2283.49
630.59	2299.66
630.79	2134.39
630.98	2062.92
631.18	2058.82
631.38	2020.12
631.57	2114.94
631.77	1798.12
631.97	1964.21
632.16	1997.18
632.36	1950.49
632.56	1896.62
632.75	1953.35
632.95	2038.14
633.14	1778.46
633.34	2038.96
633.54	1692.44
633.73	1845.42
633.93	1858.94
634.12	1722.75
634.32	2221.23
634.52	1915.87
634.71	1791.15
634.91	1953.35
635.11	1760.23
635.30	1822.49
635.50	1951.30
635.69	1830.47
635.89	2201.36
636.09	2088.52
636.28	1892.94
636.48	1911.57
636.67	2112.68
636.87	2076.03
637.07	2048.99
637.26	1897.24
637.46	2051.25
637.65	2141.36
637.85	2046.74
638.04	1973.63
638.24	1993.70
638.44	2072.13
638.63	1982.23
638.83	1944.34
639.02	2001.68
639.22	2046.74
639.42	1918.54
639.61	1922.22
639.81	1920.99
640.00	1865.29
640.20	1979.77
640.39	2022.16
640.59	2455.51
640.79	2488.69
640.98	2553.61
641.18	2557.91
641.37	2636.35
641.57	2397.15
641.76	2354.55
641.96	2093.84
642.15	2255.43
642.35	2171.67
642.55	2147.09
642.74	1961.95
642.94	2134.19
643.13	2183.13
643.33	1928.37
643.52	1899.29
643.72	1857.92
643.91	1916.08
644.11	1828.43
644.31	1785.83
644.50	1824.13
644.70	2073.36
644.89	1857.51
645.09	1925.09
645.28	1906.04
645.48	1964.41
645.67	1825.15
645.87	1708.62
646.06	1870.82
646.26	1987.35
646.45	1735.45
646.65	1679.13
646.84	2146.68
647.04	1883.72
647.24	1766.37
647.43	1920.38
647.63	1943.73
647.82	2100.40
648.02	1767.60
648.21	1799.14
648.41	2080.94
648.60	1871.23
648.80	2026.47
648.99	1941.06
649.19	1835.59
649.38	1702.07
649.58	1907.68
649.77	1909.53
649.97	2033.84
650.16	1975.47
650.36	1674.62
650.55	2003.12
650.75	1958.06
650.94	2094.66
651.14	1879.22
651.33	1907.68
651.53	2098.35
651.72	1838.26
651.92	1878.81
652.11	1687.53
652.31	1954.58
652.50	1996.36
652.70	1951.92
652.89	1791.77
653.09	2125.59
653.28	1931.64
653.48	1764.73
653.67	1763.51
653.87	2303.15
654.06	1924.27
654.25	2089.75
654.45	1832.11
654.64	1882.49
654.84	1904.61
655.03	1694.69
655.23	1998.20
655.42	1982.43
655.62	2142.99
655.81	1888.64
656.01	1784.19
656.20	2013.56
656.40	2112.48
656.59	1900.11
656.79	2032.20
656.98	1928.57
657.17	2028.72
657.37	1897.24
657.56	1822.90
657.76	1966.46
657.95	2032.81
658.15	1573.66
658.34	1875.94
658.54	1894.17
658.73	1792.18
658.92	1860.99
659.12	1937.58
659.31	2007.83
659.51	1850.13
659.70	2061.28
659.90	1968.51
660.09	2145.45
660.29	2024.83
660.48	1876.96
660.67	2105.31
660.87	1925.71
661.06	2016.02
661.26	2019.71
661.45	1985.30
661.65	1988.99
661.84	1870.61
662.03	1832.73
662.23	1869.39
662.42	2171.26
662.62	1759.82
662.81	1751.22
663.00	1855.25
663.20	1913.42
663.39	1961.95
663.59	1977.93
663.78	1849.32
663.97	1840.10
664.17	2007.62
664.36	1719.06
664.56	1806.72
664.75	2008.85
664.94	1990.22
665.14	1945.16
665.33	1935.13
665.53	1987.96
665.72	2013.36
665.91	2107.16
666.11	1964.21
666.30	2006.19
666.50	1928.37
666.69	1976.90
666.88	1909.73
667.08	1962.36
667.27	1894.37
667.47	1935.74
667.66	1885.36
667.85	2042.64
668.05	1910.75
668.24	1841.94
668.43	2025.85
668.63	1872.46
668.82	2043.26
669.02	1997.79
669.21	1925.71
669.40	1812.04
669.60	2187.85
669.79	1784.80
669.98	2350.86
670.18	1823.51
670.37	1791.77
670.56	1855.05
670.76	1951.51
670.95	1891.30
671.15	2044.90
671.34	1994.72
671.53	1965.64
671.73	1913.01
671.92	1874.30
672.11	1849.11
672.31	1877.58
672.50	1961.95
672.69	1788.70
672.89	1689.98
673.08	1858.94
673.27	2023.80
673.47	1937.79
673.66	1935.94
673.85	1813.27
674.05	2063.12
674.24	2381.99
674.43	2478.25
674.63	2843.81
674.82	3279.00
675.01	2783.80
675.21	2869.00
675.40	2655.19
675.59	2562.01
675.79	2769.47
675.98	2432.17
676.17	2514.29
676.37	2396.74
676.56	2228.60
676.75	2164.50
676.95	2106.95
677.14	2023.80
677.33	2133.98
677.52	1834.16
677.72	1889.66
677.91	1976.90
678.10	1775.59
678.30	1763.51
678.49	1767.40
678.68	2162.86
678.88	1723.16
679.07	2013.15
679.26	1858.12
679.45	2132.35
679.65	2055.96
679.84	1715.58
680.03	1765.76
680.23	1870.41
680.42	2239.04
680.61	1757.36
680.81	1821.87
681.00	1904.20
681.19	1988.58
681.38	2010.08
681.58	1971.17
681.77	1902.56
681.96	2034.25
682.15	1869.80
682.35	1982.43
682.54	2029.13
682.73	1817.57
682.93	1831.50
683.12	1834.37
683.31	2045.51
683.50	2247.44
683.70	1836.41
683.89	1902.77
684.08	1796.68
684.27	2039.98
684.47	1729.10
684.66	1915.87
684.85	2153.64
685.04	2061.08
685.24	1817.37
685.43	1901.33
685.62	1701.04
685.81	2006.39
686.01	2123.33
686.20	2217.54
686.39	2287.38
686.58	2806.33
686.78	2619.35
686.97	2576.34
687.16	2527.19
687.35	2415.17
687.55	2276.93
687.74	2304.78
687.93	2186.41
688.12	2246.42
688.32	2226.96
688.51	2001.28
688.70	2199.11
688.89	1933.28
689.08	1854.03
689.28	1892.12
689.47	2012.74
689.66	1951.30
689.85	2036.91
690.05	1857.30
690.24	1864.68
690.43	1960.11
690.62	1929.39
690.81	1827.40
691.01	1908.30
691.20	1855.87
691.39	1797.71
691.58	1928.98
691.77	2137.87
691.97	1941.68
692.16	1945.98
692.35	1907.89
692.54	1884.95
692.73	2105.93
692.93	2074.39
693.12	2184.77
693.31	2232.49
693.50	2211.60
693.69	2184.16
693.89	2060.26
694.08	2247.44
694.27	2257.27
694.46	1982.84
694.65	2053.29
694.85	2143.81
695.04	2141.15
695.23	2112.68
695.42	2671.17
695.61	3098.17
695.80	3400.86
696.00	3671.80
696.19	3825.81
696.38	3361.13
696.57	3095.91
696.76	3005.19
696.95	2775.00
697.15	2908.53
697.34	2784.42
697.53	2439.54
697.72	2427.05
697.91	2257.89
698.10	2417.63
698.30	2057.39
698.49	2055.14
698.68	2062.30
698.87	1960.11
699.06	1842.97
699.25	1902.56
699.45	2064.15
699.64	1957.04
699.83	2020.94
700.02	1817.78
700.21	1959.91
700.40	1869.59
700.59	1856.69
700.79	1860.58
700.98	1972.40
701.17	1815.52
701.36	1845.22
701.55	1821.26
701.74	2139.10
701.93	2122.31
702.12	2502.00
702.32	2602.76
702.51	2946.41
702.70	3001.71
702.89	2714.17
703.08	2407.80
703.27	2634.92
703.46	2480.70
703.65	2307.45
703.85	2168.18
704.04	2162.65
704.23	2334.89
704.42	2064.35
704.61	2002.09
704.80	2231.26
704.99	1888.23
705.18	1976.49
705.37	1956.22
705.57	2398.58
705.76	3041.03
705.95	3179.68
706.14	3807.79
706.33	4092.66
706.52	4146.11
706.71	3401.88
706.90	3070.31
707.09	3050.04
707.28	2917.54
707.47	2654.17
707.67	2710.28
707.86	2461.86
708.05	2597.23
708.24	2308.88
708.43	2201.36
708.62	2037.52
708.81	1919.97
709.00	1843.58
709.19	1867.13
709.38	2060.46
709.57	1857.30
709.76	2041.21
709.96	1986.73
710.15	2213.44
710.34	2058.62
710.53	2138.49
710.72	2009.67
710.91	2152.62
711.10	2054.32
711.29	2065.99
711.48	1917.10
711.67	1872.05
711.86	2067.22
712.05	1889.66
712.24	1897.44
712.43	2076.23
712.62	2128.45
712.81	1958.06
713.00	2077.66
713.19	1803.24
713.39	2012.74
713.58	1816.34
713.77	1959.09
713.96	2097.12
714.15	2024.83
714.34	1991.44
714.53	1881.26
714.72	2274.88
714.91	1928.16
715.10	2048.79
715.29	1931.03
715.48	2468.01
715.67	2139.92
715.86	2043.67
716.05	1993.08
716.24	1981.61
716.43	1951.71
716.62	1844.40
716.81	1818.39
717.00	1930.42
717.19	2162.86
717.38	1967.69
717.57	1908.50
717.76	1755.72
717.95	2026.67
718.14	1927.34
718.33	1867.34
718.52	1717.02
718.71	1745.89
718.90	1763.92
719.09	1823.51
719.28	1912.39
719.47	2061.89
719.66	2135.21
719.85	2116.17
720.04	2083.81
720.23	2142.79
720.42	2070.09
720.61	2144.22
720.80	1898.06
720.99	2110.43
721.18	1969.12
721.37	1924.68
721.56	1974.45
721.75	2081.97
721.94	1868.36
722.13	1929.39
722.32	1910.96
722.51	2050.63
722.70	1919.77
722.89	1939.63
723.08	1884.95
723.27	2014.38
723.46	1927.96
723.65	1868.77
723.84	1865.09
724.03	2074.39
724.22	1753.88
724.41	1915.47
724.60	1889.66
724.79	2043.67
724.98	1951.30
725.16	1839.49
725.35	1974.45
725.54	1797.91
725.73	1923.45
725.92	1942.50
726.11	2007.62
726.30	2277.14
726.49	2121.08
726.68	2278.57
726.87	2387.73
727.06	2430.12
727.25	2125.79
727.44	2237.41
727.63	2183.54
727.82	2093.64
728.01	2104.70
728.20	2161.43
728.38	2252.15
728.57	2008.44
728.76	1993.70
728.95	2068.65
729.14	1814.09
729.33	1824.54
729.52	1687.73
729.71	1812.25
729.90	1830.88
730.09	1914.44
730.28	2017.25
730.47	1992.67
730.66	2285.53
730.84	2175.35
731.03	2132.96
731.22	2155.28
731.41	2109.41
731.60	2161.63
731.79	1862.01
731.98	1929.39
732.17	2079.71
732.36	2065.99
732.55	1904.20
732.73	1854.85
732.92	2142.99
733.11	2003.53
733.30	1857.30
733.49	1773.13
733.68	2003.53
733.87	1993.29
734.06	1890.28
734.25	2042.44
734.43	2228.19
734.62	2413.94
734.81	2428.48
735.00	2402.06
735.19	2347.79
735.38	2336.32
735.57	2076.64
735.76	2251.95
735.94	2406.16
736.13	2975.70
736.32	3033.04
736.51	3130.32
736.70	3496.91
736.89	3617.33
737.08	3382.83
737.27	3730.38
737.45	4618.78
737.64	4792.04
737.83	5295.43
738.02	5387.39
738.21	5206.96
738.40	4554.89
738.59	4073.21
738.77	3909.98
738.96	3601.15
739.15	3429.32
739.34	3255.66
739.53	3039.80
739.72	2973.86
739.90	2814.11
740.09	2407.59
740.28	2388.75
740.47	2338.58
740.66	2249.08
740.85	2002.09
741.03	2048.17
741.22	1879.22
741.41	1990.83
741.60	1887.20
741.79	2054.32
741.98	2191.12
742.16	2330.79
742.35	2138.69
742.54	2142.58
742.73	2502.82
742.92	2228.19
743.10	2156.51
743.29	2207.51
743.48	2505.89
743.67	2069.88
743.86	1956.83
744.05	1996.77
744.23	1979.57
744.42	1962.16
744.61	1974.86
744.80	1877.58
744.99	1958.88
745.17	1779.48
745.36	1786.44
745.55	1975.88
745.74	1927.14
745.93	1810.40
746.11	1830.27
746.30	1819.83
746.49	2032.20
746.68	1799.96
746.86	1905.84
747.05	1855.87
747.24	1994.72
747.43	2062.71
747.62	1851.16
747.80	1934.31
747.99	2190.10
748.18	2144.02
748.37	2057.80
748.56	2064.56
748.74	2156.51
748.93	2062.71
749.12	2283.08
749.31	2930.23
749.49	3424.20
749.68	3784.24
749.87	4171.92
750.06	4265.92
750.24	4376.71
750.43	4717.70
750.62	5171.33
750.81	5513.54
750.99	5825.86
751.18	5743.32
751.37	4995.00
751.56	4456.79
751.74	4574.55
751.93	4420.13
752.12	3588.45
752.31	3365.02
752.49	3153.67
752.68	3208.76
752.87	2792.00
753.06	2554.64
753.24	2428.48
753.43	2447.32
753.62	2110.23
753.81	2058.21
753.99	2273.25
754.18	2077.46
754.37	1869.18
754.55	1989.60
754.74	2176.17
754.93	1757.98
755.12	1870.41
755.30	1821.26
755.49	2030.36
755.68	1958.27
755.86	1923.04
756.05	1799.35
756.24	2111.05
756.43	1764.73
756.61	1780.30
756.80	1948.44
756.99	2071.52
757.17	1925.50
757.36	1784.19
757.55	1910.55
757.74	1977.72
757.92	1929.39
758.11	1758.80
758.30	1718.45
758.48	1891.09
758.67	1770.06
758.86	1913.42
759.04	1799.55
759.23	1867.95
759.42	1942.91
759.60	1849.11
759.79	1885.16
759.98	1882.49
760.16	1785.62
760.35	1823.92
760.54	1765.76
760.73	1919.77
760.91	1745.89
761.10	1901.95
761.29	1968.30
761.47	1949.26
761.66	2215.90
761.85	1983.46
762.03	2103.67
762.22	2871.46
762.41	5108.66
762.59	7702.00
762.78	9064.10
762.97	10900.93
763.15	11599.70
763.34	10583.29
763.52	8084.56
763.71	7590.39
763.90	7062.42
764.08	6604.70
764.27	6223.98
764.46	5863.13
764.64	5192.83
764.83	4772.59
765.02	4382.86
765.20	3911.83
765.39	3484.62
765.58	2772.74
765.76	2606.25
765.95	2394.49
766.13	2198.70
766.32	2074.18
766.51	2045.51
766.69	2587.40
766.88	2029.13
767.07	1854.03
767.25	1754.09
767.44	2081.76
767.62	2078.07
767.81	1853.62
768.00	1925.71
768.18	1958.27
768.37	1866.31
768.56	1785.83
768.74	1856.69
768.93	1799.75
769.11	1993.49
769.30	1924.68
769.49	1829.45
769.67	1894.78
769.86	1855.87
770.04	1871.02
770.23	1869.18
770.42	2091.39
770.60	1912.80
770.79	1783.37
770.97	1881.67
771.16	2401.24
771.35	3026.28
771.53	3624.29
771.72	4021.60
771.90	4548.74
772.09	4872.12
772.27	4432.42
772.46	3608.11
772.65	3660.13
772.83	3424.20
773.02	3331.64
773.20	3029.76
773.39	3053.73
773.58	2942.32
773.76	2580.44
773.95	2512.24
774.13	2503.23
774.32	2267.10
774.50	2073.36
774.69	2079.71
774.87	1977.72
775.06	2219.18
775.25	1861.60
775.43	1912.19
775.62	1955.20
775.80	1991.44
775.99	1934.51
776.17	1802.01
776.36	1914.85
776.54	2051.25
776.73	1848.29
776.92	1951.10
777.10	2035.27
777.29	1975.47
777.47	1815.32
777.66	1864.27
777.84	1910.35
778.03	1900.72
778.21	1805.08
778.40	1896.01
778.58	1980.18
778.77	2050.84
778.95	1752.86
779.14	1796.07
779.32	2149.34
779.51	2029.13
779.70	1866.31
779.88	1756.75
780.07	1901.33
780.25	2213.44
780.44	1850.13
780.62	1996.56
780.81	1975.88
780.99	1933.90
781.18	1848.50
781.36	1836.41
781.55	1842.35
781.73	2093.23
781.92	1764.53
782.10	1764.94
782.29	1944.75
782.47	2084.63
782.66	1901.95
782.84	1749.58
783.03	1840.30
783.21	2036.91
783.40	1853.82
783.58	1804.67
783.77	1851.16
783.95	1870.82
784.14	1782.96
784.32	1886.38
784.51	2056.57
784.69	1831.50
784.88	1776.82
785.06	1930.82
785.24	1789.31
785.43	2049.81
785.61	1983.66
785.80	1845.02
785.98	2021.55
786.17	1956.63
786.35	1842.76
786.54	1972.81
786.72	2048.58
786.91	2041.42
787.09	1873.07
787.28	1796.89
787.46	1927.75
787.65	2035.27
787.83	1779.68
788.01	1924.89
788.20	1814.09
788.38	1995.54
788.57	1926.32
788.75	1968.51
788.94	2252.56
789.12	2122.72
789.31	1939.43
789.49	2010.08
789.67	1889.05
789.86	1976.29
790.04	1849.11
790.23	1805.69
790.41	2263.01
790.60	1961.13
790.78	1938.20
790.96	1942.09
791.15	2035.27
791.33	1926.73
791.52	1895.19
791.70	1816.14
791.89	1966.05
792.07	2054.73
792.25	1891.71
792.44	1776.41
792.62	2046.54
792.81	1850.95
792.99	1896.01
793.17	1820.23
793.36	1838.67
793.54	2280.41
793.73	2641.47
793.91	3090.18
794.10	3606.68
794.28	4041.26
794.46	3973.47
794.65	3911.62
794.83	3291.90
795.01	3228.42
795.20	3201.59
795.38	3020.96
795.57	2955.63
795.75	2886.82
795.93	2633.69
796.12	2591.09
796.30	2567.74
796.49	2491.76
796.67	2195.83
796.85	2292.50
797.04	2141.77
797.22	2175.35
797.40	1864.06
797.59	1985.10
797.77	1975.27
797.96	1838.87
798.14	1839.08
798.32	1865.29
798.51	2032.20
798.69	2183.13
798.87	1894.99
799.06	1885.16
799.24	1773.13
799.42	2207.92
799.61	2446.91
799.79	2710.69
799.98	3166.16
800.16	3200.98
800.34	3822.74
800.53	4607.52
800.71	4800.64
800.89	5551.02
801.08	5674.31
801.26	5633.76
801.44	4847.34
801.63	4196.08
801.81	4113.55
801.99	3874.35
802.18	3646.00
802.36	3560.19
802.54	3334.91
802.73	2977.95
802.91	2888.05
803.09	2784.21
803.28	2613.62
803.46	2525.15
803.64	2529.24
803.83	2106.54
804.01	1994.11
804.19	1927.34
804.38	2155.08
804.56	2085.45
804.74	1981.00
804.92	2016.23
805.11	1896.01
805.29	2093.84
805.47	1917.10
805.66	1820.64
805.84	1813.68
806.02	2101.01
806.21	1891.09
806.39	2058.82
806.57	2080.94
806.76	2061.49
806.94	1959.29
807.12	1889.05
807.30	1905.63
807.49	2055.14
807.67	2027.49
807.85	2068.86
808.04	2112.89
808.22	2290.65
808.40	1823.51
808.58	1821.46
808.77	2041.82
808.95	2201.16
809.13	2302.12
809.31	3471.92
809.50	4566.56
809.68	5230.51
809.86	5688.23
810.05	6072.64
810.23	6706.28
810.41	8337.28
810.59	12874.97
810.78	15762.19
810.96	18071.28
811.14	19496.05
811.32	19046.72
811.51	15579.31
811.69	12700.68
811.87	12567.57
812.05	11029.54
812.24	10437.06
812.42	9672.35
812.60	8795.41
812.78	7490.65
812.97	6529.33
813.15	6042.94
813.33	5257.95
813.51	4646.84
813.70	3872.09
813.88	3322.21
814.06	2941.70
814.24	2573.07
814.42	2197.68
814.61	2231.06
814.79	2321.78
814.97	1869.39
815.15	1949.46
815.34	2024.42
815.52	2090.36
815.70	1798.53
815.88	1866.72
816.06	1811.63
816.25	1865.90
816.43	1811.22
816.61	1974.04
816.79	2111.87
816.98	1788.29
817.16	1868.36
817.34	1877.17
817.52	2016.43
817.70	2189.28
817.89	1887.20
818.07	1818.39
818.25	1922.02
818.43	1967.28
818.61	1918.33
818.80	1850.54
818.98	2126.61
819.16	1945.37
819.34	1795.86
819.52	2074.18
819.70	1795.45
819.89	1915.87
820.07	1744.05
820.25	1708.62
820.43	1938.81
820.61	2029.74
820.80	1897.44
820.98	1806.92
821.16	1703.50
821.34	1753.88
821.52	1860.99
821.70	1899.08
821.89	1915.06
822.07	1875.53
822.25	1829.66
822.43	1788.49
822.61	2055.14
822.79	1942.29
822.98	1841.12
823.16	1652.30
823.34	1925.91
823.52	2067.22
823.70	1968.10
823.88	1702.27
824.06	1964.62
824.25	1897.03
824.43	1996.97
824.61	1820.03
824.79	1943.11
824.97	2007.83
825.15	2113.30
825.33	2428.28
825.52	2805.10
825.70	2938.84
825.88	3075.43
826.06	3320.17
826.24	3384.68
826.42	3206.50
826.60	2792.00
826.78	2852.21
826.97	2642.08
827.15	2764.76
827.33	2422.75
827.51	2503.64
827.69	2305.40
827.87	2329.77
828.05	2263.01
828.23	2068.65
828.41	2259.52
828.60	2202.18
828.78	1866.72
828.96	2024.01
829.14	1873.89
829.32	1929.19
829.50	1864.47
829.68	1867.13
829.86	1868.16
830.04	1995.13
830.22	1914.03
830.41	1784.40
830.59	1887.20
830.77	1957.86
830.95	1805.49
831.13	1803.03
831.31	1816.34
831.49	2007.83
831.67	1976.90
831.85	1973.01
832.03	1856.07
832.21	1998.61
832.39	1777.02
832.57	1795.86
832.76	2007.83
832.94	1910.35
833.12	1714.15
833.30	1867.75
833.48	2061.89
833.66	1955.61
833.84	1790.33
834.02	1878.60
834.20	2008.24
834.38	1993.29
834.56	1708.83
834.74	1771.70
834.92	1785.42
835.10	2142.38
835.28	1936.15
835.46	1870.00
835.64	1867.95
835.82	1807.74
836.01	2084.42
836.19	1964.62
836.37	1819.42
836.55	1786.44
836.73	1790.54
836.91	1739.34
837.09	1968.71
837.27	2094.05
837.45	1740.57
837.63	1800.37
837.81	1798.94
837.99	1939.02
838.17	1894.58
838.35	1843.17
838.53	2289.63
838.71	2095.69
838.89	1928.57
839.07	1927.14
839.25	2043.87
839.43	2157.33
839.61	2141.36
839.79	2997.61
839.97	3787.51
840.15	4263.67
840.33	4588.88
840.51	4955.47
840.69	4729.58
840.87	4075.87
841.05	3813.32
841.23	3930.05
841.41	4721.18
841.59	6289.11
841.77	6936.88
841.95	7454.20
842.13	8083.95
842.31	7622.74
842.49	6324.74
842.67	5533.61
842.85	5513.75
843.03	4847.95
843.21	4634.35
843.39	4441.02
843.57	4076.07
843.75	3752.08
843.93	3378.33
844.11	3125.41
844.29	2994.95
844.47	2795.07
844.65	2752.06
844.83	2440.56
845.01	2311.34
845.19	2323.42
845.36	2077.66
845.54	2080.94
845.72	2038.75
845.90	2016.63
846.08	1822.08
846.26	1880.65
846.44	1981.61
846.62	1979.36
846.80	1876.96
846.98	1815.32
847.16	1847.88
847.34	1901.33
847.52	1768.42
847.70	1767.81
847.88	1876.96
848.06	2072.95
848.24	1937.17
848.41	1720.91
848.59	2021.96
848.77	1951.71
848.95	1837.23
849.13	1797.91
849.31	1961.75
849.49	1923.66
849.67	1763.92
849.85	1742.62
850.03	1932.05
850.21	1919.15
850.39	1814.71
850.57	1910.14
850.74	2062.71
850.92	2095.28
851.10	2169.82
851.28	2409.84
851.46	2718.68
851.64	3062.94
851.82	2870.43
852.00	2919.17
852.18	2885.38
852.36	2616.89
852.53	2428.89
852.71	2435.24
852.89	2418.65
853.07	2366.63
853.25	2177.81
853.43	2043.46
853.61	2159.99
853.79	2148.32
853.97	1957.65
854.14	1907.48
854.32	2148.11
854.50	2076.64
854.68	1923.04
854.86	1893.35
855.04	1842.76
855.22	2029.13
855.40	1743.23
855.57	1826.58
855.75	1993.90
855.93	1961.75
856.11	1705.55
856.29	1771.08
856.47	1802.01
856.65	1906.45
856.82	1803.85
857.00	1714.15
857.18	1883.31
857.36	1833.75
857.54	1882.90
857.72	1984.07
857.89	1967.89
858.07	1904.20
858.25	1976.29
858.43	1735.45
858.61	1848.09
858.79	1869.59
858.97	1787.88
859.14	1888.64
859.32	1855.25
859.50	1846.24
859.68	1923.04
859.86	1852.59
860.03	1940.25
860.21	2001.07
860.39	1849.32
860.57	1957.86
860.75	1993.49
860.93	2165.11
861.10	2025.03
861.28	1848.50
861.46	1977.93
861.64	1999.23
861.82	1901.33
861.99	1937.58
862.17	2018.27
862.35	2060.05
862.53	1868.98
862.71	1865.90
862.88	1927.34
863.06	1967.89
863.24	1847.27
863.42	1776.00
863.60	1856.89
863.77	1951.71
863.95	1692.44
864.13	1866.52
864.31	1839.49
864.49	1982.64
864.66	1730.12
864.84	1812.45
865.02	1900.52
865.20	2228.39
865.37	1872.66
865.55	1799.96
865.73	1760.84
865.91	2052.88
866.09	2035.27
866.26	2028.92
866.44	2154.05
866.62	2042.44
866.80	1904.00
866.97	1979.77
867.15	1943.52
867.33	1993.90
867.51	2008.44
867.68	1923.66
867.86	1912.39
868.04	1857.51
868.22	1727.46
868.39	1838.46
868.57	1931.44
868.75	2097.73
868.93	1721.73
869.10	1805.49
869.28	2122.51
869.46	2052.68
869.64	1860.99
869.81	1844.20
869.99	1911.57
870.17	1913.42
870.35	1788.70
870.52	1772.52
870.70	2016.02
870.88	1815.52
871.05	1737.70
871.23	1639.81
871.41	1884.34
871.59	1893.96
871.76	1803.65
871.94	1787.06
872.12	1873.69
872.29	1713.33
872.47	1808.97
872.65	1768.22
872.83	1914.03
873.00	2058.82
873.18	1865.90
873.36	1812.25
873.53	1976.90
873.71	1735.45
873.89	1798.12
874.06	1867.95
874.24	1925.09
874.42	2047.56
874.60	1964.41
874.77	1871.64
874.95	1802.01
875.13	2022.78
875.30	1793.00
875.48	1842.35
875.66	2116.37
875.83	1834.57
876.01	1851.16
876.19	1968.10
876.36	1764.53
876.54	1918.33
876.72	1787.06
876.89	1925.09
877.07	1992.47
877.25	1703.50
877.42	1871.02
877.60	1838.05
877.78	2113.91
877.95	1834.57
878.13	1768.01
878.31	1916.28
878.48	1998.61
878.66	1970.15
878.84	1788.08
879.01	1863.24
879.19	1970.56
879.37	1958.27
879.54	1809.99
879.72	1704.32
879.90	1674.62
880.07	1979.98
880.25	1577.55
880.42	1929.80
880.60	1917.72
880.78	1961.54
880.95	1841.33
881.13	1849.32
881.31	1905.84
881.48	1790.74
881.66	1777.64
881.83	1883.72
882.01	1808.36
882.19	1717.02
882.36	1887.20
882.54	1819.62
882.72	1972.40
882.89	1887.61
883.07	1737.09
883.24	1809.99
883.42	1990.22
883.60	1922.02
883.77	1766.99
883.95	1832.11
884.12	2036.50
884.30	1998.41
884.48	2022.98
884.65	1944.14
884.83	1989.19
885.00	1998.82
885.18	1812.45
885.36	1831.91
885.53	2004.14
885.71	2085.65
885.88	1746.71
886.06	1820.64
886.23	1986.12
886.41	1849.73
886.59	1803.65
886.76	1809.18
886.94	1960.52
887.11	2233.11
887.29	1828.43
887.47	1692.65
887.64	2042.85
887.82	2057.80
887.99	1688.96
888.17	1845.63
888.34	1828.84
888.52	1750.19
888.69	1870.00
888.87	1737.91
889.05	1807.74
889.22	1819.62
889.40	1772.93
889.57	1978.75
889.75	2042.64
889.92	1835.59
890.10	1741.80
890.27	1792.38
890.45	1783.37
890.62	1692.24
890.80	1737.09
890.98	1694.08
891.15	2086.27
891.33	1990.01
891.50	1786.85
891.68	1688.35
891.85	1987.76
892.03	1977.52
892.20	1772.52
892.38	1754.70
892.55	1952.33
892.73	1955.40
892.90	1742.21
893.08	1772.52
893.25	1804.06
893.43	1807.54
893.60	1929.39
893.78	1663.57
893.95	1931.03
894.13	1889.46
894.30	1757.36
894.48	1859.76
894.65	2010.90
894.83	1900.11
895.00	1658.04
895.18	1686.30
895.35	1998.41
895.53	1961.13
895.70	1726.23
895.88	1933.08
896.05	1940.45
896.23	1749.37
896.40	1807.74
896.58	1867.54
896.75	1983.66
896.93	2088.72
897.10	1779.07
897.28	1741.18
897.45	1938.40
897.63	1959.91
897.80	1931.23
897.98	1831.50
898.15	1942.70
898.33	1790.95
898.50	1893.35
898.67	1832.52
898.85	1829.45
899.02	1939.84
899.20	1993.90
899.37	1840.92
899.55	1905.43
899.72	2063.12
899.90	1776.61
900.07	1766.37
900.25	1945.57
900.42	2026.67
900.59	1811.84
900.77	1890.48
900.94	1948.44
901.12	1907.68
901.29	1787.67
901.47	1922.84
901.64	1966.87
901.82	1869.39
901.99	1633.05
902.16	1738.52
902.34	2027.49
902.51	1915.06
902.69	1785.21
902.86	1857.71
903.03	2318.92
903.21	1884.13
903.38	1842.76
903.56	1770.47
903.73	2018.07
903.91	1821.26
904.08	1745.69
904.25	1668.68
904.43	1785.01
904.60	1971.58
904.78	1831.29
904.95	1732.58
905.12	1834.78
905.30	2085.24
905.47	1936.56
905.65	1965.03
905.82	1927.55
905.99	2005.99
906.17	1919.97
906.34	1828.22
906.52	1876.14
906.69	2019.71
906.86	2012.54
907.04	1929.60
907.21	2068.04
907.38	2047.56
907.56	1820.23
907.73	1835.59
907.91	2098.35
908.08	2036.09
908.25	1787.47
908.43	1768.83
908.60	1965.64
908.77	1947.62
908.95	1820.03
909.12	1755.93
909.30	1985.51
909.47	1733.40
909.64	1860.58
909.82	1941.68
909.99	1868.98
910.16	1900.52
910.34	1784.60
910.51	1803.44
910.68	1915.06
910.86	1879.63
911.03	1748.15
911.20	1973.22
911.38	2589.66
911.55	3542.78
911.72	3875.17
911.90	3949.51
912.07	4327.15
912.24	4390.44
912.42	3511.24
912.59	2910.16
912.76	2930.64
912.94	2656.42
913.11	2399.60
913.28	2265.67
913.46	2179.45
913.63	2267.92
913.80	2412.92
913.98	2080.74
914.15	2275.29
914.32	2267.92
914.49	2096.92
914.67	1939.22
914.84	2097.94
915.01	2149.96
915.19	2038.14
915.36	1936.76
915.53	2104.08
915.71	2031.59
915.88	1957.04
916.05	1813.07
916.22	2033.43
916.40	1938.81
916.57	1783.78
916.74	1872.25
916.92	2090.36
917.09	1748.56
917.26	1772.31
917.43	1748.97
917.61	1846.04
917.78	1715.38
917.95	1689.16
918.13	1726.03
918.30	2160.81
918.47	1898.67
918.64	1771.29
918.82	1792.38
918.99	1938.81
919.16	2174.94
919.33	1920.59
919.51	1890.68
919.68	1959.50
919.85	2109.00
920.02	1752.45
920.20	1820.03
920.37	2118.83
920.54	1994.31
920.71	1780.30
920.89	1812.04
921.06	2112.68
921.23	1839.69
921.40	1770.26
921.58	2081.56
921.75	2606.45
921.92	2242.12
922.09	2318.92
922.27	2320.96
922.44	2287.38
922.61	2219.59
922.78	2018.07
922.96	1970.56
923.13	1969.74
923.30	2103.47
923.47	1763.30
923.64	1860.78
923.82	1983.46
923.99	1970.35
924.16	1883.93
924.33	1775.18
924.50	1919.97
924.68	2124.15
924.85	1777.64
925.02	1852.80
925.19	2018.68
925.36	1941.68
925.54	1918.74
925.71	1881.47
925.88	2300.07
926.05	1849.93
926.22	1785.21
926.40	1862.63
926.57	1885.77
926.74	1964.21
926.91	1773.13
927.08	1988.58
927.26	2022.16
927.43	1877.58
927.60	1760.64
927.77	1813.07
927.94	2067.83
928.11	2028.72
928.29	1716.81
928.46	1854.03
928.63	1800.37
928.80	1871.23
928.97	1893.55
929.14	1731.35
929.32	2166.34
929.49	1891.91
929.66	1765.35
929.83	1697.15
930.00	1821.05
930.17	1914.44
930.35	1727.67
930.52	1789.72
930.69	2079.92
930.86	1766.37
931.03	1882.29
931.20	1627.32
931.37	2032.40
931.55	1869.59
931.72	1862.83
931.89	1706.78
932.06	1759.21
932.23	2093.02
932.40	1907.07
932.57	1894.78
932.74	2068.65
932.92	2022.16
933.09	1947.21
933.26	1607.04
933.43	1837.64
933.60	1915.87
933.77	1847.27
933.94	1869.39
934.11	1833.96
934.29	1885.77
934.46	1719.27
934.63	1898.26
934.80	1759.41
934.97	1885.36
935.14	1821.87
935.31	1691.62
935.48	1804.67
935.65	1930.42
935.82	1904.61
936.00	1735.45
936.17	2082.58
936.34	1862.01
936.51	1931.23
936.68	1717.22
936.85	1929.19
937.02	1907.68
937.19	1894.99
937.36	1786.85
937.53	1937.58
937.70	1984.48
937.87	1847.68
938.05	1918.54
938.22	1892.12
938.39	1756.54
938.56	1841.94
938.73	1739.54
938.90	1862.22
939.07	1781.53
939.24	1852.80
939.41	1670.12
939.58	1941.06
939.75	1939.84
939.92	1753.88
940.09	1977.52
940.26	1846.65
940.43	2006.60
940.60	1798.53
940.77	1789.72
940.95	1920.59
941.12	1984.89
941.29	1801.19
941.46	1852.59
941.63	2040.39
941.80	2060.05
941.97	1684.45
942.14	1709.03
942.31	1947.21
942.48	1869.39
942.65	1884.54
942.82	1825.76
942.99	1958.06
943.16	1911.98
943.33	1711.49
943.50	1786.65
943.67	1976.29
943.84	2010.29
944.01	1818.60
944.18	1742.00
944.35	2059.64
944.52	1779.48
944.69	1838.26
944.86	1701.86
945.03	1978.13
945.20	2215.08
945.37	1686.30
945.54	1864.68
945.71	2058.62
945.88	2147.70
946.05	1736.68
946.22	1722.75
946.39	2059.85
946.56	1871.84
946.73	1714.76
946.90	1771.90
947.07	1838.67
947.24	1877.37
947.41	1677.70
947.58	1915.87
947.75	1978.95
947.92	1904.41
948.09	1595.98
948.26	1677.08
948.43	1912.39
948.60	2106.34
948.77	1756.75
948.94	1793.61
949.11	1961.34
949.27	1935.74
949.44	1756.34
949.61	1756.54
949.78	1922.02
949.95	2025.85
950.12	1751.22
950.29	1697.56
950.46	1827.61
950.63	1988.37
950.80	1762.28
950.97	1815.93
951.14	1987.96
951.31	1853.62
951.48	1765.76
951.65	1728.90
951.82	2101.63
951.99	1903.59
952.15	1687.94
952.32	1766.78
952.49	1812.66
952.66	1818.19
952.83	1743.85
953.00	1738.32
953.17	1837.64
953.34	2016.84
953.51	1836.41
953.68	1826.58
953.85	2002.91
954.02	2015.82
954.18	1814.71
954.35	1831.29
954.52	1780.09
954.69	1892.32
954.86	1636.33
955.03	1821.87
955.20	1966.66
955.37	1886.79
955.54	1779.28
955.71	1762.89
955.87	1908.91
956.04	2064.97
956.21	1795.04
956.38	1743.23
956.55	1883.52
956.72	2196.45
956.89	1800.37
957.06	1740.77
957.23	1793.20
957.39	2029.54
957.56	1788.70
957.73	1726.44
957.90	1620.76
958.07	2090.16
958.24	1803.24
958.41	1779.89
958.57	1982.02
958.74	1869.18
958.91	1700.84
959.08	1750.19
959.25	1969.94
959.42	1881.67
959.59	1834.37
959.75	1786.24
959.92	2045.51
960.09	1991.44
960.26	1753.47
960.43	1832.32
960.60	1910.35
960.76	1832.73
960.93	1675.65
961.10	1839.49
961.27	2004.14
961.44	1843.79
961.61	1723.98
961.77	1700.84
961.94	1887.00
962.11	2001.48
962.28	1790.13
962.45	1699.20
962.62	1845.63
962.78	2001.28
962.95	1729.92
963.12	1782.96
963.29	1960.73
963.46	2245.60
963.62	1855.25
963.79	1761.25
963.96	2180.68
964.13	1853.82
964.30	1858.94
964.46	1775.59
964.63	1765.96
964.80	2213.44
964.97	1685.68
965.14	1932.67
965.30	2029.74
965.47	2101.83
965.64	2040.39
965.81	2007.01
965.98	2156.72
966.14	1988.17
966.31	1831.09
966.48	1835.18
966.65	2085.04
966.81	1964.41
966.98	1819.62
967.15	1859.76
967.32	1920.38
967.49	1840.51
967.65	1678.92
967.82	1670.73
967.99	1882.29
968.16	1730.94
968.32	1976.70
968.49	1779.89
968.66	1865.29
968.83	2074.80
968.99	1849.32
969.16	1725.00
969.33	2062.71
969.50	1954.58
969.66	1885.16
969.83	1991.65
970.00	1963.39
970.17	1957.04
970.33	1791.97
970.50	1719.47
970.67	2065.79
970.84	2049.81
971.00	1744.66
971.17	1737.91
971.34	1977.93
971.50	1879.42
971.67	1881.88
971.84	1830.27
972.01	1754.90
972.17	1623.02
972.34	1757.36
972.51	1872.87
972.67	2010.90
972.84	1898.26
973.01	1711.08
973.18	1769.04
973.34	1991.44
973.51	1767.60
973.68	1797.09
973.84	1814.09
974.01	1830.68
974.18	2086.47
974.34	1837.03
974.51	1838.26
974.68	1784.19
974.85	2120.06
975.01	1891.30
975.18	1799.96
975.35	1890.28
975.51	1778.66
975.68	1680.97
975.85	1911.16
976.01	1806.92
976.18	2066.61
976.35	1779.48
976.51	1762.28
976.68	2078.69
976.85	2022.57
977.01	1820.85
977.18	1859.15
977.35	1933.49
977.51	1740.98
977.68	1620.76
977.85	1705.34
978.01	2034.25
978.18	1953.56
978.35	1825.35
978.51	1810.61
978.68	2010.08
978.85	2127.02
979.01	1778.46
979.18	1833.75
979.34	1863.45
979.51	1928.57
979.68	1722.34
979.84	1822.49
980.01	2175.56
980.18	1885.97
980.34	1773.75
980.51	1846.86
980.67	1970.97
980.84	1972.40
981.01	1802.01
981.17	1868.16
981.34	1665.00
981.51	1969.33
981.67	1723.78
981.84	1865.09
982.00	1944.55
982.17	1906.04
982.34	1677.29
982.50	1581.03
982.67	2080.94
982.83	1824.54
983.00	1700.43
983.17	1602.33
983.33	2003.94
983.50	1692.85
983.66	1701.66
983.83	1596.19
984.00	1814.30
984.16	1876.55
984.33	1639.40
984.49	1594.96
984.66	1765.55
984.83	1975.68
984.99	1659.67
985.16	1597.21
985.32	1961.13
985.49	1990.83
985.65	1741.18
985.82	1618.71
985.99	2071.52
986.15	1895.19
986.32	1710.67
986.48	1650.05
986.65	1843.58
986.81	1974.04
986.98	1603.97
987.14	1697.15
987.31	1902.56
987.48	1735.24
987.64	1555.02
987.81	1601.72
987.97	2168.18
988.14	1787.47
988.30	1638.58
988.47	1515.09
988.63	1920.18
988.80	1725.21
988.96	1680.97
989.13	1720.29
989.30	1826.79
989.46	1985.51
989.63	1588.61
989.79	1579.39
989.96	1880.44
990.12	2031.58
990.29	1672.37
990.45	1681.59
990.62	1876.96
990.78	2048.99
990.95	1761.66
991.11	1661.11
991.28	1822.08
991.44	1914.24
991.61	1539.87
991.77	1714.76
991.94	1884.95
992.10	2031.99
992.27	1723.98
992.43	1684.04
992.60	1926.52
992.76	1817.37
992.93	1813.27
993.09	1626.91
993.26	1984.07
993.42	2116.17
993.59	1643.70
993.75	1571.00
993.92	1804.87
994.08	1808.36
994.25	1710.26
994.41	1608.47
994.58	1944.14
994.74	2035.68
994.91	1611.34
995.07	1729.51
995.24	1844.61
995.40	1867.34
995.56	1778.87
995.73	1720.91
995.89	2084.83
996.06	1854.03
996.22	1618.30
996.39	1577.96
996.55	1867.95
996.72	1934.72
996.88	1561.78
997.05	1646.16
997.21	2110.43
997.37	1947.82
997.54	1697.56
997.70	1654.55
997.87	1916.28
998.03	1880.24
998.20	1549.49
998.36	1574.07
998.52	1933.69
998.69	1954.38
998.85	1568.95
999.02	1651.69
999.18	1992.26
999.35	1991.85
999.51	1642.47
999.67	1644.93
999.84	1757.57
1000.00	1977.11
1000.17	1735.86
1000.33	1616.67
1000.49	1805.08
1000.66	1837.03
1000.82	1635.71
1000.99	1733.81
1001.15	2042.23
1001.31	1849.73
1001.48	1669.09
1001.64	1708.21
1001.81	1855.05
1001.97	2123.54
1002.13	1659.47
1002.30	1660.90
1002.46	2028.10
1002.63	1813.89
1002.79	1733.61
1002.95	1654.76
1003.12	2003.12
1003.28	1931.85
1003.45	1646.57
1003.61	1613.39
1003.77	1893.76
1003.94	1725.21
1004.10	1650.05
1004.26	1710.46
1004.43	1943.73
1004.59	2075.21
1004.75	1650.05
1004.92	1604.58
1005.08	1804.67
1005.25	1919.97
1005.41	1659.06
1005.57	1703.09
1005.74	2053.50
1005.90	1852.59
1006.06	1759.41
1006.23	1687.94
1006.39	1970.15
1006.55	2248.46
1006.72	1791.36
1006.88	1633.66
1007.04	1775.59
1007.21	1863.24
1007.37	1667.46
1007.53	1645.75
1007.70	2054.93
1007.86	1959.09
1008.02	1716.61
1008.19	1637.56
1008.35	1898.47
1008.51	1788.49
1008.68	1681.79
1008.84	1573.86
1009.00	1744.05
1009.17	2008.65
1009.33	1762.69
1009.49	1738.73
1009.65	1783.58
1009.82	1926.32
1009.98	1710.46
1010.14	1563.21
1010.31	1953.15
1010.47	1941.27
1010.63	1702.48
1010.80	1711.90
1010.96	1942.70
1011.12	1823.92
1011.28	1670.94
1011.45	1643.49
1011.61	2220.82
1011.77	1754.49
1011.94	1612.98
1012.10	1620.15
1012.26	1744.66
1012.42	1812.25
1012.59	1676.06
1012.75	1705.96
1012.91	1842.15
1013.07	1991.65
1013.24	1595.78
1013.40	1632.64
1013.56	1909.32
1013.72	1872.25
1013.89	1733.81
1014.05	1734.83
1014.21	2136.24
1014.37	2201.98
1014.54	1680.15
1014.70	1637.15
1014.86	1853.82
1015.02	1751.22
1015.19	1649.23
1015.35	1617.69
1015.51	1837.23
1015.67	1803.44
1015.84	1642.47
1016.00	1634.89
1016.16	1998.00
1016.32	1978.95
1016.49	1643.49
1016.65	1605.40
1016.81	1853.41
1016.97	1940.45
1017.14	1769.45
1017.30	1660.29
1017.46	1809.79
1017.62	1905.23
1017.78	1707.39
1017.95	1601.31
1018.11	1979.57
1018.27	2173.92
1018.43	1764.12
1018.59	1714.76
1018.76	1960.52
1018.92	2207.92
1019.08	1649.23
1019.24	1674.62
1019.40	2025.65
1019.57	1891.91
1019.73	1729.92
1019.89	1684.66
1020.05	1900.72
1020.21	2121.90
1020.38	1624.65
1020.54	1783.37
1020.70	1933.90
1020.86	1949.46
1021.02	1684.04
1021.18	1641.86
1021.35	1809.99
1021.51	1941.68
1021.67	1788.29
1021.83	1683.02
1021.99	1866.11
1022.15	1914.65
1022.32	1721.11
1022.48	1701.04
1022.64	2049.40
1022.80	2087.49
1022.96	1697.56
1023.12	1596.39
1023.29	1980.80
1023.45	1931.85
1023.61	1643.90
1023.77	1822.28
1023.93	1907.27
1024.09	1770.47
1024.25	1629.57
1024.42	1620.76
1024.58	1823.10
1024.74	1909.53
1024.90	1669.71
1025.06	1726.03
1025.22	1789.72
1025.38	2044.69
1025.54	1612.37
1025.71	1743.85
1025.87	1944.55
1026.03	1944.55
1026.19	1622.61
1026.35	1776.00
1026.51	1959.29
1026.67	1878.40
1026.83	1699.20
1026.99	1763.51
1027.16	1933.69
1027.32	1861.60
1027.48	1672.17
1027.64	1620.35
1027.80	1943.32
1027.96	1876.55
1028.12	1657.01
1028.28	1613.39
1028.44	1891.71
1028.60	2070.09
1028.77	1785.21
1028.93	1701.45
1029.09	1845.22
1029.25	1781.53
1029.41	1686.91
1029.57	1754.49
1029.73	1890.28
1029.89	2056.16
1030.05	1738.73
1030.21	1702.27
1030.37	2151.39
1030.53	1962.36
1030.69	1677.70
1030.85	1598.03
1031.02	1766.99
1031.18	1881.26
1031.34	1681.79
1031.50	1757.98
1031.66	1772.31
1031.82	2094.25
1031.98	1676.26
1032.14	1628.54
1032.30	1780.91
1032.46	2004.14
1032.62	1781.53
1032.78	1619.53
1032.94	1795.04
1033.10	1837.44
1033.26	1726.64
1033.42	1772.52
1033.58	2140.33
1033.74	1819.62
1033.90	1653.73
1034.06	1829.04
1034.22	2144.22
1034.38	2014.59
1034.54	1658.85
1034.70	1698.18
1034.86	2093.43
>>>>>End Processed Spectral Data<<<<<
