SpectraSuite Data File
++++++++++++++++++++++++++++++++++++
Date: Thu Mar 30 16:02:53 PDT 2017
User: UCSD _CER
Dark Spectrum Present: No
Reference Spectrum Present: No
Number of Sampled Component Spectra: 1
Spectrometers: USB4C00073
Integration Time (usec): 250000 (USB4C00073)
Spectra Averaged: 10 (USB4C00073)
Boxcar Smoothing: 0 (USB4C00073)
Correct for Electrical Dark: No (USB4C00073)
Strobe/Lamp Enabled: No (USB4C00073)
Correct for Detector Non-linearity: No (USB4C00073)
Correct for Stray Light: No (USB4C00073)
Number of Pixels in Processed Spectrum: 3648
>>>>>Begin Processed Spectral Data<<<<<
345.37	1266.05
345.58	1266.05
345.80	1266.05
346.01	1275.68
346.22	1270.36
346.43	1955.40
346.65	1793.61
346.86	2128.04
347.07	2081.97
347.28	1805.28
347.50	1785.83
347.71	1912.19
347.92	1701.25
348.13	1808.15
348.35	1717.22
348.56	1912.19
348.77	1775.79
348.98	1834.98
349.20	1663.36
349.41	1929.60
349.62	1993.70
349.83	1871.43
350.05	1716.40
350.26	1932.87
350.47	2050.02
350.68	1769.85
350.90	1711.49
351.11	2071.32
351.32	2066.61
351.53	1784.19
351.75	1721.93
351.96	1956.63
352.17	1905.02
352.38	1850.13
352.60	1842.76
352.81	1913.83
353.02	2119.65
353.23	1759.82
353.44	1811.84
353.66	1843.99
353.87	1852.18
354.08	1901.74
354.29	1813.48
354.51	1830.68
354.72	1889.87
354.93	1777.64
355.14	1728.90
355.35	1724.18
355.57	2040.60
355.78	1787.26
355.99	1868.57
356.20	1917.72
356.42	1899.70
356.63	1900.51
356.84	1829.66
357.05	2039.37
357.26	2171.26
357.48	1893.96
357.69	1822.08
357.90	1948.03
358.11	1860.37
358.32	1818.60
358.54	1837.64
358.75	1837.64
358.96	2000.87
359.17	1791.77
359.38	1795.86
359.60	1993.08
359.81	1896.42
360.02	1819.42
360.23	1776.41
360.44	1832.11
360.66	2041.42
360.87	1745.28
361.08	1756.34
361.29	1962.16
361.50	1909.12
361.72	1778.05
361.93	1851.98
362.14	1912.19
362.35	1743.23
362.56	1882.08
362.77	1733.20
362.99	2002.50
363.20	1914.44
363.41	1884.34
363.62	1725.62
363.83	1958.88
364.05	2011.72
364.26	1698.18
364.47	1786.03
364.68	2048.38
364.89	1822.28
365.10	1724.59
365.32	1809.59
365.53	1798.12
365.74	1854.64
365.95	1787.47
366.16	1695.51
366.37	1894.17
366.59	1873.69
366.80	1807.95
367.01	1645.95
367.22	2167.77
367.43	2288.20
367.64	1822.90
367.86	1804.26
368.07	1959.70
368.28	2050.43
368.49	1758.18
368.70	1840.92
368.91	1868.98
369.12	1903.38
369.34	1687.94
369.55	1735.86
369.76	1920.59
369.97	1853.21
370.18	1749.78
370.39	1744.46
370.60	1738.11
370.82	1781.73
371.03	1809.38
371.24	1742.00
371.45	1998.41
371.66	1979.36
371.87	1822.90
372.08	1754.90
372.30	1789.31
372.51	2011.11
372.72	1871.84
372.93	1762.48
373.14	2059.23
373.35	1797.50
373.56	1738.52
373.78	1815.93
373.99	2016.23
374.20	2297.21
374.41	1787.26
374.62	1813.68
374.83	2091.18
375.04	1857.10
375.25	1808.15
375.47	1776.82
375.68	1838.26
375.89	2002.09
376.10	1818.80
376.31	1904.20
376.52	1974.04
376.73	1952.33
376.94	1807.74
377.15	1770.26
377.37	1902.97
377.58	1871.84
377.79	1689.57
378.00	1737.91
378.21	1943.93
378.42	1992.47
378.63	1814.71
378.84	1862.63
379.05	2032.20
379.27	1909.12
379.48	1907.27
379.69	1746.30
379.90	2048.17
380.11	1673.40
380.32	1806.31
380.53	1888.02
380.74	2069.88
380.95	1888.43
381.16	1779.28
381.37	1795.66
381.59	2069.88
381.80	2039.37
382.01	1742.21
382.22	1662.54
382.43	1968.10
382.64	1915.06
382.85	1722.14
383.06	1852.80
383.27	1996.97
383.48	1878.19
383.69	1844.20
383.91	1731.15
384.12	1973.42
384.33	1962.77
384.54	1807.54
384.75	1689.98
384.96	2273.45
385.17	1990.83
385.38	1769.85
385.59	1772.72
385.80	2025.85
386.01	2098.14
386.22	1904.20
386.43	1817.16
386.64	2200.95
386.86	1878.81
387.07	1896.21
387.28	1729.71
387.49	1838.46
387.70	2041.62
387.91	1869.59
388.12	1726.03
388.33	1952.74
388.54	1856.28
388.75	1763.92
388.96	1845.02
389.17	1857.51
389.38	1879.42
389.59	1849.73
389.80	1806.10
390.01	1889.87
390.22	1855.46
390.43	1923.66
390.64	1682.20
390.86	1948.44
391.07	2027.28
391.28	1810.61
391.49	1825.76
391.70	1734.22
391.91	1787.47
392.12	1806.31
392.33	1801.80
392.54	1891.50
392.75	1862.22
392.96	1889.66
393.17	1736.27
393.38	2193.99
393.59	2048.99
393.80	1729.30
394.01	1839.28
394.22	1924.07
394.43	2212.83
394.64	1833.96
394.85	1989.40
395.06	1941.47
395.27	1962.36
395.48	1812.86
395.69	1749.37
395.90	1873.48
396.11	1896.62
396.32	1762.07
396.53	1870.61
396.74	1876.35
396.95	2038.14
397.16	1766.78
397.37	1719.06
397.58	1994.72
397.79	1915.47
398.00	1864.88
398.21	1809.99
398.42	1916.90
398.63	2173.10
398.84	1801.80
399.05	1772.11
399.26	2070.50
399.47	1970.56
399.68	1634.48
399.89	1747.33
400.10	1779.68
400.31	1850.13
400.52	1824.33
400.73	1751.42
400.94	1732.99
401.15	1934.72
401.36	1790.54
401.57	1856.69
401.78	2055.34
401.99	2012.13
402.20	1719.06
402.41	1914.85
402.62	2079.92
402.83	1880.04
403.04	1761.66
403.25	1921.61
403.46	1942.70
403.67	2118.01
403.88	1871.02
404.09	1849.32
404.30	1923.66
404.51	1896.21
404.72	1790.95
404.93	1956.42
405.14	1829.25
405.35	1908.09
405.56	1805.28
405.77	1785.42
405.98	1921.20
406.19	1895.19
406.40	1764.94
406.61	1765.55
406.82	1831.50
407.03	2202.59
407.24	1703.71
407.45	1819.21
407.66	1950.08
407.87	2009.06
408.08	1840.51
408.29	1858.12
408.49	1981.20
408.70	1888.84
408.91	1816.96
409.12	1886.79
409.33	1785.62
409.54	2046.74
409.75	1778.05
409.96	1777.43
410.17	2020.53
410.38	1862.22
410.59	1764.94
410.80	1879.01
411.01	1897.24
411.22	1883.31
411.43	1858.94
411.64	1741.39
411.85	1822.90
412.06	1808.77
412.27	1638.38
412.47	1764.73
412.68	1881.88
412.89	1931.85
413.10	1786.24
413.31	1684.25
413.52	2151.80
413.73	2159.38
413.94	1756.13
414.15	1919.97
414.36	1858.53
414.57	1802.83
414.78	1747.12
414.99	2024.83
415.19	2377.49
415.40	2484.80
415.61	2582.08
415.82	2408.21
416.03	2404.93
416.24	2268.53
416.45	2020.53
416.66	1849.52
416.87	1781.32
417.08	2021.96
417.29	1788.29
417.50	1902.36
417.70	2069.47
417.91	2049.40
418.12	1981.00
418.33	2001.89
418.54	2175.76
418.75	2322.40
418.96	2295.77
419.17	2445.68
419.38	2868.79
419.59	2796.30
419.79	2688.16
420.00	2554.64
420.21	2794.86
420.42	2277.96
420.63	2012.95
420.84	1988.78
421.05	1944.14
421.26	1918.95
421.47	1721.11
421.67	2061.89
421.88	1798.53
422.09	1740.98
422.30	1976.90
422.51	1813.07
422.72	2115.96
422.93	1978.34
423.14	1796.07
423.35	1667.46
423.55	1702.48
423.76	1796.27
423.97	1836.62
424.18	1712.92
424.39	1882.90
424.60	2029.54
424.81	1863.65
425.02	2004.14
425.22	2051.86
425.43	2054.52
425.64	2197.68
425.85	2133.78
426.06	2428.28
426.27	2307.45
426.48	2284.51
426.68	2240.48
426.89	2315.64
427.10	2435.24
427.31	2041.62
427.52	1873.89
427.73	2056.37
427.94	2008.44
428.14	1911.57
428.35	1806.31
428.56	2080.53
428.77	1991.85
428.98	1872.46
429.19	1965.64
429.40	2019.30
429.60	2087.49
429.81	2122.92
430.02	2047.15
430.23	2011.31
430.44	2073.57
430.65	1849.73
430.85	1876.35
431.06	1968.51
431.27	1697.56
431.48	1790.33
431.69	1856.69
431.90	1916.49
432.10	1900.92
432.31	1856.69
432.52	1858.33
432.73	2405.54
432.94	2346.77
433.15	2169.21
433.35	2051.66
433.56	2280.00
433.77	2059.64
433.98	2044.08
434.19	1900.92
434.40	1984.07
434.60	1948.44
434.81	1818.60
435.02	1878.60
435.23	1868.16
435.44	1841.74
435.64	1688.55
435.85	1753.06
436.06	1903.38
436.27	1831.50
436.48	1730.12
436.68	1770.67
436.89	2095.07
437.10	1974.86
437.31	1837.23
437.52	1900.92
437.73	1922.22
437.93	1904.20
438.14	1856.89
438.35	1683.43
438.56	1853.62
438.77	1883.93
438.97	1922.63
439.18	1755.93
439.39	2055.96
439.60	1748.97
439.80	1690.80
440.01	1800.37
440.22	1838.05
440.43	1981.41
440.64	1731.56
440.84	1815.11
441.05	1761.66
441.26	2223.89
441.47	1844.61
441.68	1776.41
441.88	1869.18
442.09	1843.99
442.30	1925.50
442.51	1830.68
442.71	1857.71
442.92	1962.36
443.13	1757.57
443.34	1730.12
443.55	1797.09
443.75	1973.22
443.96	1739.75
444.17	1732.38
444.38	2010.29
444.58	1803.65
444.79	1887.20
445.00	1851.77
445.21	1872.05
445.41	1880.24
445.62	1616.87
445.83	1868.16
446.04	1905.23
446.24	1744.87
446.45	1646.16
446.66	1791.77
446.87	1963.39
447.07	1863.04
447.28	2028.72
447.49	1824.13
447.70	1994.31
447.90	2020.73
448.11	1809.99
448.32	1875.94
448.53	2047.97
448.73	2045.72
448.94	1786.44
449.15	1932.67
449.36	1896.62
449.56	1957.65
449.77	1778.46
449.98	1728.28
450.19	1868.57
450.39	1945.57
450.60	1958.47
450.81	1923.66
451.02	1977.31
451.22	2155.08
451.43	1817.16
451.64	1846.45
451.84	1906.25
452.05	2109.00
452.26	1877.37
452.47	1833.75
452.67	1845.83
452.88	2071.52
453.09	1755.72
453.30	1724.39
453.50	2006.80
453.71	2126.41
453.92	1784.19
454.12	1888.84
454.33	1801.39
454.54	1866.72
454.75	1752.45
454.95	1741.59
455.16	1911.37
455.37	1942.29
455.57	1848.70
455.78	1802.62
455.99	1885.36
456.19	1932.46
456.40	1737.70
456.61	1848.91
456.82	1895.60
457.02	2015.82
457.23	1864.68
457.44	1986.12
457.64	1839.08
457.85	1948.44
458.06	1807.13
458.26	1981.82
458.47	1912.19
458.68	2047.97
458.89	1746.71
459.09	1975.06
459.30	2210.37
459.51	1947.21
459.71	1740.98
459.92	1761.46
460.13	1998.41
460.33	2179.65
460.54	1829.66
460.75	1822.28
460.95	1777.43
461.16	1978.54
461.37	1783.37
461.57	1837.44
461.78	1943.11
461.99	1779.07
462.19	2040.60
462.40	1783.78
462.61	2356.80
462.81	2059.64
463.02	1760.43
463.23	1807.33
463.43	2015.20
463.64	1859.15
463.85	2735.06
464.05	1833.75
464.26	2330.79
464.47	2104.49
464.67	1994.31
464.88	1841.12
465.09	1825.15
465.29	1909.32
465.50	1926.73
465.71	1830.47
465.91	1854.23
466.12	1856.89
466.33	1848.70
466.53	1789.31
466.74	2085.45
466.94	1868.36
467.15	1820.03
467.36	2016.02
467.56	1794.64
467.77	1954.38
467.98	1862.83
468.18	1785.01
468.39	1870.21
468.60	2151.39
468.80	1842.35
469.01	1763.10
469.21	1960.52
469.42	2041.01
469.63	1873.07
469.83	1819.21
470.04	2054.93
470.25	2143.61
470.45	1913.83
470.66	1817.57
470.86	1951.92
471.07	1881.06
471.28	1948.44
471.48	1949.46
471.69	1928.37
471.90	2352.30
472.10	1797.50
472.31	1798.73
472.51	1831.50
472.72	1812.25
472.93	1738.52
473.13	1940.45
473.34	1946.80
473.54	1902.15
473.75	1836.41
473.96	1989.81
474.16	1901.13
474.37	2018.48
474.57	1927.96
474.78	1812.04
474.99	2008.85
475.19	1974.86
475.40	1838.67
475.60	1754.49
475.81	2086.06
476.02	1890.07
476.22	1920.79
476.43	2005.78
476.63	1919.97
476.84	2121.90
477.05	1707.19
477.25	1824.74
477.46	2295.36
477.66	1950.28
477.87	1704.93
478.08	1842.35
478.28	2037.32
478.49	1896.21
478.69	1776.82
478.90	1820.03
479.10	1980.59
479.31	2096.10
479.52	1881.47
479.72	1950.69
479.93	2003.94
480.13	1848.70
480.34	1807.13
480.54	1895.80
480.75	1788.70
480.96	2059.03
481.16	1787.47
481.37	1930.01
481.57	2002.71
481.78	1952.33
481.98	2024.42
482.19	1884.95
482.40	2167.37
482.60	1996.56
482.81	1938.40
483.01	1825.76
483.22	2079.51
483.42	2095.89
483.63	1987.14
483.83	1908.50
484.04	1849.52
484.24	2025.44
484.45	1879.83
484.66	1708.21
484.86	1954.38
485.07	1821.87
485.27	1876.55
485.48	1804.06
485.68	2082.37
485.89	1813.68
486.09	1918.54
486.30	1800.98
486.50	1936.97
486.71	1941.68
486.91	1958.47
487.12	2007.01
487.33	2235.56
487.53	2244.57
487.74	2072.54
487.94	1971.17
488.15	2071.73
488.35	2139.92
488.56	2030.56
488.76	1996.77
488.97	1991.44
489.17	2072.95
489.38	1915.67
489.58	1864.68
489.79	2032.20
489.99	1953.35
490.20	1898.88
490.40	1954.99
490.61	1982.23
490.81	1863.24
491.02	1872.05
491.22	1928.37
491.43	2029.13
491.63	1934.10
491.84	1978.54
492.04	1766.37
492.25	1990.22
492.45	1869.39
492.66	1787.88
492.86	1707.60
493.07	1872.87
493.27	2170.23
493.48	1737.09
493.68	1872.66
493.89	1900.92
494.09	2007.83
494.30	1797.30
494.50	2043.46
494.71	2028.72
494.91	1791.15
495.12	1902.77
495.32	2010.29
495.53	1985.10
495.73	1761.05
495.94	1853.21
496.14	1723.16
496.35	2130.09
496.55	1866.72
496.76	1800.57
496.96	1917.31
497.17	1910.55
497.37	1970.35
497.58	1802.62
497.78	1788.29
497.98	1906.45
498.19	1930.42
498.39	1904.20
498.60	1967.69
498.80	1753.27
499.01	2034.45
499.21	1791.36
499.42	1884.95
499.62	1859.15
499.83	2191.94
500.03	1717.63
500.24	1925.30
500.44	2081.56
500.64	2045.31
500.85	1831.09
501.05	1970.97
501.26	1748.56
501.46	2079.71
501.67	1791.36
501.87	1762.07
502.08	1839.90
502.28	1870.21
502.48	1917.92
502.69	1962.16
502.89	1774.16
503.10	1869.59
503.30	1913.01
503.51	1887.82
503.71	1782.14
503.92	2013.97
504.12	1953.35
504.32	1909.53
504.53	2081.97
504.73	2110.43
504.94	2079.30
505.14	2157.94
505.35	2182.73
505.55	2142.38
505.75	2085.45
505.96	2132.35
506.16	2287.99
506.37	1962.77
506.57	1895.40
506.78	1966.46
506.98	2115.55
507.18	1800.78
507.39	1812.86
507.59	1896.01
507.80	1879.63
508.00	1972.81
508.20	2053.29
508.41	1918.33
508.61	2115.76
508.82	2059.23
509.02	1988.17
509.22	1802.21
509.43	1768.01
509.63	1862.63
509.84	1863.45
510.04	1737.09
510.24	2102.85
510.45	2009.06
510.65	1763.71
510.86	1883.93
511.06	1818.19
511.26	2065.58
511.47	1977.72
511.67	1828.22
511.88	2049.40
512.08	2062.10
512.28	1758.80
512.49	1953.35
512.69	1939.84
512.90	1945.98
513.10	1832.52
513.30	1884.13
513.51	1998.00
513.71	2110.84
513.91	1905.23
514.12	1941.88
514.32	2053.70
514.53	1945.16
514.73	2039.98
514.93	1954.38
515.14	2070.70
515.34	2287.79
515.54	2139.72
515.75	2245.39
515.95	2338.99
516.15	2387.32
516.36	2128.04
516.56	2086.88
516.77	1767.81
516.97	2073.57
517.17	1944.14
517.38	2043.67
517.58	2210.78
517.78	2050.63
517.99	2176.79
518.19	2220.41
518.39	2475.18
518.60	2280.00
518.80	2141.36
519.00	2179.24
519.21	2059.44
519.41	2258.91
519.61	1908.09
519.82	1969.33
520.02	1964.21
520.22	1966.25
520.43	1931.23
520.63	1935.13
520.83	1902.77
521.04	1833.96
521.24	2131.73
521.44	2147.30
521.65	2178.01
521.85	2363.15
522.05	2139.31
522.26	2085.04
522.46	2311.13
522.66	2172.69
522.87	1935.13
523.07	2083.40
523.27	1938.81
523.48	2175.56
523.68	1991.65
523.88	1965.44
524.09	2117.39
524.29	2068.04
524.49	1861.81
524.70	2169.21
524.90	2308.06
525.10	2216.72
525.31	1972.40
525.51	1908.91
525.71	2094.66
525.91	2017.04
526.12	1863.45
526.32	1806.72
526.52	1863.65
526.73	1863.65
526.93	1942.91
527.13	1781.73
527.34	1913.01
527.54	1927.14
527.74	1908.09
527.94	1803.03
528.15	1840.71
528.35	1969.53
528.55	1974.65
528.76	1975.27
528.96	1743.44
529.16	2053.91
529.36	2010.49
529.57	1776.82
529.77	2051.25
529.97	1801.39
530.18	1934.51
530.38	1865.29
530.58	1996.36
530.78	1942.70
530.99	1864.27
531.19	1964.00
531.39	1871.43
531.60	1940.86
531.80	1839.69
532.00	1999.64
532.20	1932.87
532.41	1847.27
532.61	1856.48
532.81	1877.78
533.01	1844.61
533.22	1973.22
533.42	1958.68
533.62	1696.54
533.82	2086.27
534.03	1884.75
534.23	1948.44
534.43	1783.78
534.63	1863.04
534.84	1966.46
535.04	1921.40
535.24	1865.70
535.44	2214.06
535.65	1875.32
535.85	1824.74
536.05	1796.68
536.25	1914.44
536.46	1831.70
536.66	2060.87
536.86	1913.83
537.06	2068.45
537.27	2123.95
537.47	1997.38
537.67	1856.28
537.87	2133.98
538.08	1922.84
538.28	1800.37
538.48	1843.38
538.68	1931.85
538.88	2036.91
539.09	1789.31
539.29	1917.72
539.49	2067.22
539.69	1960.93
539.90	1960.52
540.10	1839.08
540.30	2108.38
540.50	1905.02
540.70	1840.10
540.91	1945.16
541.11	2085.86
541.31	2236.79
541.51	2127.63
541.72	2126.00
541.92	2165.93
542.12	2010.90
542.32	1977.72
542.52	1903.38
542.73	1891.09
542.93	2037.52
543.13	1925.71
543.33	2011.51
543.53	2116.99
543.74	2141.97
543.94	1996.77
544.14	2157.74
544.34	2304.17
544.54	2149.96
544.75	2231.06
544.95	2397.76
545.15	2299.05
545.35	2361.51
545.55	2195.63
545.75	1992.06
545.96	2325.47
546.16	1907.48
546.36	1954.79
546.56	1967.69
546.76	2159.99
546.97	2193.37
547.17	1938.40
547.37	1985.30
547.57	1862.22
547.77	2016.84
547.97	1932.46
548.18	1968.51
548.38	1967.48
548.58	2403.91
548.78	2350.86
548.98	2674.44
549.18	2931.26
549.39	3106.77
549.59	2764.35
549.79	2543.99
549.99	2651.91
550.19	2481.52
550.39	2371.75
550.60	2179.24
550.80	2161.22
551.00	2197.68
551.20	1982.23
551.40	1924.68
551.60	2054.52
551.80	2022.57
552.01	2053.29
552.21	1963.18
552.41	2021.35
552.61	2206.89
552.81	1985.92
553.01	1840.71
553.21	1979.98
553.42	1839.90
553.62	1832.52
553.82	1847.88
554.02	2131.32
554.22	2033.84
554.42	1809.18
554.62	1968.71
554.83	2294.54
555.03	2455.51
555.23	2368.68
555.43	2730.35
555.63	2644.54
555.83	2551.15
556.03	2325.88
556.23	2132.35
556.44	2294.34
556.64	2405.34
556.84	2041.01
557.04	2195.42
557.24	2230.24
557.44	2144.22
557.64	2085.24
557.84	1934.31
558.04	1961.13
558.25	2087.49
558.45	1867.75
558.65	1975.68
558.85	2015.61
559.05	1815.11
559.25	1984.28
559.45	2148.73
559.65	2457.15
559.85	2942.11
560.05	2337.55
560.26	2451.62
560.46	2462.68
560.66	2302.33
560.86	2156.10
561.06	2069.06
561.26	2308.88
561.46	2192.96
561.66	2002.50
561.86	2090.98
562.06	1923.25
562.26	1994.52
562.47	1974.04
562.67	1833.14
562.87	2031.79
563.07	1807.74
563.27	1970.35
563.47	2002.30
563.67	1935.94
563.87	2091.59
564.07	1963.18
564.27	2072.54
564.47	2145.66
564.67	2236.18
564.87	2093.84
565.08	2166.14
565.28	2064.35
565.48	2151.19
565.68	2081.15
565.88	2063.33
566.08	2238.23
566.28	1973.42
566.48	1782.96
566.68	1894.78
566.88	1904.20
567.08	2053.70
567.28	1932.26
567.48	1947.21
567.68	2044.49
567.88	1864.06
568.08	2045.92
568.28	2159.79
568.48	2032.61
568.68	2189.28
568.89	1997.18
569.09	1807.54
569.29	2071.32
569.49	2053.29
569.69	1851.98
569.89	1835.18
570.09	1732.79
570.29	1827.61
570.49	1755.93
570.69	1829.66
570.89	2016.63
571.09	2146.27
571.29	1738.93
571.49	2009.47
571.69	1950.08
571.89	1975.47
572.09	1840.71
572.29	1807.13
572.49	2011.72
572.69	1986.53
572.89	1936.56
573.09	1748.76
573.29	2031.38
573.49	2074.59
573.69	2044.69
573.89	2120.88
574.09	1951.10
574.29	2139.72
574.49	1875.12
574.69	1858.12
574.89	1823.31
575.09	1826.99
575.29	1825.35
575.49	1900.51
575.69	1961.13
575.89	1755.52
576.09	1901.13
576.29	1949.46
576.49	1813.07
576.69	1952.74
576.89	1897.44
577.09	1947.21
577.29	1796.48
577.49	2189.69
577.69	1859.35
577.89	2009.47
578.09	1927.34
578.29	1760.64
578.49	1916.28
578.69	1850.13
578.89	2030.77
579.09	1951.92
579.29	1793.82
579.49	2043.26
579.69	1884.54
579.89	2191.33
580.09	1742.21
580.29	1773.54
580.49	1870.21
580.69	1825.76
580.89	1874.92
581.09	1861.60
581.29	1846.65
581.49	1905.63
581.69	1781.32
581.89	1787.67
582.09	1803.85
582.28	1832.93
582.48	1988.58
582.68	2126.00
582.88	2181.29
583.08	2009.47
583.28	1968.92
583.48	1946.59
583.68	1873.07
583.88	1960.73
584.08	1920.79
584.28	1912.60
584.48	2162.04
584.68	1996.77
584.88	1875.53
585.08	2051.25
585.28	2070.70
585.48	2127.84
585.68	2002.30
585.87	2019.09
586.07	2026.47
586.27	1944.34
586.47	1993.08
586.67	1912.19
586.87	1939.84
587.07	1862.83
587.27	1816.34
587.47	1978.75
587.67	2226.55
587.87	2492.58
588.07	2323.22
588.27	2308.27
588.46	2513.06
588.66	2550.54
588.86	2259.52
589.06	2260.96
589.26	2253.18
589.46	2180.47
589.66	1925.71
589.86	1888.64
590.06	1986.94
590.26	2147.09
590.46	2015.61
590.66	2187.23
590.85	2087.90
591.05	2197.47
591.25	1971.78
591.45	2010.70
591.65	2121.49
591.85	2093.84
592.05	2059.64
592.25	2216.31
592.45	2309.90
592.64	2148.52
592.84	2103.26
593.04	1969.74
593.24	2409.84
593.44	2021.35
593.64	2064.97
593.84	2109.82
594.04	1999.84
594.24	2246.83
594.43	1963.80
594.63	1988.17
594.83	2100.40
595.03	2050.22
595.23	1861.40
595.43	1769.85
595.63	1829.25
595.83	2045.72
596.02	1732.38
596.22	1964.00
596.42	1995.75
596.62	1982.64
596.82	1887.20
597.02	2028.10
597.22	2142.99
597.41	1985.71
597.61	1888.84
597.81	2044.28
598.01	2099.58
598.21	1967.07
598.41	1944.34
598.61	1926.73
598.80	2022.98
599.00	2036.50
599.20	2129.48
599.40	1967.89
599.60	1985.92
599.80	2124.77
599.99	2135.42
600.19	1952.74
600.39	1978.13
600.59	2065.79
600.79	2030.15
600.99	2018.89
601.19	2218.77
601.38	2234.54
601.58	2026.87
601.78	1804.47
601.98	2194.60
602.18	2799.57
602.37	3325.70
602.57	3458.81
602.77	3814.14
602.97	3897.49
603.17	3725.87
603.37	3505.92
603.56	3528.04
603.76	3458.00
603.96	3327.74
604.16	3171.48
604.36	3011.54
604.56	2798.75
604.75	2430.12
604.95	2409.64
605.15	2494.22
605.35	2407.18
605.55	2172.28
605.74	2084.42
605.94	2258.09
606.14	2105.93
606.34	2061.89
606.54	1990.22
606.73	1925.71
606.93	2065.79
607.13	1855.66
607.33	1956.01
607.53	2142.58
607.72	2057.18
607.92	2013.15
608.12	2027.08
608.32	1957.24
608.51	2037.11
608.71	1886.38
608.91	2043.46
609.11	2136.24
609.31	2058.21
609.50	2165.11
609.70	2335.50
609.90	2314.41
610.10	2318.10
610.29	2168.59
610.49	2055.96
610.69	2205.46
610.89	2105.31
611.09	2099.58
611.28	2116.78
611.48	2145.25
611.68	1992.67
611.88	1916.08
612.07	1898.67
612.27	2086.27
612.47	1895.80
612.67	1986.32
612.86	2054.73
613.06	1932.67
613.26	1768.42
613.46	1922.43
613.65	2032.81
613.85	2419.27
614.05	2160.61
614.25	2165.73
614.44	2068.04
614.64	2088.11
614.84	2023.80
615.04	2003.32
615.23	2021.55
615.43	2138.08
615.63	2105.52
615.83	1912.60
616.02	1916.90
616.22	2235.36
616.42	2065.99
616.62	2125.59
616.81	2242.32
617.01	2275.91
617.21	2180.47
617.41	2017.25
617.60	2059.85
617.80	2107.77
618.00	2132.55
618.19	2023.39
618.39	2024.83
618.59	2023.60
618.79	1946.59
618.98	1743.85
619.18	1886.38
619.38	2207.71
619.57	1906.86
619.77	1898.67
619.97	1882.90
620.17	1866.93
620.36	1871.64
620.56	2175.56
620.76	1978.54
620.95	2033.22
621.15	2071.93
621.35	1990.42
621.54	2044.90
621.74	2078.07
621.94	1931.85
622.14	1887.20
622.33	1814.30
622.53	1962.36
622.73	1913.83
622.92	1774.77
623.12	1920.38
623.32	2160.40
623.51	1986.94
623.71	1768.42
623.91	2018.89
624.10	1821.05
624.30	1946.39
624.50	1803.65
624.69	1785.21
624.89	2383.22
625.09	1867.54
625.29	1706.57
625.48	1779.68
625.68	1930.01
625.88	2038.34
626.07	1931.23
626.27	1792.38
626.47	1829.45
626.66	1702.27
626.86	1873.69
627.06	1863.86
627.25	1885.56
627.45	2119.85
627.64	1856.28
627.84	2030.15
628.04	1782.14
628.23	2161.43
628.43	1808.97
628.63	1847.88
628.82	1932.46
629.02	2255.84
629.22	2082.78
629.41	2184.77
629.61	2062.10
629.81	2342.47
630.00	2016.84
630.20	1985.71
630.40	2156.51
630.59	2176.99
630.79	2029.54
630.98	2021.14
631.18	1990.22
631.38	1974.45
631.57	2063.33
631.77	1782.55
631.97	1950.08
632.16	1960.93
632.36	1917.92
632.56	1899.70
632.75	1939.84
632.95	2036.09
633.14	1735.86
633.34	2019.30
633.54	1694.90
633.73	1833.75
633.93	1838.67
634.12	1724.39
634.32	2230.24
634.52	1905.02
634.71	1758.59
634.91	1912.80
635.11	1749.37
635.30	1814.91
635.50	1923.66
635.69	1789.31
635.89	2155.69
636.09	2041.01
636.28	1824.54
636.48	1863.65
636.67	2067.01
636.87	2030.36
637.07	1979.57
637.26	1875.12
637.46	2007.21
637.65	2122.51
637.85	1988.58
638.04	1899.49
638.24	1950.08
638.44	2010.70
638.63	1927.55
638.83	1900.51
639.02	1988.17
639.22	1987.35
639.42	1872.66
639.61	1873.28
639.81	1937.58
640.00	1897.65
640.20	1962.77
640.39	1991.65
640.59	2343.49
640.79	2273.04
640.98	2286.76
641.18	2289.83
641.37	2318.51
641.57	2190.71
641.76	2156.10
641.96	1937.58
642.15	2111.25
642.35	2015.00
642.55	2037.93
642.74	1891.09
642.94	2098.35
643.13	2098.55
643.33	1856.48
643.52	1848.50
643.72	1841.53
643.91	1893.35
644.11	1822.08
644.31	1782.96
644.50	1822.28
644.70	2023.80
644.89	1879.63
645.09	1929.80
645.28	1925.50
645.48	1951.51
645.67	1791.15
645.87	1716.20
646.06	1861.60
646.26	1954.58
646.45	1682.41
646.65	1662.75
646.84	2149.14
647.04	1845.22
647.24	1772.11
647.43	1874.92
647.63	1919.97
647.82	2082.37
648.02	1756.34
648.21	1810.81
648.41	2058.00
648.60	1871.84
648.80	2003.12
648.99	1905.43
649.19	1834.57
649.38	1746.30
649.58	1906.04
649.77	1911.16
649.97	2028.10
650.16	1977.11
650.36	1650.87
650.55	1993.70
650.75	1933.69
650.94	2087.90
651.14	1873.89
651.33	1889.66
651.53	2103.88
651.72	1831.70
651.92	1866.31
652.11	1708.21
652.31	1965.64
652.50	1956.63
652.70	1931.85
652.89	1757.57
653.09	2119.85
653.28	1916.69
653.48	1734.83
653.67	1722.14
653.87	2303.15
654.06	1924.48
654.25	2052.06
654.45	1808.77
654.64	1872.25
654.84	1901.33
655.03	1692.03
655.23	1981.41
655.42	1988.17
655.62	2106.34
655.81	1905.43
656.01	1776.00
656.20	1996.16
656.40	2078.28
656.59	1877.58
656.79	2007.62
656.98	1927.55
657.17	2000.87
657.37	1890.68
657.56	1812.45
657.76	1936.35
657.95	2026.87
658.15	1581.44
658.34	1886.38
658.54	1883.93
658.73	1774.56
658.92	1843.17
659.12	1913.01
659.31	2008.03
659.51	1851.16
659.70	1966.66
659.90	1900.31
660.09	2082.37
660.29	1957.24
660.48	1845.83
660.67	2060.46
660.87	1893.96
661.06	1988.37
661.26	1995.95
661.45	1966.66
661.65	1971.99
661.84	1847.06
662.03	1824.33
662.23	1846.86
662.42	2127.23
662.62	1753.27
662.81	1779.07
663.00	1825.97
663.20	1916.49
663.39	1944.14
663.59	1947.00
663.78	1820.03
663.97	1845.22
664.17	1967.89
664.36	1718.45
664.56	1783.58
664.75	1990.01
664.94	1989.19
665.14	1931.44
665.33	1887.61
665.53	1962.36
665.72	1967.07
665.91	2057.18
666.11	1904.61
666.30	1951.10
666.50	1895.19
666.69	1933.90
666.88	1866.72
667.08	1941.47
667.27	1867.54
667.47	1890.89
667.66	1857.10
667.85	2016.02
668.05	1879.22
668.24	1828.02
668.43	2006.19
668.63	1877.78
668.82	2024.42
669.02	1940.25
669.21	1888.64
669.40	1762.89
669.60	2157.33
669.79	1754.90
669.98	2333.87
670.18	1797.91
670.37	1776.20
670.56	1842.56
670.76	1927.75
670.95	1898.88
671.15	2029.74
671.34	1941.68
671.53	1934.72
671.73	1882.70
671.92	1837.85
672.11	1783.37
672.31	1862.83
672.50	1950.90
672.69	1774.16
672.89	1665.41
673.08	1818.60
673.27	1988.17
673.47	1940.86
673.66	1918.13
673.85	1787.26
674.05	1996.16
674.24	2209.14
674.43	2214.47
674.63	2533.13
674.82	2850.98
675.01	2371.96
675.21	2556.27
675.40	2354.14
675.59	2281.03
675.79	2489.92
675.98	2198.70
676.17	2284.51
676.37	2233.92
676.56	2094.25
676.75	2085.65
676.95	2005.17
677.14	1951.71
677.33	2090.36
677.52	1790.74
677.72	1840.30
677.91	1937.79
678.10	1723.78
678.30	1787.88
678.49	1740.77
678.68	2163.68
678.88	1692.44
679.07	1981.61
679.26	1830.06
679.45	2118.42
679.65	2023.60
679.84	1702.68
680.03	1737.50
680.23	1860.37
680.42	2204.43
680.61	1756.54
680.81	1828.22
681.00	1902.77
681.19	1966.25
681.38	1981.20
681.58	1972.19
681.77	1871.43
681.96	2041.21
682.15	1843.79
682.35	1958.88
682.54	2008.65
682.73	1785.62
682.93	1798.94
683.12	1808.97
683.31	1986.12
683.50	2268.94
683.70	1776.41
683.89	1869.80
684.08	1790.54
684.27	2001.48
684.47	1749.78
684.66	1898.88
684.85	2149.34
685.04	2014.59
685.24	1787.67
685.43	1883.72
685.62	1699.20
685.81	1958.27
686.01	2033.63
686.20	2038.75
686.39	2059.03
686.58	2537.43
686.78	2336.73
686.97	2331.61
687.16	2331.00
687.35	2236.79
687.55	2093.64
687.74	2099.78
687.93	2014.38
688.12	2133.57
688.32	2115.35
688.51	1886.79
688.70	2063.12
688.89	1873.69
689.08	1815.93
689.28	1873.89
689.47	1959.29
689.66	1952.33
689.85	1994.72
690.05	1863.24
690.24	1833.75
690.43	1923.66
690.62	1914.24
690.81	1813.89
691.01	1896.01
691.20	1862.63
691.39	1793.61
691.58	1941.27
691.77	2149.14
691.97	1915.06
692.16	1916.49
692.35	1866.72
692.54	1839.08
692.73	2031.79
692.93	1995.34
693.12	2062.30
693.31	2126.41
693.50	2077.87
693.69	2089.75
693.89	1965.85
694.08	2146.68
694.27	2163.47
694.46	1897.24
694.65	1942.50
694.85	2055.55
695.04	2041.01
695.23	1979.36
695.42	2375.44
695.61	2600.10
695.80	2863.06
696.00	3038.37
696.19	3158.58
696.38	2756.16
696.57	2637.58
696.76	2599.90
696.95	2426.84
697.15	2578.39
697.34	2493.61
697.53	2190.30
697.72	2202.18
697.91	2121.49
698.10	2272.02
698.30	1971.78
698.49	1957.86
698.68	1994.11
698.87	1909.53
699.06	1832.32
699.25	1906.04
699.45	2027.90
699.64	1940.45
699.83	2016.23
700.02	1806.92
700.21	1969.94
700.40	1841.33
700.59	1879.22
700.79	1858.74
700.98	1960.11
701.17	1823.10
701.36	1800.57
701.55	1812.86
701.74	2094.25
701.93	1965.44
702.12	2265.26
702.32	2259.93
702.51	2593.96
702.70	2578.60
702.89	2416.40
703.08	2207.10
703.27	2403.70
703.46	2274.47
703.65	2112.48
703.85	2018.27
704.04	2056.57
704.23	2211.60
704.42	1941.06
704.61	1940.45
704.80	2167.98
704.99	1865.90
705.18	1944.75
705.37	1893.35
705.57	2204.64
705.76	2669.32
705.95	2685.50
706.14	3123.36
706.33	3289.04
706.52	3435.88
706.71	2846.27
706.90	2587.81
707.09	2633.69
707.28	2523.71
707.47	2300.69
707.67	2390.18
707.86	2209.14
708.05	2354.34
708.24	2133.57
708.43	2071.73
708.62	1971.37
708.81	1862.83
709.00	1801.80
709.19	1838.46
709.38	2031.99
709.57	1824.13
709.76	1977.31
709.96	1918.33
710.15	2147.09
710.34	1989.60
710.53	2076.44
710.72	1923.04
710.91	2099.99
711.10	2024.42
711.29	2036.70
711.48	1877.37
711.67	1835.80
711.86	2029.54
712.05	1832.73
712.24	1881.26
712.43	2023.60
712.62	2129.68
712.81	1946.39
713.00	2049.61
713.19	1777.43
713.39	1992.06
713.58	1785.62
713.77	1900.72
713.96	2033.02
714.15	1927.14
714.34	1907.89
714.53	1792.38
714.72	2199.72
714.91	1863.24
715.10	1981.20
715.29	1845.22
715.48	2350.04
715.67	2089.13
715.86	1965.03
716.05	1947.41
716.24	1934.10
716.43	1864.06
716.62	1790.54
716.81	1800.16
717.00	1888.02
717.19	2137.87
717.38	1932.46
717.57	1870.82
717.76	1748.56
717.95	2034.45
718.14	1915.26
718.33	1855.87
718.52	1710.05
718.71	1729.30
718.90	1746.10
719.09	1850.34
719.28	1885.77
719.47	2011.51
719.66	2056.37
719.85	2077.46
720.04	2015.61
720.23	2046.13
720.42	1951.10
720.61	2048.58
720.80	1842.35
720.99	2021.35
721.18	1943.52
721.37	1855.05
721.56	1906.86
721.75	2037.93
721.94	1817.57
722.13	1884.34
722.32	1879.83
722.51	2046.54
722.70	1885.16
722.89	1930.82
723.08	1888.02
723.27	2018.07
723.46	1917.72
723.65	1853.82
723.84	1809.38
724.03	2056.98
724.22	1768.22
724.41	1924.89
724.60	1836.21
724.79	1991.85
724.98	1935.33
725.16	1845.22
725.35	1982.64
725.54	1780.30
725.73	1904.20
725.92	1871.43
726.11	1951.10
726.30	2160.20
726.49	1983.05
726.68	2112.68
726.87	2179.86
727.06	2305.40
727.25	2003.53
727.44	2111.66
727.63	2079.92
727.82	1989.40
728.01	2009.26
728.20	2093.23
728.38	2171.67
728.57	1952.94
728.76	1930.62
728.95	2023.60
729.14	1794.64
729.33	1794.84
729.52	1666.02
729.71	1816.14
729.90	1803.24
730.09	1874.51
730.28	1933.49
730.47	1914.24
730.66	2186.21
730.84	2069.88
731.03	2029.74
731.22	2031.18
731.41	2027.90
731.60	2051.86
731.79	1810.81
731.98	1842.97
732.17	2044.08
732.36	2007.21
732.55	1862.01
732.73	1785.01
732.92	2086.88
733.11	1966.87
733.30	1836.00
733.49	1719.06
733.68	1945.57
733.87	1953.15
734.06	1842.56
734.25	1957.45
734.43	2051.25
734.62	2226.96
734.81	2209.55
735.00	2200.34
735.19	2157.13
735.38	2164.70
735.57	1972.81
735.76	2123.13
735.94	2244.78
736.13	2635.74
736.32	2615.46
736.51	2660.31
736.70	3038.98
736.89	3070.93
737.08	2911.19
737.27	3119.47
737.45	3685.52
737.64	3750.24
737.83	4053.75
738.02	4113.35
738.21	4063.78
738.40	3659.92
738.59	3274.70
738.77	3169.64
738.96	2919.17
739.15	2884.56
739.34	2797.73
739.53	2613.82
739.72	2611.98
739.90	2490.33
740.09	2201.57
740.28	2181.29
740.47	2189.89
740.66	2107.56
740.85	1908.71
741.03	1965.44
741.22	1850.54
741.41	1914.03
741.60	1806.72
741.79	1990.22
741.98	2113.50
742.16	2208.32
742.35	2033.22
742.54	2043.67
742.73	2334.89
742.92	2082.37
743.10	1957.86
743.29	2048.58
743.48	2401.45
743.67	1994.72
743.86	1870.41
744.05	1877.17
744.23	1882.49
744.42	1897.24
744.61	1933.08
744.80	1809.79
744.99	1885.56
745.17	1724.80
745.36	1779.89
745.55	1910.96
745.74	1885.16
745.93	1800.16
746.11	1794.02
746.30	1781.12
746.49	2009.67
746.68	1792.18
746.86	1861.81
747.05	1858.33
747.24	1948.23
747.43	2022.16
747.62	1805.28
747.80	1885.97
747.99	2124.97
748.18	2058.41
748.37	1992.06
748.56	1979.36
748.74	2063.74
748.93	1989.19
749.12	2097.53
749.31	2591.70
749.49	2908.93
749.68	3221.66
749.87	3494.24
750.06	3461.89
750.24	3577.60
750.43	3785.47
750.62	4053.54
750.81	4272.68
750.99	4515.36
751.18	4497.34
751.37	3886.43
751.56	3585.58
751.74	3776.04
751.93	3663.41
752.12	2909.96
752.31	2796.30
752.49	2708.64
752.68	2802.03
752.87	2472.92
753.06	2298.44
753.24	2240.27
753.43	2298.44
753.62	2008.85
753.81	1960.11
753.99	2187.03
754.18	2026.47
754.37	1834.57
754.55	1943.73
754.74	2129.48
754.93	1713.95
755.12	1875.94
755.30	1807.13
755.49	2027.49
755.68	1894.58
755.86	1923.04
756.05	1761.05
756.24	2077.25
756.43	1738.32
756.61	1767.81
756.80	1931.23
756.99	2052.88
757.17	1862.42
757.36	1771.70
757.55	1893.96
757.74	1956.63
757.92	1901.74
758.11	1708.21
758.30	1680.36
758.48	1876.96
758.67	1735.45
758.86	1888.64
759.04	1747.12
759.23	1847.88
759.42	1895.19
759.60	1805.90
759.79	1864.68
759.98	1852.59
760.16	1779.68
760.35	1796.07
760.54	1759.21
760.73	1892.73
760.91	1729.10
761.10	1908.50
761.29	1908.09
761.47	1884.75
761.66	2202.39
761.85	1940.86
762.03	2052.68
762.22	2521.05
762.41	4104.13
762.59	5711.58
762.78	6486.94
762.97	7834.91
763.15	8174.67
763.34	7558.85
763.52	5939.31
763.71	5644.00
763.90	5361.17
764.08	4978.41
764.27	4715.04
764.46	4552.43
764.64	4067.68
764.83	3761.09
765.02	3512.68
765.20	3216.95
765.39	2944.98
765.58	2403.70
765.76	2332.84
765.95	2237.61
766.13	2109.00
766.32	1988.78
766.51	1972.40
766.69	2532.31
766.88	1981.20
767.07	1808.97
767.25	1720.70
767.44	2012.74
767.62	2067.42
767.81	1830.68
768.00	1893.35
768.18	1911.78
768.37	1837.44
768.56	1742.62
768.74	1850.54
768.93	1743.85
769.11	1920.99
769.30	1886.38
769.49	1823.10
769.67	1876.14
769.86	1832.73
770.04	1823.31
770.23	1867.75
770.42	2070.50
770.60	1894.17
770.79	1776.20
770.97	1846.65
771.16	2226.76
771.35	2566.92
771.53	2961.77
771.72	3171.28
771.90	3572.48
772.09	3865.75
772.27	3479.91
772.46	2963.00
772.65	3075.23
772.83	2895.62
773.02	2845.65
773.20	2581.87
773.39	2643.52
773.58	2580.85
773.76	2248.67
773.95	2258.09
774.13	2259.11
774.32	2125.79
774.50	1964.00
774.69	2003.94
774.87	1929.39
775.06	2190.10
775.25	1850.34
775.43	1877.99
775.62	1933.08
775.80	1964.62
775.99	1926.32
776.17	1796.27
776.36	1899.70
776.54	1999.23
776.73	1805.49
776.92	1872.25
777.10	1976.49
777.29	1942.91
777.47	1786.85
777.66	1827.61
777.84	1922.02
778.03	1875.32
778.21	1800.57
778.40	1881.88
778.58	1942.09
778.77	2041.62
778.95	1731.97
779.14	1820.85
779.32	2123.33
779.51	2001.89
779.70	1841.53
779.88	1733.81
780.07	1854.03
780.25	2224.71
780.44	1817.37
780.62	1988.99
780.81	1956.83
780.99	1928.78
781.18	1812.86
781.36	1822.90
781.55	1877.58
781.73	2064.15
781.92	1750.19
782.10	1762.07
782.29	1948.23
782.47	2075.82
782.66	1873.28
782.84	1733.61
783.03	1815.11
783.21	2042.03
783.40	1827.61
783.58	1819.01
783.77	1816.96
783.95	1860.78
784.14	1771.90
784.32	1887.82
784.51	2043.87
784.69	1810.61
784.88	1746.51
785.06	1883.93
785.24	1780.91
785.43	2038.96
785.61	1954.17
785.80	1804.67
785.98	2009.06
786.17	1945.16
786.35	1776.41
786.54	1930.21
786.72	2010.70
786.91	2034.66
787.09	1857.51
787.28	1757.16
787.46	1892.94
787.65	2001.68
787.83	1742.21
788.01	1901.13
788.20	1777.02
788.38	1915.06
788.57	1867.34
788.75	1883.11
788.94	2193.99
789.12	2084.01
789.31	1921.20
789.49	1984.28
789.67	1852.39
789.86	1964.41
790.04	1826.99
790.23	1736.27
790.41	2199.93
790.60	1882.08
790.78	1880.24
790.96	1888.84
791.15	1986.73
791.33	1879.63
791.52	1882.70
791.70	1805.90
791.89	1914.85
792.07	2015.41
792.25	1887.41
792.44	1724.80
792.62	2043.05
792.81	1833.14
792.99	1867.95
793.17	1815.11
793.36	1826.58
793.54	2223.48
793.73	2355.57
793.91	2582.08
794.10	2964.64
794.28	3227.60
794.46	3179.06
794.65	3167.59
794.83	2752.47
795.01	2692.46
795.20	2783.80
795.38	2586.17
795.57	2584.95
795.75	2497.50
795.93	2320.96
796.12	2337.96
796.30	2360.90
796.49	2260.96
796.67	2012.54
796.85	2161.63
797.04	2036.91
797.22	2062.10
797.40	1788.49
797.59	1956.63
797.77	1934.92
797.96	1819.62
798.14	1822.49
798.32	1828.63
798.51	1986.94
798.69	2154.26
798.87	1877.99
799.06	1837.03
799.24	1755.52
799.42	2138.49
799.61	2241.30
799.79	2372.78
799.98	2782.98
800.16	2698.20
800.34	3112.09
800.53	3619.58
800.71	3789.77
800.89	4376.10
801.08	4332.07
801.26	4350.09
801.44	3834.82
801.63	3352.73
801.81	3307.47
801.99	3154.49
802.18	3033.25
802.36	3000.68
802.54	2851.80
802.73	2512.86
802.91	2574.91
803.09	2461.66
803.28	2357.01
803.46	2262.60
803.64	2352.09
803.83	1980.39
804.01	1920.99
804.19	1860.58
804.38	2060.46
804.56	2053.09
804.74	1922.43
804.92	1947.41
805.11	1832.52
805.29	2053.70
805.47	1870.61
805.66	1773.13
805.84	1783.17
806.02	2052.68
806.21	1840.71
806.39	2012.74
806.57	2025.24
806.76	2023.60
806.94	1894.99
807.12	1821.46
807.30	1840.10
807.49	1965.03
807.67	1957.04
807.85	2045.92
808.04	2068.65
808.22	2232.70
808.40	1818.39
808.58	1795.04
808.77	1975.88
808.95	2125.79
809.13	2121.08
809.31	2944.57
809.50	3666.68
809.68	4108.23
809.86	4280.05
810.05	4530.93
810.23	5101.08
810.41	6139.40
810.59	9255.39
810.78	11187.03
810.96	12731.20
811.14	13820.92
811.32	13443.69
811.51	11093.03
811.69	9153.19
811.87	9137.22
812.05	8085.18
812.24	7598.17
812.42	7216.02
812.60	6608.80
812.78	5641.33
812.97	4980.05
813.15	4794.09
813.33	4228.85
813.51	3799.19
813.70	3212.44
813.88	2824.35
814.06	2585.36
814.24	2386.70
814.42	2032.61
814.61	2122.31
814.79	2226.55
814.97	1810.81
815.15	1905.84
815.34	1950.49
815.52	2044.28
815.70	1786.03
815.88	1835.18
816.06	1819.01
816.25	1830.06
816.43	1797.91
816.61	1965.23
816.79	2082.17
816.98	1746.51
817.16	1836.21
817.34	1804.26
817.52	2000.25
817.70	2139.92
817.89	1907.89
818.07	1797.91
818.25	1867.75
818.43	1922.43
818.61	1856.48
818.80	1835.39
818.98	2142.38
819.16	1911.98
819.34	1765.35
819.52	2057.59
819.70	1801.60
819.89	1888.23
820.07	1748.15
820.25	1712.72
820.43	1899.29
820.61	2006.39
820.80	1881.88
820.98	1783.99
821.16	1706.57
821.34	1744.25
821.52	1821.87
821.70	1878.60
821.89	1869.18
822.07	1854.44
822.25	1837.03
822.43	1776.20
822.61	2084.42
822.79	1925.71
822.98	1830.68
823.16	1669.09
823.34	1908.91
823.52	2048.79
823.70	1948.64
823.88	1699.20
824.06	1950.69
824.25	1865.90
824.43	1967.69
824.61	1796.48
824.79	1920.99
824.97	1970.97
825.15	2054.32
825.33	2268.74
825.52	2520.44
825.70	2546.44
825.88	2640.24
826.06	2818.21
826.24	2821.49
826.42	2754.52
826.60	2474.97
826.78	2513.27
826.97	2321.99
827.15	2455.10
827.33	2150.37
827.51	2276.11
827.69	2114.32
827.87	2153.03
828.05	2125.59
828.23	1961.95
828.41	2142.38
828.60	2108.79
828.78	1797.50
828.96	1975.47
829.14	1861.40
829.32	1918.54
829.50	1853.82
829.68	1858.94
829.86	1841.33
830.04	1959.09
830.22	1924.89
830.41	1745.07
830.59	1866.52
830.77	1981.20
830.95	1822.69
831.13	1792.38
831.31	1782.96
831.49	2010.29
831.67	1972.60
831.85	1945.16
832.03	1834.98
832.21	1977.52
832.39	1739.34
832.57	1788.08
832.76	1983.66
832.94	1846.24
833.12	1705.55
833.30	1863.24
833.48	2028.92
833.66	1933.28
833.84	1766.99
834.02	1858.53
834.20	1995.54
834.38	1996.97
834.56	1711.08
834.74	1737.29
834.92	1730.12
835.10	2127.84
835.28	1926.52
835.46	1868.16
835.64	1868.36
835.82	1833.75
836.01	2065.99
836.19	1969.53
836.37	1827.61
836.55	1795.45
836.73	1759.00
836.91	1768.22
837.09	1967.07
837.27	2053.29
837.45	1742.00
837.63	1763.30
837.81	1774.16
837.99	1915.26
838.17	1957.65
838.35	1840.92
838.53	2211.81
838.71	2043.26
838.89	1873.89
839.07	1851.77
839.25	1988.78
839.43	2069.88
839.61	1998.00
839.79	2623.04
839.97	3129.91
840.15	3407.82
840.33	3577.39
840.51	3929.44
840.69	3680.40
840.87	3255.45
841.05	3119.67
841.23	3138.31
841.41	3683.27
841.59	4751.08
841.77	5114.39
841.95	5491.63
842.13	5988.06
842.31	5666.32
842.49	4736.34
842.67	4319.58
842.85	4257.93
843.03	3750.85
843.21	3643.13
843.39	3604.02
843.57	3347.40
843.75	3135.03
843.93	2857.12
844.11	2720.11
844.29	2614.64
844.47	2446.91
844.65	2502.00
844.83	2236.38
845.01	2154.67
845.19	2213.65
845.36	2020.32
845.54	2021.55
845.72	1979.36
845.90	2015.00
846.08	1796.27
846.26	1860.58
846.44	1974.45
846.62	1972.60
846.80	1881.06
846.98	1784.19
847.16	1874.10
847.34	1934.51
847.52	1768.83
847.70	1788.90
847.88	1868.98
848.06	2068.86
848.24	1913.83
848.41	1706.78
848.59	2013.77
848.77	1930.01
848.95	1814.71
849.13	1794.84
849.31	1975.06
849.49	1900.72
849.67	1769.85
849.85	1748.56
850.03	1920.38
850.21	1909.53
850.39	1790.54
850.57	1912.39
850.74	2080.74
850.92	2075.82
851.10	2048.79
851.28	2206.48
851.46	2398.58
851.64	2779.09
851.82	2503.44
852.00	2526.78
852.18	2572.45
852.36	2380.76
852.53	2213.04
852.71	2263.01
852.89	2243.55
853.07	2212.01
853.25	2017.25
853.43	1936.35
853.61	2053.70
853.79	2046.33
853.97	1915.87
854.14	1851.98
854.32	2120.06
854.50	1992.06
854.68	1853.82
854.86	1865.09
855.04	1814.91
855.22	2006.60
855.40	1739.95
855.57	1808.15
855.75	1981.41
855.93	1919.56
856.11	1711.90
856.29	1755.52
856.47	1819.62
856.65	1906.66
856.82	1770.67
857.00	1701.66
857.18	1856.89
857.36	1810.61
857.54	1877.17
857.72	1940.25
857.89	1971.99
858.07	1899.70
858.25	1968.30
858.43	1724.39
858.61	1867.13
858.79	1875.73
858.97	1785.42
859.14	1931.64
859.32	1869.39
859.50	1841.94
859.68	1911.98
859.86	1812.04
860.03	1920.59
860.21	1973.01
860.39	1791.15
860.57	1906.66
860.75	1937.38
860.93	2109.41
861.10	1989.19
861.28	1830.27
861.46	1972.40
861.64	1990.22
861.82	1826.38
861.99	1917.51
862.17	2000.05
862.35	2037.52
862.53	1852.80
862.71	1871.02
862.88	1938.20
863.06	1975.27
863.24	1821.46
863.42	1760.02
863.60	1867.54
863.77	1958.47
863.95	1724.18
864.13	1864.88
864.31	1846.45
864.49	1963.80
864.66	1743.44
864.84	1778.87
865.02	1916.28
865.20	2225.32
865.37	1882.90
865.55	1802.21
865.73	1757.57
865.91	2032.40
866.09	1953.76
866.26	1949.26
866.44	2064.97
866.62	1951.92
866.80	1837.64
866.97	1912.80
867.15	1900.92
867.33	1967.07
867.51	1976.09
867.68	1885.36
867.86	1878.60
868.04	1825.56
868.22	1693.47
868.39	1822.08
868.57	1942.29
868.75	2065.58
868.93	1701.45
869.10	1752.24
869.28	2129.07
869.46	2046.74
869.64	1857.30
869.81	1849.32
869.99	1906.45
870.17	1889.66
870.35	1775.18
870.52	1766.99
870.70	1982.43
870.88	1816.96
871.05	1718.45
871.23	1647.80
871.41	1880.24
871.59	1846.86
871.76	1833.14
871.94	1794.84
872.12	1862.42
872.29	1719.68
872.47	1791.36
872.65	1747.53
872.83	1909.32
873.00	2058.21
873.18	1851.57
873.36	1800.37
873.53	1959.09
873.71	1723.78
873.89	1786.65
874.06	1840.51
874.24	1919.56
874.42	2052.06
874.60	1940.66
874.77	1870.00
874.95	1815.93
875.13	2017.86
875.30	1768.83
875.48	1827.20
875.66	2094.66
875.83	1808.97
876.01	1836.21
876.19	1965.03
876.36	1803.24
876.54	1894.78
876.72	1750.60
876.89	1922.43
877.07	1982.84
877.25	1684.45
877.42	1891.09
877.60	1826.79
877.78	2098.76
877.95	1830.88
878.13	1794.64
878.31	1946.80
878.48	1994.11
878.66	1951.92
878.84	1792.18
879.01	1858.94
879.19	1939.43
879.37	1966.46
879.54	1785.21
879.72	1732.79
879.90	1669.50
880.07	1949.46
880.25	1595.16
880.42	1920.99
880.60	1910.35
880.78	1988.17
880.95	1811.84
881.13	1840.92
881.31	1865.90
881.48	1827.61
881.66	1799.35
881.83	1886.38
882.01	1764.33
882.19	1728.49
882.36	1833.75
882.54	1818.39
882.72	1935.74
882.89	1887.41
883.07	1737.50
883.24	1820.44
883.42	1957.86
883.60	1913.62
883.77	1751.42
883.95	1804.67
884.12	2009.67
884.30	1933.49
884.48	2005.37
884.65	1901.54
884.83	1961.95
885.00	1964.82
885.18	1776.82
885.36	1817.16
885.53	1971.99
885.71	2055.96
885.88	1738.52
886.06	1833.14
886.23	1959.91
886.41	1855.46
886.59	1817.37
886.76	1755.31
886.94	1962.36
887.11	2208.12
887.29	1827.40
887.47	1716.20
887.64	2025.65
887.82	2023.39
887.99	1691.62
888.17	1843.99
888.34	1825.97
888.52	1749.58
888.69	1858.74
888.87	1736.06
889.05	1821.67
889.22	1826.38
889.40	1781.73
889.57	1945.57
889.75	2068.86
889.92	1821.05
890.10	1740.36
890.27	1809.38
890.45	1778.66
890.62	1689.98
890.80	1732.58
890.98	1696.54
891.15	2068.65
891.33	1959.50
891.50	1781.53
891.68	1702.48
891.85	1958.88
892.03	1950.90
892.20	1755.11
892.38	1745.89
892.55	1958.47
892.73	1954.79
892.90	1729.10
893.08	1773.13
893.25	1798.12
893.43	1824.54
893.60	1924.27
893.78	1634.89
893.95	1907.27
894.13	1858.94
894.30	1743.85
894.48	1856.28
894.65	1976.49
894.83	1879.22
895.00	1655.37
895.18	1630.18
895.35	1981.82
895.53	1964.82
895.70	1715.17
895.88	1899.70
896.05	1972.19
896.23	1749.37
896.40	1813.68
896.58	1873.07
896.75	1992.47
896.93	2047.15
897.10	1763.71
897.28	1712.51
897.45	1886.59
897.63	1964.21
897.80	1915.87
897.98	1825.97
898.15	1917.51
898.33	1769.24
898.50	1871.64
898.67	1821.87
898.85	1860.58
899.02	1935.33
899.20	1981.41
899.37	1820.85
899.55	1880.85
899.72	2025.03
899.90	1775.18
900.07	1756.95
900.25	1944.14
900.42	2013.77
900.59	1788.08
900.77	1940.66
900.94	1979.57
901.12	1916.69
901.29	1748.97
901.47	1911.57
901.64	1942.09
901.82	1850.34
901.99	1608.68
902.16	1754.09
902.34	2015.20
902.51	1903.38
902.69	1806.31
902.86	1839.69
903.03	2323.01
903.21	1903.59
903.38	1840.71
903.56	1763.51
903.73	1982.02
903.91	1823.72
904.08	1753.06
904.25	1645.95
904.43	1771.08
904.60	1999.23
904.78	1797.91
904.95	1731.97
905.12	1830.27
905.30	2088.52
905.47	1911.57
905.65	1942.09
905.82	1886.79
905.99	1981.20
906.17	1869.59
906.34	1791.56
906.52	1822.08
906.69	2016.23
906.86	1983.25
907.04	1905.02
907.21	2024.21
907.38	2022.37
907.56	1811.43
907.73	1800.57
907.91	2074.59
908.08	2044.28
908.25	1779.68
908.43	1759.00
908.60	1943.52
908.77	1912.80
908.95	1780.71
909.12	1742.82
909.30	1944.96
909.47	1710.46
909.64	1835.59
909.82	1948.64
909.99	1848.50
910.16	1886.38
910.34	1782.14
910.51	1815.73
910.68	1917.72
910.86	1846.86
911.03	1733.20
911.20	1884.75
911.38	2360.69
911.55	2999.05
911.72	3202.20
911.90	3256.48
912.07	3583.13
912.24	3643.54
912.42	2985.12
912.59	2534.36
912.76	2610.34
912.94	2395.71
913.11	2206.48
913.28	2107.36
913.46	2004.76
913.63	2139.51
913.80	2269.15
913.98	1973.22
914.15	2177.81
914.32	2197.68
914.49	2031.18
914.67	1893.76
914.84	2020.73
915.01	2069.27
915.19	1981.41
915.36	1885.36
915.53	2055.14
915.71	1938.40
915.88	1898.88
916.05	1803.24
916.22	1991.85
916.40	1908.30
916.57	1744.46
916.74	1893.35
916.92	2080.53
917.09	1762.89
917.26	1756.13
917.43	1720.91
917.61	1811.22
917.78	1724.18
917.95	1645.54
918.13	1725.00
918.30	2169.21
918.47	1897.85
918.64	1752.45
918.82	1724.39
918.99	1913.01
919.16	2141.97
919.33	1868.16
919.51	1828.02
919.68	1937.58
919.85	2067.63
920.02	1734.22
920.20	1847.47
920.37	2131.53
920.54	1985.92
920.71	1761.25
920.89	1774.97
921.06	2108.59
921.23	1799.55
921.40	1771.08
921.58	1999.23
921.75	2461.86
921.92	2072.34
922.09	2131.12
922.27	2140.54
922.44	2130.91
922.61	2085.24
922.78	1969.33
922.96	1916.08
923.13	1935.54
923.30	2037.73
923.47	1746.51
923.64	1817.78
923.82	1967.07
923.99	1929.80
924.16	1903.59
924.33	1767.81
924.50	1921.20
924.68	2086.68
924.85	1742.62
925.02	1804.26
925.19	1998.00
925.36	1920.38
925.54	1869.18
925.71	1869.80
925.88	2274.68
926.05	1838.87
926.22	1735.04
926.40	1855.25
926.57	1922.63
926.74	1974.24
926.91	1766.99
927.08	1984.89
927.26	1997.18
927.43	1899.08
927.60	1755.11
927.77	1816.34
927.94	2074.39
928.11	2013.97
928.29	1698.38
928.46	1834.37
928.63	1803.24
928.80	1836.41
928.97	1873.48
929.14	1770.26
929.32	2143.61
929.49	1909.32
929.66	1736.06
929.83	1695.51
930.00	1807.74
930.17	1894.78
930.35	1713.95
930.52	1782.14
930.69	2068.24
930.86	1737.91
931.03	1872.87
931.20	1629.57
931.37	2036.30
931.55	1844.40
931.72	1867.75
931.89	1731.76
932.06	1742.62
932.23	2076.44
932.40	1884.75
932.57	1918.95
932.74	2055.75
932.92	2025.03
933.09	1902.15
933.26	1570.18
933.43	1825.56
933.60	1908.71
933.77	1812.04
933.94	1850.95
934.11	1866.11
934.29	1893.76
934.46	1722.14
934.63	1864.06
934.80	1704.11
934.97	1852.80
935.14	1801.80
935.31	1672.17
935.48	1784.19
935.65	1935.94
935.82	1854.03
936.00	1729.92
936.17	2064.15
936.34	1865.90
936.51	1905.02
936.68	1698.18
936.85	1913.21
937.02	1911.37
937.19	1885.36
937.36	1805.08
937.53	1926.32
937.70	1984.48
937.87	1824.94
938.05	1902.97
938.22	1903.18
938.39	1738.52
938.56	1831.09
938.73	1736.68
938.90	1883.52
939.07	1807.74
939.24	1851.36
939.41	1656.40
939.58	1931.85
939.75	1953.76
939.92	1751.01
940.09	1962.16
940.26	1854.23
940.43	1995.54
940.60	1756.95
940.77	1806.72
940.95	1910.75
941.12	1944.14
941.29	1783.17
941.46	1835.80
941.63	2009.06
941.80	2051.25
941.97	1703.30
942.14	1719.47
942.31	1975.88
942.48	1832.93
942.65	1868.16
942.82	1812.25
942.99	1954.79
943.16	1871.23
943.33	1738.93
943.50	1747.94
943.67	1974.86
943.84	2025.24
944.01	1798.32
944.18	1723.16
944.35	2057.18
944.52	1786.24
944.69	1845.63
944.86	1709.23
945.03	1959.70
945.20	2180.27
945.37	1672.58
945.54	1826.79
945.71	2041.62
945.88	2084.01
946.05	1753.88
946.22	1741.59
946.39	2046.13
946.56	1837.85
946.73	1707.39
946.90	1752.86
947.07	1837.03
947.24	1848.09
947.41	1645.95
947.58	1914.85
947.75	1932.26
947.92	1910.14
948.09	1581.85
948.26	1671.14
948.43	1890.48
948.60	2112.07
948.77	1740.98
948.94	1776.82
949.11	1958.06
949.27	1925.30
949.44	1756.34
949.61	1761.46
949.78	1906.45
949.95	2018.07
950.12	1740.77
950.29	1702.07
950.46	1795.04
950.63	2002.91
950.80	1769.65
950.97	1802.83
951.14	1979.98
951.31	1854.23
951.48	1749.37
951.65	1716.40
951.82	2108.18
951.99	1873.28
952.15	1691.83
952.32	1777.23
952.49	1813.48
952.66	1809.38
952.83	1742.41
953.00	1729.10
953.17	1856.48
953.34	1974.86
953.51	1805.08
953.68	1783.58
953.85	1989.40
954.02	2049.40
954.18	1812.25
954.35	1810.40
954.52	1769.45
954.69	1924.68
954.86	1662.95
955.03	1799.75
955.20	1966.25
955.37	1857.71
955.54	1775.38
955.71	1777.43
955.87	1931.44
956.04	2109.41
956.21	1797.30
956.38	1734.22
956.55	1902.56
956.72	2179.65
956.89	1812.86
957.06	1729.51
957.23	1773.13
957.39	2011.72
957.56	1780.09
957.73	1724.80
957.90	1635.30
958.07	2112.48
958.24	1812.04
958.41	1774.77
958.57	1973.83
958.74	1858.74
958.91	1722.14
959.08	1776.61
959.25	1966.66
959.42	1860.17
959.59	1823.92
959.75	1767.81
959.92	2014.38
960.09	2008.65
960.26	1740.98
960.43	1851.98
960.60	1890.28
960.76	1845.02
960.93	1685.07
961.10	1850.95
961.27	1990.83
961.44	1846.45
961.61	1689.16
961.77	1708.83
961.94	1901.13
962.11	2003.73
962.28	1786.85
962.45	1700.63
962.62	1845.83
962.78	1991.04
962.95	1708.21
963.12	1778.87
963.29	1954.58
963.46	2210.99
963.62	1823.31
963.79	1778.25
963.96	2169.41
964.13	1847.88
964.30	1841.33
964.46	1774.97
964.63	1749.78
964.80	2207.10
964.97	1665.41
965.14	1896.83
965.30	1981.00
965.47	2068.65
965.64	1964.21
965.81	1941.06
965.98	2109.41
966.14	1938.20
966.31	1829.66
966.48	1777.84
966.65	2065.17
966.81	1947.21
966.98	1815.32
967.15	1835.59
967.32	1892.32
967.49	1815.52
967.65	1649.23
967.82	1648.21
967.99	1874.30
968.16	1699.81
968.32	1954.38
968.49	1794.43
968.66	1873.07
968.83	2081.97
968.99	1825.56
969.16	1704.73
969.33	2030.56
969.50	1975.27
969.66	1896.62
969.83	1986.53
970.00	1963.59
970.17	1935.13
970.33	1795.45
970.50	1718.45
970.67	2065.99
970.84	2055.96
971.00	1737.91
971.17	1694.08
971.34	1952.74
971.50	1872.66
971.67	1898.47
971.84	1850.95
972.01	1724.18
972.17	1631.21
972.34	1718.25
972.51	1884.13
972.67	2017.25
972.84	1904.61
973.01	1697.77
973.18	1793.00
973.34	1987.76
973.51	1756.13
973.68	1780.09
973.84	1824.74
974.01	1837.85
974.18	2087.08
974.34	1873.07
974.51	1870.41
974.68	1807.54
974.85	2129.27
975.01	1872.87
975.18	1784.80
975.35	1873.69
975.51	1755.31
975.68	1652.30
975.85	1914.65
976.01	1802.21
976.18	2062.30
976.35	1785.62
976.51	1766.17
976.68	2080.53
976.85	2013.36
977.01	1830.47
977.18	1883.11
977.35	1926.73
977.51	1747.53
977.68	1610.52
977.85	1706.37
978.01	2001.28
978.18	1957.45
978.35	1820.44
978.51	1829.25
978.68	1998.82
978.85	2113.09
979.01	1777.23
979.18	1829.45
979.34	1858.33
979.51	1883.72
979.68	1739.95
979.84	1813.07
980.01	2202.80
980.18	1882.70
980.34	1745.89
980.51	1855.46
980.67	1971.58
980.84	1970.15
981.01	1796.27
981.17	1858.53
981.34	1690.80
981.51	1946.18
981.67	1722.14
981.84	1887.82
982.00	1935.13
982.17	1848.91
982.34	1674.42
982.50	1572.64
982.67	2058.21
982.83	1796.07
983.00	1696.33
983.17	1625.47
983.33	1996.77
983.50	1696.13
983.66	1709.03
983.83	1602.54
984.00	1825.97
984.16	1866.31
984.33	1636.33
984.49	1606.02
984.66	1770.06
984.83	1952.74
984.99	1654.55
985.16	1581.65
985.32	1961.13
985.49	1990.42
985.65	1718.45
985.82	1629.16
985.99	2054.93
986.15	1888.43
986.32	1686.71
986.48	1681.38
986.65	1827.81
986.81	1988.58
986.98	1607.66
987.14	1671.76
987.31	1891.91
987.48	1716.40
987.64	1540.89
987.81	1594.55
987.97	2122.72
988.14	1770.47
988.30	1631.21
988.47	1507.30
988.63	1900.92
988.80	1735.24
988.96	1692.24
989.13	1719.27
989.30	1810.40
989.46	1995.13
989.63	1579.60
989.79	1585.95
989.96	1852.18
990.12	2054.11
990.29	1652.71
990.45	1681.18
990.62	1869.59
990.78	2018.68
990.95	1735.04
991.11	1645.54
991.28	1823.92
991.44	1905.63
991.61	1557.28
991.77	1680.77
991.94	1915.47
992.10	2014.38
992.27	1732.79
992.43	1666.43
992.60	1922.02
992.76	1823.10
992.93	1791.56
993.09	1612.78
993.26	1983.05
993.42	2106.34
993.59	1666.23
993.75	1559.73
993.92	1763.51
994.08	1774.97
994.25	1742.41
994.41	1615.85
994.58	1936.35
994.74	2018.48
994.91	1621.99
995.07	1700.84
995.24	1849.93
995.40	1863.04
995.56	1779.68
995.73	1733.81
995.89	2084.22
996.06	1858.33
996.22	1625.68
996.39	1558.50
996.55	1840.10
996.72	1930.42
996.88	1554.82
997.05	1625.68
997.21	2113.50
997.37	1920.79
997.54	1724.80
997.70	1681.59
997.87	1895.40
998.03	1860.58
998.20	1540.07
998.36	1587.99
998.52	1960.73
998.69	1979.77
998.85	1572.23
999.02	1665.41
999.18	1953.35
999.35	1993.08
999.51	1677.90
999.67	1688.55
999.84	1734.83
1000.00	1944.55
1000.17	1715.79
1000.33	1607.04
1000.49	1813.27
1000.66	1867.34
1000.82	1619.33
1000.99	1719.06
1001.15	2001.89
1001.31	1855.25
1001.48	1678.31
1001.64	1727.67
1001.81	1839.49
1001.97	2135.21
1002.13	1650.66
1002.30	1683.43
1002.46	2031.38
1002.63	1818.19
1002.79	1725.62
1002.95	1645.13
1003.12	2006.19
1003.28	1912.80
1003.45	1631.00
1003.61	1587.38
1003.77	1895.60
1003.94	1723.57
1004.10	1664.38
1004.26	1700.84
1004.43	1943.52
1004.59	2078.48
1004.75	1625.06
1004.92	1618.71
1005.08	1807.54
1005.25	1904.41
1005.41	1648.41
1005.57	1707.80
1005.74	2006.39
1005.90	1837.44
1006.06	1723.57
1006.23	1633.66
1006.39	1965.85
1006.55	2235.77
1006.72	1790.54
1006.88	1570.59
1007.04	1761.46
1007.21	1840.92
1007.37	1667.25
1007.53	1637.97
1007.70	2047.15
1007.86	1956.22
1008.02	1718.25
1008.19	1597.42
1008.35	1921.61
1008.51	1776.61
1008.68	1669.30
1008.84	1589.02
1009.00	1760.64
1009.17	2013.56
1009.33	1776.20
1009.49	1721.52
1009.65	1774.36
1009.82	1901.13
1009.98	1721.32
1010.14	1570.38
1010.31	1950.49
1010.47	1976.29
1010.63	1714.76
1010.80	1700.22
1010.96	1921.61
1011.12	1877.99
1011.28	1658.04
1011.45	1645.75
1011.61	2178.01
1011.77	1791.56
1011.94	1635.92
1012.10	1591.68
1012.26	1737.09
1012.42	1815.32
1012.59	1701.66
1012.75	1693.26
1012.91	1853.00
1013.07	2005.37
1013.24	1621.99
1013.40	1663.36
1013.56	1872.25
1013.72	1865.70
1013.89	1735.65
1014.05	1727.26
1014.21	2106.95
1014.37	2196.65
1014.54	1697.77
1014.70	1616.67
1014.86	1852.18
1015.02	1747.74
1015.19	1664.59
1015.35	1603.15
1015.51	1841.12
1015.67	1821.26
1015.84	1626.50
1016.00	1640.83
1016.16	2007.21
1016.32	1944.14
1016.49	1642.27
1016.65	1612.37
1016.81	1884.95
1016.97	1934.31
1017.14	1760.43
1017.30	1649.23
1017.46	1834.16
1017.62	1923.45
1017.78	1689.78
1017.95	1631.41
1018.11	1964.62
1018.27	2185.59
1018.43	1763.51
1018.59	1744.87
1018.76	1962.16
1018.92	2204.84
1019.08	1587.99
1019.24	1646.16
1019.40	2045.51
1019.57	1913.21
1019.73	1754.09
1019.89	1643.49
1020.05	1887.20
1020.21	2109.61
1020.38	1601.72
1020.54	1785.21
1020.70	1942.70
1020.86	1949.05
1021.02	1656.40
1021.18	1638.38
1021.35	1818.19
1021.51	1936.56
1021.67	1806.10
1021.83	1683.02
1021.99	1863.04
1022.15	1896.83
1022.32	1722.96
1022.48	1717.63
1022.64	2037.11
1022.80	2063.33
1022.96	1696.74
1023.12	1585.13
1023.29	1992.88
1023.45	1932.26
1023.61	1627.52
1023.77	1806.72
1023.93	1905.63
1024.09	1764.33
1024.25	1630.39
1024.42	1589.43
1024.58	1808.36
1024.74	1916.90
1024.90	1637.15
1025.06	1701.45
1025.22	1801.60
1025.38	2073.36
1025.54	1578.57
1025.71	1719.47
1025.87	1931.03
1026.03	1941.88
1026.19	1627.52
1026.35	1779.89
1026.51	1932.67
1026.67	1860.17
1026.83	1684.45
1026.99	1770.88
1027.16	1936.15
1027.32	1845.42
1027.48	1666.64
1027.64	1615.85
1027.80	1951.92
1027.96	1891.50
1028.12	1669.71
1028.28	1621.38
1028.44	1934.72
1028.60	2043.87
1028.77	1749.17
1028.93	1696.54
1029.09	1833.55
1029.25	1749.99
1029.41	1687.53
1029.57	1738.11
1029.73	1918.54
1029.89	2059.85
1030.05	1748.35
1030.21	1726.85
1030.37	2157.13
1030.53	1931.64
1030.69	1706.16
1030.85	1604.79
1031.02	1773.54
1031.18	1878.40
1031.34	1682.82
1031.50	1736.88
1031.66	1795.25
1031.82	2052.47
1031.98	1697.97
1032.14	1641.24
1032.30	1765.35
1032.46	1958.27
1032.62	1791.77
1032.78	1600.08
1032.94	1789.31
1033.10	1847.88
1033.26	1724.80
1033.42	1741.80
1033.58	2135.83
1033.74	1824.94
1033.90	1650.87
1034.06	1817.57
1034.22	2147.91
1034.38	1999.64
1034.54	1676.67
1034.70	1710.05
1034.86	2095.48
>>>>>End Processed Spectral Data<<<<<
