SpectraSuite Data File
++++++++++++++++++++++++++++++++++++
Date: Thu Mar 30 16:03:13 PDT 2017
User: UCSD _CER
Dark Spectrum Present: No
Reference Spectrum Present: No
Number of Sampled Component Spectra: 1
Spectrometers: USB4C00073
Integration Time (usec): 250000 (USB4C00073)
Spectra Averaged: 10 (USB4C00073)
Boxcar Smoothing: 0 (USB4C00073)
Correct for Electrical Dark: No (USB4C00073)
Strobe/Lamp Enabled: No (USB4C00073)
Correct for Detector Non-linearity: No (USB4C00073)
Correct for Stray Light: No (USB4C00073)
Number of Pixels in Processed Spectrum: 3648
>>>>>Begin Processed Spectral Data<<<<<
345.37	1281.00
345.58	1281.00
345.80	1281.00
346.01	1272.81
346.22	1295.14
346.43	1976.29
346.65	1783.37
346.86	2112.48
347.07	2060.26
347.28	1787.67
347.50	1780.09
347.71	1921.81
347.92	1697.97
348.13	1800.57
348.35	1738.52
348.56	1935.54
348.77	1757.36
348.98	1825.35
349.20	1646.77
349.41	1924.68
349.62	1989.19
349.83	1857.71
350.05	1726.23
350.26	1945.98
350.47	2073.36
350.68	1805.28
350.90	1732.17
351.11	2075.62
351.32	2048.17
351.53	1811.84
351.75	1712.31
351.96	1939.43
352.17	1904.61
352.38	1846.04
352.60	1845.63
352.81	1927.55
353.02	2107.36
353.23	1751.63
353.44	1791.15
353.66	1849.32
353.87	1868.57
354.08	1865.49
354.29	1811.02
354.51	1833.55
354.72	1868.77
354.93	1774.77
355.14	1711.90
355.35	1738.52
355.57	2033.63
355.78	1809.38
355.99	1890.89
356.20	1917.10
356.42	1898.06
356.63	1887.82
356.84	1827.20
357.05	2011.92
357.26	2190.10
357.48	1903.18
357.69	1836.21
357.90	1946.80
358.11	1829.66
358.32	1806.10
358.54	1821.26
358.75	1855.66
358.96	2007.21
359.17	1786.24
359.38	1815.32
359.60	1999.64
359.81	1905.84
360.02	1821.26
360.23	1780.09
360.44	1819.42
360.66	2042.23
360.87	1738.73
361.08	1713.33
361.29	1968.10
361.50	1923.66
361.72	1795.04
361.93	1851.16
362.14	1905.63
362.35	1720.50
362.56	1891.09
362.77	1701.66
362.99	1979.77
363.20	1933.69
363.41	1894.37
363.62	1706.98
363.83	1971.58
364.05	2000.87
364.26	1699.81
364.47	1776.00
364.68	2058.82
364.89	1811.02
365.10	1703.09
365.32	1826.38
365.53	1798.12
365.74	1856.28
365.95	1803.44
366.16	1695.92
366.37	1895.60
366.59	1870.61
366.80	1798.94
367.01	1693.26
367.22	2177.40
367.43	2265.05
367.64	1808.97
367.86	1796.89
368.07	1954.38
368.28	2092.41
368.49	1733.20
368.70	1838.87
368.91	1886.79
369.12	1890.07
369.34	1716.20
369.55	1721.11
369.76	1914.03
369.97	1857.30
370.18	1721.11
370.39	1743.64
370.60	1746.92
370.82	1764.73
371.03	1782.96
371.24	1751.63
371.45	1998.00
371.66	1972.19
371.87	1792.59
372.08	1771.90
372.30	1768.42
372.51	2012.74
372.72	1883.72
372.93	1758.18
373.14	2096.51
373.35	1811.43
373.56	1736.68
373.78	1802.62
373.99	2002.91
374.20	2262.39
374.41	1829.45
374.62	1807.33
374.83	2100.60
375.04	1892.53
375.25	1800.57
375.47	1760.43
375.68	1864.47
375.89	1991.44
376.10	1816.34
376.31	1910.75
376.52	1950.08
376.73	1953.35
376.94	1829.25
377.15	1765.76
377.37	1917.10
377.58	1882.08
377.79	1669.30
378.00	1705.75
378.21	1929.80
378.42	1987.96
378.63	1819.01
378.84	1853.41
379.05	2025.85
379.27	1916.69
379.48	1900.51
379.69	1742.21
379.90	2058.62
380.11	1667.46
380.32	1794.23
380.53	1908.09
380.74	2067.01
380.95	1902.15
381.16	1808.77
381.37	1787.47
381.59	2092.61
381.80	2006.60
382.01	1726.23
382.22	1689.16
382.43	1950.69
382.64	1918.95
382.85	1744.66
383.06	1847.27
383.27	2011.51
383.48	1878.40
383.69	1838.87
383.91	1744.87
384.12	1966.87
384.33	1946.18
384.54	1810.61
384.75	1675.65
384.96	2248.67
385.17	2012.54
385.38	1763.71
385.59	1760.23
385.80	1986.12
386.01	2090.57
386.22	1870.41
386.43	1821.67
386.64	2191.74
386.86	1907.27
387.07	1911.98
387.28	1715.79
387.49	1846.65
387.70	2070.70
387.91	1868.77
388.12	1753.88
388.33	1950.69
388.54	1812.86
388.75	1765.14
388.96	1820.85
389.17	1816.34
389.38	1848.91
389.59	1874.92
389.80	1813.89
390.01	1890.07
390.22	1869.39
390.43	1899.29
390.64	1676.26
390.86	1948.64
391.07	1998.82
391.28	1819.21
391.49	1815.52
391.70	1726.64
391.91	1808.15
392.12	1796.48
392.33	1774.77
392.54	1914.03
392.75	1852.59
392.96	1879.42
393.17	1727.05
393.38	2187.64
393.59	2039.98
393.80	1760.64
394.01	1830.27
394.22	1947.82
394.43	2211.40
394.64	1814.91
394.85	1982.23
395.06	1918.33
395.27	1939.63
395.48	1852.80
395.69	1716.20
395.90	1896.83
396.11	1875.32
396.32	1748.76
396.53	1896.01
396.74	1873.48
396.95	2022.57
397.16	1765.96
397.37	1704.73
397.58	2037.32
397.79	1929.80
398.00	1823.10
398.21	1792.79
398.42	1930.01
398.63	2160.81
398.84	1789.52
399.05	1754.90
399.26	2070.91
399.47	1961.95
399.68	1628.14
399.89	1733.81
400.10	1797.09
400.31	1858.33
400.52	1823.10
400.73	1779.07
400.94	1729.10
401.15	1927.14
401.36	1777.84
401.57	1857.51
401.78	2022.37
401.99	2013.97
402.20	1692.85
402.41	1917.92
402.62	2109.00
402.83	1865.70
403.04	1751.01
403.25	1939.84
403.46	1946.80
403.67	2122.11
403.88	1864.68
404.09	1842.76
404.30	1917.31
404.51	1891.91
404.72	1801.60
404.93	1938.61
405.14	1840.51
405.35	1877.58
405.56	1777.02
405.77	1782.76
405.98	1948.44
406.19	1909.94
406.40	1766.99
406.61	1788.90
406.82	1813.07
407.03	2206.69
407.24	1712.51
407.45	1794.23
407.66	1958.27
407.87	2012.54
408.08	1834.78
408.29	1873.89
408.49	1988.58
408.70	1887.41
408.91	1804.06
409.12	1903.79
409.33	1778.46
409.54	2065.58
409.75	1760.43
409.96	1787.88
410.17	2001.68
410.38	1861.81
410.59	1781.32
410.80	1880.44
411.01	1856.28
411.22	1853.82
411.43	1848.09
411.64	1732.58
411.85	1785.21
412.06	1812.25
412.27	1639.19
412.47	1760.43
412.68	1894.37
412.89	1917.92
413.10	1757.57
413.31	1686.91
413.52	2111.87
413.73	2165.73
413.94	1747.94
414.15	1902.36
414.36	1820.03
414.57	1804.26
414.78	1731.76
414.99	1971.37
415.19	2338.58
415.40	2394.28
415.61	2473.74
415.82	2361.72
416.03	2380.97
416.24	2241.50
416.45	1981.00
416.66	1852.59
416.87	1775.18
417.08	1989.81
417.29	1802.21
417.50	1881.47
417.70	2043.46
417.91	2037.73
418.12	1964.82
418.33	1996.56
418.54	2162.25
418.75	2286.56
418.96	2266.49
419.17	2370.73
419.38	2773.56
419.59	2736.70
419.79	2573.48
420.00	2464.12
420.21	2717.45
420.42	2212.63
420.63	1958.27
420.84	1982.02
421.05	1932.05
421.26	1955.81
421.47	1735.45
421.67	2029.13
421.88	1785.21
422.09	1735.65
422.30	1965.23
422.51	1814.50
422.72	2092.41
422.93	1981.61
423.14	1794.84
423.35	1694.28
423.55	1695.51
423.76	1803.24
423.97	1826.99
424.18	1690.19
424.39	1887.61
424.60	2043.87
424.81	1855.66
425.02	1990.01
425.22	2024.42
425.43	2006.80
425.64	2159.38
425.85	2059.64
426.06	2409.23
426.27	2287.58
426.48	2192.76
426.68	2199.31
426.89	2322.19
427.10	2383.63
427.31	2010.08
427.52	1864.27
427.73	2044.08
427.94	2000.25
428.14	1900.72
428.35	1799.14
428.56	2070.70
428.77	2035.07
428.98	1893.14
429.19	1935.54
429.40	1995.75
429.60	2046.54
429.81	2114.12
430.02	2033.22
430.23	2006.19
430.44	2049.61
430.65	1842.76
430.85	1865.09
431.06	2007.83
431.27	1748.76
431.48	1794.23
431.69	1860.78
431.90	1898.47
432.10	1907.68
432.31	1850.75
432.52	1834.78
432.73	2357.62
432.94	2297.21
433.15	2156.31
433.35	2046.74
433.56	2248.46
433.77	2045.10
433.98	2024.01
434.19	1905.84
434.40	1971.58
434.60	1930.62
434.81	1850.54
435.02	1875.73
435.23	1892.73
435.44	1856.07
435.64	1708.01
435.85	1764.12
436.06	1882.29
436.27	1844.81
436.48	1695.10
436.68	1749.99
436.89	2091.80
437.10	1992.26
437.31	1823.51
437.52	1899.70
437.73	1901.13
437.93	1903.79
438.14	1876.76
438.35	1693.87
438.56	1851.16
438.77	1877.78
438.97	1932.67
439.18	1748.97
439.39	2030.36
439.60	1733.81
439.80	1688.55
440.01	1799.75
440.22	1816.75
440.43	1970.76
440.64	1730.12
440.84	1819.62
441.05	1786.65
441.26	2268.33
441.47	1817.37
441.68	1789.31
441.88	1884.13
442.09	1859.76
442.30	1943.32
442.51	1853.21
442.71	1851.16
442.92	1947.21
443.13	1756.54
443.34	1734.63
443.55	1780.71
443.75	1959.91
443.96	1751.42
444.17	1752.65
444.38	2043.46
444.58	1777.02
444.79	1865.49
445.00	1824.13
445.21	1877.58
445.41	1863.65
445.62	1628.95
445.83	1878.60
446.04	1911.57
446.24	1718.45
446.45	1658.45
446.66	1800.98
446.87	1946.59
447.07	1843.79
447.28	1998.82
447.49	1832.32
447.70	2019.09
447.90	2007.42
448.11	1822.49
448.32	1892.53
448.53	2075.00
448.73	2061.08
448.94	1811.84
449.15	1945.57
449.36	1920.18
449.56	1950.28
449.77	1801.60
449.98	1723.37
450.19	1869.18
450.39	1931.03
450.60	1918.13
450.81	1919.56
451.02	1971.78
451.22	2131.94
451.43	1820.23
451.64	1828.84
451.84	1934.31
452.05	2115.55
452.26	1884.95
452.47	1850.13
452.67	1846.24
452.88	2087.90
453.09	1789.92
453.30	1716.20
453.50	1984.89
453.71	2101.22
453.92	1809.38
454.12	1888.64
454.33	1821.05
454.54	1865.49
454.75	1724.59
454.95	1745.48
455.16	1917.10
455.37	1931.85
455.57	1829.04
455.78	1796.89
455.99	1900.72
456.19	1907.48
456.40	1745.07
456.61	1833.34
456.82	1898.88
457.02	1990.01
457.23	1864.68
457.44	1953.56
457.64	1823.72
457.85	1940.04
458.06	1847.68
458.26	2008.44
458.47	1916.08
458.68	2001.07
458.89	1748.15
459.09	1942.29
459.30	2204.64
459.51	1939.43
459.71	1737.29
459.92	1796.07
460.13	2010.70
460.33	2188.46
460.54	1803.85
460.75	1802.42
460.95	1794.23
461.16	1941.88
461.37	1804.87
461.57	1842.35
461.78	1919.15
461.99	1776.00
462.19	2052.47
462.40	1788.70
462.61	2373.60
462.81	2060.05
463.02	1776.41
463.23	1787.67
463.43	1989.40
463.64	1857.30
463.85	2732.20
464.05	1805.08
464.26	2326.29
464.47	2079.71
464.67	1974.04
464.88	1865.90
465.09	1792.79
465.29	1904.00
465.50	1935.13
465.71	1828.02
465.91	1805.69
466.12	1887.61
466.33	1876.55
466.53	1800.37
466.74	2073.77
466.94	1850.95
467.15	1819.42
467.36	2003.32
467.56	1800.57
467.77	1934.51
467.98	1851.57
468.18	1788.29
468.39	1837.03
468.60	2153.64
468.80	1878.19
469.01	1773.54
469.21	1967.69
469.42	2036.70
469.63	1851.36
469.83	1802.62
470.04	2043.26
470.25	2131.94
470.45	1900.52
470.66	1801.80
470.86	1952.53
471.07	1863.86
471.28	1891.50
471.48	1967.48
471.69	1937.79
471.90	2351.27
472.10	1821.67
472.31	1814.30
472.51	1810.20
472.72	1803.65
472.93	1741.80
473.13	1951.51
473.34	1924.27
473.54	1890.28
473.75	1848.29
473.96	2012.95
474.16	1905.02
474.37	1971.78
474.57	1906.66
474.78	1819.42
474.99	1982.84
475.19	1959.29
475.40	1800.37
475.60	1745.89
475.81	2062.92
476.02	1907.68
476.22	1898.47
476.43	1987.35
476.63	1935.33
476.84	2123.13
477.05	1732.58
477.25	1797.09
477.46	2315.23
477.66	1906.45
477.87	1715.17
478.08	1813.27
478.28	2036.70
478.49	1884.13
478.69	1785.62
478.90	1827.20
479.10	2002.91
479.31	2093.02
479.52	1873.89
479.72	1954.17
479.93	1991.85
480.13	1832.73
480.34	1800.37
480.54	1892.94
480.75	1783.37
480.96	2044.90
481.16	1795.86
481.37	1928.98
481.57	2019.71
481.78	1968.51
481.98	1998.82
482.19	1868.16
482.40	2140.74
482.60	1982.84
482.81	1948.44
483.01	1842.56
483.22	2076.44
483.42	2057.18
483.63	1947.62
483.83	1903.18
484.04	1866.11
484.24	1998.41
484.45	1916.28
484.66	1734.02
484.86	1989.40
485.07	1807.95
485.27	1851.77
485.48	1795.66
485.68	2058.62
485.89	1815.73
486.09	1902.56
486.30	1811.02
486.50	1912.80
486.71	1951.10
486.91	1938.81
487.12	1990.63
487.33	2215.49
487.53	2224.50
487.74	2062.71
487.94	1962.57
488.15	2083.60
488.35	2083.19
488.56	1969.74
488.76	1980.80
488.97	1961.54
489.17	2074.18
489.38	1933.69
489.58	1862.63
489.79	2008.24
489.99	1961.13
490.20	1891.09
490.40	1935.94
490.61	1965.44
490.81	1849.11
491.02	1875.32
491.22	1927.55
491.43	2052.88
491.63	1926.93
491.84	1970.56
492.04	1755.31
492.25	1969.12
492.45	1881.26
492.66	1788.90
492.86	1735.86
493.07	1881.06
493.27	2185.59
493.48	1734.22
493.68	1861.40
493.89	1880.44
494.09	2009.67
494.30	1793.20
494.50	2092.61
494.71	1975.27
494.91	1787.06
495.12	1895.60
495.32	2000.25
495.53	1984.07
495.73	1758.18
495.94	1860.17
496.14	1702.07
496.35	2147.70
496.55	1876.14
496.76	1834.98
496.96	1913.62
497.17	1891.30
497.37	1968.92
497.58	1834.37
497.78	1766.78
497.98	1917.10
498.19	1893.55
498.39	1920.38
498.60	1928.37
498.80	1756.95
499.01	2030.15
499.21	1788.29
499.42	1855.87
499.62	1909.12
499.83	2181.50
500.03	1728.90
500.24	1910.35
500.44	2089.13
500.64	2049.61
500.85	1835.80
501.05	1950.08
501.26	1714.97
501.46	2072.95
501.67	1790.33
501.87	1766.37
502.08	1808.77
502.28	1862.83
502.48	1926.73
502.69	1986.53
502.89	1794.84
503.10	1874.71
503.30	1896.83
503.51	1905.84
503.71	1794.23
503.92	2019.71
504.12	1945.98
504.32	1910.35
504.53	2070.09
504.73	2118.42
504.94	2052.68
505.14	2169.00
505.35	2153.64
505.55	2135.21
505.75	2044.28
505.96	2130.91
506.16	2297.00
506.37	1935.74
506.57	1851.57
506.78	1993.90
506.98	2104.49
507.18	1822.90
507.39	1818.19
507.59	1897.44
507.80	1865.70
508.00	1961.75
508.20	2024.62
508.41	1924.27
508.61	2109.61
508.82	2015.20
509.02	1967.28
509.22	1781.53
509.43	1786.24
509.63	1840.92
509.84	1886.18
510.04	1772.31
510.24	2092.41
510.45	2024.21
510.65	1761.46
510.86	1875.53
511.06	1813.89
511.26	2067.22
511.47	1980.80
511.67	1833.75
511.88	2021.14
512.08	2068.86
512.28	1793.61
512.49	1936.56
512.69	1944.34
512.90	1930.01
513.10	1798.53
513.30	1899.49
513.51	1973.42
513.71	2128.66
513.91	1933.28
514.12	1901.33
514.32	2057.80
514.53	1916.90
514.73	2021.96
514.93	1937.58
515.14	2066.20
515.34	2267.51
515.54	2090.36
515.75	2175.56
515.95	2294.75
516.15	2358.85
516.36	2087.90
516.56	2049.81
516.77	1789.31
516.97	2052.47
517.17	1898.67
517.38	2035.27
517.58	2180.27
517.78	2015.00
517.99	2147.70
518.19	2179.24
518.39	2442.41
518.60	2240.07
518.80	2096.10
519.00	2137.87
519.21	2008.03
519.41	2241.50
519.61	1879.22
519.82	1990.22
520.02	1972.19
520.22	1980.39
520.43	1938.20
520.63	1921.81
520.83	1916.28
521.04	1828.63
521.24	2086.27
521.44	2125.38
521.65	2139.92
521.85	2317.28
522.05	2110.23
522.26	2043.26
522.46	2311.95
522.66	2182.93
522.87	1910.55
523.07	2067.01
523.27	1923.25
523.48	2183.34
523.68	1947.41
523.88	1972.19
524.09	2128.45
524.29	2059.23
524.49	1832.93
524.70	2142.99
524.90	2285.33
525.10	2161.43
525.31	1952.74
525.51	1879.63
525.71	2103.26
525.91	2012.33
526.12	1839.69
526.32	1758.80
526.52	1862.63
526.73	1844.81
526.93	1925.71
527.13	1748.15
527.34	1941.88
527.54	1927.96
527.74	1880.85
527.94	1803.85
528.15	1832.93
528.35	1954.99
528.55	1966.66
528.76	1943.11
528.96	1744.46
529.16	2065.38
529.36	2015.41
529.57	1780.30
529.77	2056.98
529.97	1787.47
530.18	1951.30
530.38	1863.24
530.58	1983.66
530.78	1917.92
530.99	1840.51
531.19	1966.05
531.39	1845.42
531.60	1941.68
531.80	1837.23
532.00	1984.89
532.20	1959.70
532.41	1840.71
532.61	1837.64
532.81	1838.05
533.01	1852.80
533.22	1958.27
533.42	1982.84
533.62	1708.01
533.82	2072.54
534.03	1908.50
534.23	1945.98
534.43	1814.30
534.63	1857.92
534.84	1945.57
535.04	1888.23
535.24	1914.03
535.44	2245.80
535.65	1844.81
535.85	1832.93
536.05	1821.26
536.25	1907.27
536.46	1822.69
536.66	2068.65
536.86	1939.43
537.06	2034.25
537.27	2120.47
537.47	1989.40
537.67	1856.89
537.87	2106.95
538.08	1892.32
538.28	1786.65
538.48	1811.02
538.68	1935.94
538.88	2040.19
539.09	1769.24
539.29	1893.14
539.49	2041.01
539.69	1956.42
539.90	1967.07
540.10	1821.87
540.30	2126.61
540.50	1900.72
540.70	1791.15
540.91	1955.81
541.11	2082.58
541.31	2217.34
541.51	2073.36
541.72	2084.01
541.92	2132.96
542.12	1974.04
542.32	1966.25
542.52	1891.71
542.73	1888.43
542.93	2026.67
543.13	1905.02
543.33	1996.77
543.53	2130.71
543.74	2109.61
543.94	1972.81
544.14	2151.19
544.34	2236.38
544.54	2139.10
544.75	2239.25
544.95	2358.44
545.15	2270.79
545.35	2331.20
545.55	2176.79
545.75	1997.18
545.96	2327.52
546.16	1913.42
546.36	1969.94
546.56	1953.56
546.76	2104.49
546.97	2194.19
547.17	1931.03
547.37	1964.82
547.57	1901.95
547.77	2024.01
547.97	1914.85
548.18	1937.99
548.38	1976.09
548.58	2364.38
548.78	2297.82
548.98	2547.67
549.18	2829.06
549.39	2975.08
549.59	2674.03
549.79	2452.85
549.99	2586.38
550.19	2419.47
550.39	2298.44
550.60	2130.09
550.80	2147.09
551.00	2165.93
551.20	1988.17
551.40	1925.71
551.60	2052.06
551.80	2020.94
552.01	2064.15
552.21	1957.86
552.41	2003.73
552.61	2187.44
552.81	1986.94
553.01	1836.21
553.21	2019.30
553.42	1852.18
553.62	1849.73
553.82	1845.83
554.02	2127.43
554.22	2026.47
554.42	1801.80
554.62	1969.12
554.83	2248.87
555.03	2428.69
555.23	2297.62
555.43	2647.00
555.63	2584.13
555.83	2461.04
556.03	2299.87
556.23	2103.47
556.44	2266.69
556.64	2360.08
556.84	1954.58
557.04	2167.37
557.24	2199.72
557.44	2097.94
557.64	2044.08
557.84	1898.67
558.04	1950.08
558.25	2053.29
558.45	1893.76
558.65	1982.84
558.85	2033.43
559.05	1781.53
559.25	1985.30
559.45	2085.24
559.65	2438.93
559.85	2884.36
560.05	2302.94
560.26	2396.33
560.46	2378.92
560.66	2274.47
560.86	2092.82
561.06	2029.95
561.26	2278.57
561.46	2158.35
561.66	1993.29
561.86	2060.05
562.06	1917.92
562.26	1979.57
562.47	1965.85
562.67	1814.09
562.87	2046.33
563.07	1791.56
563.27	1969.12
563.47	1982.02
563.67	1944.34
563.87	2072.54
564.07	1967.69
564.27	2050.02
564.47	2113.09
564.67	2193.78
564.87	2067.83
565.08	2165.73
565.28	2030.15
565.48	2135.21
565.68	2065.38
565.88	2031.59
566.08	2226.14
566.28	1959.91
566.48	1796.68
566.68	1880.44
566.88	1893.14
567.08	2044.28
567.28	1909.73
567.48	1948.44
567.68	2031.18
567.88	1842.35
568.08	2048.38
568.28	2130.50
568.48	1984.89
568.68	2166.14
568.89	2009.67
569.09	1808.97
569.29	2079.51
569.49	2063.53
569.69	1854.23
569.89	1823.92
570.09	1717.84
570.29	1845.02
570.49	1742.21
570.69	1817.37
570.89	1996.97
571.09	2168.59
571.29	1752.04
571.49	1999.64
571.69	1951.92
571.89	1968.51
572.09	1848.91
572.29	1837.44
572.49	1988.78
572.69	1977.72
572.89	1911.98
573.09	1711.28
573.29	2001.89
573.49	2048.99
573.69	2003.12
573.89	2094.05
574.09	1935.74
574.29	2115.55
574.49	1889.87
574.69	1835.59
574.89	1827.20
575.09	1806.10
575.29	1803.24
575.49	1899.49
575.69	1952.33
575.89	1766.58
576.09	1911.16
576.29	1915.26
576.49	1832.32
576.69	1925.91
576.89	1879.01
577.09	1950.49
577.29	1786.24
577.49	2159.17
577.69	1859.56
577.89	1992.06
578.09	1920.18
578.29	1755.93
578.49	1898.26
578.69	1834.37
578.89	2056.57
579.09	1949.67
579.29	1806.92
579.49	2011.11
579.69	1900.92
579.89	2171.46
580.09	1754.90
580.29	1730.74
580.49	1854.23
580.69	1835.80
580.89	1858.53
581.09	1865.09
581.29	1849.93
581.49	1919.15
581.69	1792.38
581.89	1791.77
582.09	1799.55
582.28	1805.90
582.48	2009.06
582.68	2113.30
582.88	2160.20
583.08	1970.76
583.28	1944.75
583.48	1961.34
583.68	1863.45
583.88	1920.18
584.08	1935.33
584.28	1885.97
584.48	2184.36
584.68	1975.47
584.88	1890.68
585.08	2027.28
585.28	2050.63
585.48	2104.90
585.68	2003.12
585.87	2012.33
586.07	2005.78
586.27	1930.01
586.47	1966.05
586.67	1911.16
586.87	1910.35
587.07	1877.58
587.27	1790.95
587.47	1948.64
587.67	2224.71
587.87	2482.55
588.07	2303.76
588.27	2217.95
588.46	2455.10
588.66	2477.02
588.86	2245.39
589.06	2213.04
589.26	2219.18
589.46	2137.26
589.66	1890.89
589.86	1880.65
590.06	1973.22
590.26	2128.86
590.46	2042.44
590.66	2156.92
590.85	2071.52
591.05	2178.01
591.25	1963.39
591.45	1993.08
591.65	2125.59
591.85	2102.65
592.05	2048.58
592.25	2197.27
592.45	2284.71
592.64	2089.13
592.84	2067.42
593.04	1949.05
593.24	2355.78
593.44	2017.45
593.64	2074.80
593.84	2119.65
594.04	1971.17
594.24	2232.90
594.43	1926.52
594.63	1966.25
594.83	2096.10
595.03	2030.15
595.23	1839.69
595.43	1794.64
595.63	1832.32
595.83	2044.08
596.02	1703.91
596.22	1941.47
596.42	2006.80
596.62	1931.44
596.82	1887.61
597.02	2023.80
597.22	2109.20
597.41	1965.03
597.61	1880.24
597.81	2044.90
598.01	2073.98
598.21	1989.19
598.41	1943.11
598.61	1904.00
598.80	1994.93
599.00	2032.61
599.20	2098.35
599.40	1935.94
599.60	1976.29
599.80	2097.53
599.99	2097.94
600.19	1946.59
600.39	1998.61
600.59	2044.28
600.79	1991.85
600.99	1960.11
601.19	2190.10
601.38	2210.58
601.58	2009.47
601.78	1791.36
601.98	2189.48
602.18	2684.48
602.37	3197.70
602.57	3272.86
602.77	3621.22
602.97	3687.57
603.17	3526.81
603.37	3334.71
603.56	3420.52
603.76	3296.00
603.96	3189.92
604.16	3052.09
604.36	2906.89
604.56	2736.91
604.75	2319.12
604.95	2332.43
605.15	2448.14
605.35	2361.10
605.55	2147.70
605.74	2052.68
605.94	2212.42
606.14	2062.71
606.34	2024.42
606.54	1983.05
606.73	1907.07
606.93	2028.51
607.13	1846.45
607.33	1945.98
607.53	2145.66
607.72	2058.21
607.92	2005.58
608.12	2034.86
608.32	1939.43
608.51	2030.36
608.71	1884.13
608.91	2035.89
609.11	2101.83
609.31	2015.61
609.50	2134.39
609.70	2304.58
609.90	2290.24
610.10	2301.51
610.29	2129.68
610.49	2016.43
610.69	2179.45
610.89	2038.55
611.09	2021.96
611.28	2131.94
611.48	2113.09
611.68	1953.35
611.88	1912.19
612.07	1886.59
612.27	2070.50
612.47	1898.88
612.67	1959.70
612.86	2049.81
613.06	1948.85
613.26	1783.17
613.46	1932.05
613.65	2017.45
613.85	2410.25
614.05	2152.42
614.25	2158.56
614.44	2045.51
614.64	2047.35
614.84	2013.15
615.04	1965.64
615.23	1982.43
615.43	2118.42
615.63	2098.35
615.83	1895.40
616.02	1892.32
616.22	2190.92
616.42	2036.09
616.62	2069.68
616.81	2186.62
617.01	2235.77
617.21	2146.48
617.41	1991.85
617.60	2061.89
617.80	2106.54
618.00	2097.73
618.19	2011.72
618.39	2011.92
618.59	2027.28
618.79	1920.18
618.98	1742.82
619.18	1873.89
619.38	2163.88
619.57	1845.63
619.77	1903.18
619.97	1895.80
620.17	1885.56
620.36	1878.40
620.56	2164.09
620.76	1944.96
620.95	1996.16
621.15	2065.99
621.35	1968.92
621.54	2009.67
621.74	2054.32
621.94	1924.48
622.14	1851.57
622.33	1807.33
622.53	1937.79
622.73	1897.24
622.92	1769.65
623.12	1890.68
623.32	2156.31
623.51	2024.01
623.71	1747.33
623.91	2019.50
624.10	1792.38
624.30	1918.95
624.50	1787.47
624.69	1800.78
624.89	2400.42
625.09	1865.90
625.29	1690.60
625.48	1762.07
625.68	1912.80
625.88	2042.03
626.07	1938.61
626.27	1781.53
626.47	1828.02
626.66	1721.73
626.86	1871.23
627.06	1874.51
627.25	1906.86
627.45	2094.66
627.64	1837.64
627.84	2020.94
628.04	1785.83
628.23	2152.42
628.43	1786.65
628.63	1859.76
628.82	1909.73
629.02	2222.66
629.22	2092.41
629.41	2158.76
629.61	2040.80
629.81	2310.31
630.00	1998.20
630.20	1950.49
630.40	2114.53
630.59	2144.63
630.79	1999.23
630.98	1960.32
631.18	1997.38
631.38	1969.12
631.57	2069.06
631.77	1799.96
631.97	1954.38
632.16	1970.35
632.36	1889.87
632.56	1907.68
632.75	1954.38
632.95	2056.16
633.14	1740.77
633.34	2046.33
633.54	1707.60
633.73	1834.37
633.93	1827.40
634.12	1670.94
634.32	2204.23
634.52	1893.14
634.71	1750.81
634.91	1930.62
635.11	1765.35
635.30	1784.19
635.50	1900.72
635.69	1815.32
635.89	2161.63
636.09	2052.47
636.28	1846.86
636.48	1840.51
636.67	2043.46
636.87	2010.08
637.07	1986.73
637.26	1849.32
637.46	2022.16
637.65	2096.92
637.85	1967.48
638.04	1909.94
638.24	1920.38
638.44	1994.93
638.63	1917.92
638.83	1873.69
639.02	1978.34
639.22	1993.90
639.42	1883.93
639.61	1895.40
639.81	1904.41
640.00	1858.74
640.20	1955.40
640.39	1970.97
640.59	2316.05
640.79	2268.33
640.98	2252.97
641.18	2237.41
641.37	2267.92
641.57	2156.72
641.76	2125.59
641.96	1914.65
642.15	2098.55
642.35	2007.62
642.55	2010.29
642.74	1872.46
642.94	2040.39
643.13	2118.42
643.33	1905.63
643.52	1850.13
643.72	1843.79
643.91	1879.42
644.11	1825.76
644.31	1772.93
644.50	1814.09
644.70	2040.19
644.89	1857.10
645.09	1944.55
645.28	1914.03
645.48	1968.30
645.67	1808.97
645.87	1713.54
646.06	1846.24
646.26	1920.99
646.45	1671.96
646.65	1679.74
646.84	2148.52
647.04	1887.41
647.24	1778.46
647.43	1889.25
647.63	1904.00
647.82	2060.26
648.02	1764.73
648.21	1806.72
648.41	2048.99
648.60	1869.39
648.80	1984.48
648.99	1893.76
649.19	1826.38
649.38	1740.98
649.58	1891.91
649.77	1912.80
649.97	2007.42
650.16	1954.58
650.36	1655.17
650.55	1963.59
650.75	1905.02
650.94	2064.97
651.14	1868.16
651.33	1874.71
651.53	2097.32
651.72	1793.61
651.92	1877.17
652.11	1694.90
652.31	1950.08
652.50	1939.84
652.70	1900.92
652.89	1768.63
653.09	2092.41
653.28	1841.33
653.48	1716.61
653.67	1721.73
653.87	2303.56
654.06	1926.93
654.25	2043.46
654.45	1860.17
654.64	1865.70
654.84	1877.58
655.03	1675.24
655.23	1978.75
655.42	1977.72
655.62	2116.17
655.81	1889.46
656.01	1765.55
656.20	2015.61
656.40	2075.82
656.59	1903.59
656.79	2009.26
656.98	1921.61
657.17	2019.91
657.37	1894.17
657.56	1811.02
657.76	1942.50
657.95	2037.32
658.15	1589.84
658.34	1890.89
658.54	1889.66
658.73	1731.56
658.92	1829.66
659.12	1925.71
659.31	2004.76
659.51	1812.45
659.70	2000.25
659.90	1909.53
660.09	2074.39
660.29	1941.47
660.48	1804.87
660.67	2057.18
660.87	1861.19
661.06	1982.84
661.26	1978.13
661.45	1977.93
661.65	1956.22
661.84	1882.70
662.03	1840.30
662.23	1849.73
662.42	2153.85
662.62	1757.16
662.81	1760.43
663.00	1827.20
663.20	1922.02
663.39	1947.41
663.59	1944.96
663.78	1806.10
663.97	1831.29
664.17	1995.34
664.36	1726.85
664.56	1789.11
664.75	1987.55
664.94	1967.28
665.14	1885.97
665.33	1894.58
665.53	1948.23
665.72	1937.38
665.91	2026.26
666.11	1915.47
666.30	1957.24
666.50	1889.66
666.69	1941.47
666.88	1887.61
667.08	1931.44
667.27	1873.48
667.47	1891.91
667.66	1848.09
667.85	2013.56
668.05	1902.56
668.24	1812.25
668.43	1988.17
668.63	1840.71
668.82	2034.04
669.02	1944.96
669.21	1866.31
669.40	1776.82
669.60	2161.84
669.79	1754.09
669.98	2344.51
670.18	1785.21
670.37	1757.16
670.56	1838.46
670.76	1900.72
670.95	1907.48
671.15	2004.55
671.34	1948.03
671.53	1919.77
671.73	1852.39
671.92	1870.00
672.11	1803.03
672.31	1857.30
672.50	1942.50
672.69	1772.31
672.89	1665.41
673.08	1833.96
673.27	1986.32
673.47	1916.90
673.66	1921.81
673.85	1772.31
674.05	1999.64
674.24	2163.47
674.43	2154.05
674.63	2454.90
674.82	2796.71
675.01	2270.58
675.21	2476.61
675.40	2291.88
675.59	2207.51
675.79	2442.61
675.98	2132.14
676.17	2250.51
676.37	2203.00
676.56	2052.06
676.75	2070.09
676.95	1988.17
677.14	1951.92
677.33	2086.68
677.52	1835.59
677.72	1866.11
677.91	1935.33
678.10	1752.65
678.30	1803.85
678.49	1745.89
678.68	2168.59
678.88	1693.26
679.07	1982.64
679.26	1840.51
679.45	2137.46
679.65	2033.84
679.84	1696.54
680.03	1724.59
680.23	1875.12
680.42	2203.20
680.61	1766.58
680.81	1823.31
681.00	1890.48
681.19	1952.94
681.38	1998.82
681.58	1965.64
681.77	1880.44
681.96	2038.96
682.15	1849.52
682.35	1920.99
682.54	1974.04
682.73	1773.54
682.93	1816.34
683.12	1793.20
683.31	1995.95
683.50	2241.71
683.70	1804.06
683.89	1923.45
684.08	1762.48
684.27	2011.72
684.47	1726.44
684.66	1897.65
684.85	2134.39
685.04	2042.03
685.24	1795.25
685.43	1862.22
685.62	1679.74
685.81	1953.35
686.01	2009.88
686.20	2024.42
686.39	2050.84
686.58	2477.43
686.78	2303.56
686.97	2261.37
687.16	2286.35
687.35	2197.68
687.55	2080.53
687.74	2089.75
687.93	1978.75
688.12	2079.10
688.32	2075.21
688.51	1844.81
688.70	2053.29
688.89	1840.71
689.08	1787.67
689.28	1851.36
689.47	1941.47
689.66	1926.32
689.85	1973.63
690.05	1837.64
690.24	1829.45
690.43	1945.98
690.62	1917.51
690.81	1799.35
691.01	1889.25
691.20	1859.35
691.39	1770.67
691.58	1923.04
691.77	2119.65
691.97	1897.24
692.16	1918.33
692.35	1853.82
692.54	1838.67
692.73	2034.04
692.93	2005.17
693.12	2068.04
693.31	2099.37
693.50	2080.33
693.69	2094.66
693.89	1927.96
694.08	2134.60
694.27	2170.85
694.46	1896.21
694.65	1983.46
694.85	2068.86
695.04	2033.43
695.23	1989.81
695.42	2335.71
695.61	2536.61
695.80	2761.48
696.00	2962.80
696.19	3040.62
696.38	2685.91
696.57	2568.77
696.76	2538.05
696.95	2404.52
697.15	2543.58
697.34	2445.48
697.53	2170.03
697.72	2153.85
697.91	2093.43
698.10	2256.25
698.30	1948.85
698.49	1926.32
698.68	1997.38
698.87	1892.94
699.06	1803.24
699.25	1900.31
699.45	2045.72
699.64	1920.38
699.83	1986.53
700.02	1785.21
700.21	1947.82
700.40	1854.64
700.59	1854.03
700.79	1830.47
700.98	1972.60
701.17	1774.77
701.36	1818.39
701.55	1809.99
701.74	2084.63
701.93	1967.28
702.12	2225.53
702.32	2221.02
702.51	2500.98
702.70	2523.10
702.89	2347.59
703.08	2153.64
703.27	2354.75
703.46	2244.57
703.65	2104.90
703.85	1998.20
704.04	2013.97
704.23	2199.11
704.42	1908.50
704.61	1918.33
704.80	2170.23
704.99	1845.83
705.18	1950.08
705.37	1903.79
705.57	2181.91
705.76	2603.58
705.95	2609.11
706.14	3009.49
706.33	3203.43
706.52	3322.21
706.71	2782.37
706.90	2529.45
707.09	2608.91
707.28	2479.48
707.47	2261.37
707.67	2344.51
707.86	2176.99
708.05	2315.84
708.24	2133.78
708.43	2060.46
708.62	1956.22
708.81	1864.68
709.00	1806.51
709.19	1813.07
709.38	2052.06
709.57	1809.18
709.76	1964.41
709.96	1897.44
710.15	2164.29
710.34	1993.70
710.53	2035.27
710.72	1950.69
710.91	2083.60
711.10	2008.03
711.29	2004.35
711.48	1854.44
711.67	1809.18
711.86	1995.95
712.05	1840.92
712.24	1875.32
712.43	2038.14
712.62	2093.64
712.81	1944.34
713.00	2057.59
713.19	1764.12
713.39	1983.25
713.58	1784.19
713.77	1900.31
713.96	1995.13
714.15	1918.74
714.34	1905.43
714.53	1800.57
714.72	2198.08
714.91	1856.28
715.10	1955.20
715.29	1839.90
715.48	2343.08
715.67	2083.40
715.86	1941.88
716.05	1941.47
716.24	1916.49
716.43	1850.13
716.62	1789.52
716.81	1780.91
717.00	1878.81
717.19	2127.84
717.38	1949.05
717.57	1869.39
717.76	1734.02
717.95	2008.65
718.14	1885.77
718.33	1835.39
718.52	1709.85
718.71	1712.51
718.90	1747.12
719.09	1815.93
719.28	1868.77
719.47	2015.61
719.66	2031.79
719.85	2032.61
720.04	1994.11
720.23	2037.93
720.42	1943.32
720.61	2046.13
720.80	1818.60
720.99	2004.35
721.18	1897.44
721.37	1840.92
721.56	1879.63
721.75	2016.23
721.94	1821.67
722.13	1897.24
722.32	1885.16
722.51	2017.86
722.70	1876.35
722.89	1920.59
723.08	1859.15
723.27	2009.06
723.46	1920.18
723.65	1813.27
723.84	1834.16
724.03	2056.78
724.22	1755.93
724.41	1924.68
724.60	1870.61
724.79	2003.53
724.98	1915.47
725.16	1814.09
725.35	1957.04
725.54	1770.06
725.73	1879.01
725.92	1901.54
726.11	1943.73
726.30	2122.72
726.49	1949.67
726.68	2066.61
726.87	2149.14
727.06	2276.93
727.25	1982.84
727.44	2110.84
727.63	2044.28
727.82	1997.18
728.01	2010.49
728.20	2041.42
728.38	2150.78
728.57	1960.73
728.76	1942.91
728.95	2022.78
729.14	1763.10
729.33	1773.34
729.52	1695.31
729.71	1799.96
729.90	1794.84
730.09	1855.46
730.28	1912.39
730.47	1900.31
730.66	2146.27
730.84	2048.38
731.03	1982.64
731.22	2017.45
731.41	1995.13
731.60	2011.72
731.79	1759.82
731.98	1869.80
732.17	1998.82
732.36	1986.32
732.55	1857.51
732.73	1769.85
732.92	2058.41
733.11	1929.19
733.30	1817.37
733.49	1753.06
733.68	1969.94
733.87	1934.51
734.06	1848.91
734.25	1937.38
734.43	2031.38
734.62	2184.57
734.81	2184.57
735.00	2144.02
735.19	2133.16
735.38	2144.84
735.57	1918.54
735.76	2083.60
735.94	2183.34
736.13	2607.06
736.32	2561.39
736.51	2591.29
736.70	2929.00
736.89	2956.45
737.08	2810.22
737.27	2986.35
737.45	3538.07
737.64	3543.60
737.83	3870.25
738.02	3904.25
738.21	3880.08
738.40	3510.83
738.59	3108.20
738.77	3038.78
738.96	2835.00
739.15	2753.49
739.34	2704.34
739.53	2508.76
739.72	2561.80
739.90	2456.54
740.09	2148.73
740.28	2150.78
740.47	2201.16
740.66	2104.90
740.85	1897.03
741.03	1945.78
741.22	1830.47
741.41	1925.30
741.60	1783.78
741.79	1978.54
741.98	2110.64
742.16	2218.56
742.35	2018.68
742.54	2003.94
742.73	2322.40
742.92	2039.78
743.10	1964.41
743.29	2027.08
743.48	2360.49
743.67	1964.21
743.86	1845.83
744.05	1857.10
744.23	1872.87
744.42	1876.55
744.61	1939.43
744.80	1798.94
744.99	1839.28
745.17	1732.99
745.36	1751.63
745.55	1949.87
745.74	1870.61
745.93	1801.80
746.11	1816.55
746.30	1810.40
746.49	2031.58
746.68	1756.34
746.86	1851.36
747.05	1843.58
747.24	1966.66
747.43	2013.36
747.62	1788.70
747.80	1857.71
747.99	2109.00
748.18	2054.11
748.37	1977.11
748.56	1981.20
748.74	2073.36
748.93	1980.59
749.12	2142.99
749.31	2559.55
749.49	2882.52
749.68	3169.44
749.87	3436.29
750.06	3397.17
750.24	3507.35
750.43	3630.23
750.62	3917.15
750.81	4100.65
750.99	4319.17
751.18	4361.35
751.37	3746.55
751.56	3484.82
751.74	3649.69
751.93	3585.38
752.12	2896.24
752.31	2708.85
752.49	2640.45
752.68	2753.29
752.87	2433.40
753.06	2287.79
753.24	2182.32
753.43	2291.06
753.62	2033.22
753.81	1926.93
753.99	2168.39
754.18	2037.52
754.37	1808.56
754.55	1954.38
754.74	2118.42
754.93	1690.60
755.12	1835.59
755.30	1809.79
755.49	2019.50
755.68	1925.50
755.86	1922.02
756.05	1770.67
756.24	2053.50
756.43	1753.47
756.61	1760.43
756.80	1913.42
756.99	2055.55
757.17	1886.38
757.36	1779.28
757.55	1863.04
757.74	1953.76
757.92	1889.87
758.11	1735.86
758.30	1686.71
758.48	1853.62
758.67	1741.18
758.86	1881.26
759.04	1750.40
759.23	1847.27
759.42	1899.29
759.60	1812.86
759.79	1904.41
759.98	1834.16
760.16	1779.68
760.35	1768.63
760.54	1718.45
760.73	1929.60
760.91	1712.72
761.10	1894.99
761.29	1911.37
761.47	1876.14
761.66	2147.91
761.85	1921.40
762.03	2018.68
762.22	2468.83
762.41	3855.30
762.59	5414.01
762.78	6142.47
762.97	7303.67
763.15	7698.93
763.34	7094.37
763.52	5579.49
763.71	5302.40
763.90	5112.34
764.08	4701.32
764.27	4484.85
764.46	4339.65
764.64	3881.11
764.83	3593.98
765.02	3368.09
765.20	3093.46
765.39	2861.22
765.58	2369.30
765.76	2316.05
765.95	2214.88
766.13	2087.08
766.32	1964.21
766.51	1984.28
766.69	2523.10
766.88	1967.07
767.07	1814.91
767.25	1708.42
767.44	2056.37
767.62	2041.82
767.81	1838.05
768.00	1883.52
768.18	1885.16
768.37	1830.68
768.56	1759.00
768.74	1800.57
768.93	1765.14
769.11	1943.32
769.30	1900.92
769.49	1806.72
769.67	1874.71
769.86	1831.50
770.04	1852.59
770.23	1837.23
770.42	2060.05
770.60	1910.35
770.79	1763.71
770.97	1838.05
771.16	2220.61
771.35	2487.26
771.53	2835.82
771.72	3082.60
771.90	3462.30
772.09	3662.79
772.27	3399.83
772.46	2837.67
772.65	2982.46
772.83	2812.07
773.02	2763.73
773.20	2500.57
773.39	2609.32
773.58	2511.22
773.76	2224.09
773.95	2228.60
774.13	2270.58
774.32	2105.52
774.50	1925.09
774.69	1991.44
774.87	1886.59
775.06	2195.83
775.25	1796.27
775.43	1916.28
775.62	1911.16
775.80	1972.60
775.99	1943.11
776.17	1782.35
776.36	1891.09
776.54	2024.21
776.73	1782.55
776.92	1885.97
777.10	1993.70
777.29	1913.42
777.47	1760.43
777.66	1843.99
777.84	1903.38
778.03	1859.15
778.21	1775.59
778.40	1851.77
778.58	1950.49
778.77	2024.42
778.95	1739.95
779.14	1790.74
779.32	2106.75
779.51	2018.27
779.70	1814.09
779.88	1740.77
780.07	1850.54
780.25	2216.31
780.44	1847.27
780.62	1994.93
780.81	1983.66
780.99	1932.87
781.18	1803.65
781.36	1835.80
781.55	1890.28
781.73	2090.36
781.92	1765.96
782.10	1751.42
782.29	1933.69
782.47	2073.77
782.66	1854.03
782.84	1707.19
783.03	1795.25
783.21	2059.03
783.40	1847.68
783.58	1808.97
783.77	1839.08
783.95	1825.56
784.14	1749.78
784.32	1863.65
784.51	2054.73
784.69	1817.57
784.88	1737.09
785.06	1888.23
785.24	1741.80
785.43	2010.49
785.61	1958.47
785.80	1768.01
785.98	1980.59
786.17	1964.82
786.35	1795.45
786.54	1939.02
786.72	2011.72
786.91	2033.84
787.09	1858.12
787.28	1756.75
787.46	1887.41
787.65	1999.64
787.83	1760.84
788.01	1872.05
788.20	1785.62
788.38	1920.18
788.57	1846.04
788.75	1887.00
788.94	2146.07
789.12	2057.59
789.31	1912.60
789.49	1964.62
789.67	1840.71
789.86	1960.52
790.04	1793.00
790.23	1734.83
790.41	2170.44
790.60	1894.99
790.78	1873.28
790.96	1872.05
791.15	2019.91
791.33	1906.66
791.52	1881.26
791.70	1792.59
791.89	1935.54
792.07	2001.28
792.25	1881.88
792.44	1752.86
792.62	2023.19
792.81	1827.81
792.99	1882.90
793.17	1813.07
793.36	1768.83
793.54	2188.66
793.73	2327.11
793.91	2511.83
794.10	2917.74
794.28	3189.92
794.46	3079.33
794.65	3050.24
794.83	2660.31
795.01	2625.91
795.20	2729.53
795.38	2488.69
795.57	2528.22
795.75	2472.92
795.93	2306.63
796.12	2292.50
796.30	2290.04
796.49	2250.10
796.67	2012.54
796.85	2112.07
797.04	2032.81
797.22	2037.11
797.40	1780.91
797.59	1930.21
797.77	1937.58
797.96	1826.17
798.14	1798.94
798.32	1817.57
798.51	1961.54
798.69	2137.87
798.87	1881.06
799.06	1842.35
799.24	1742.62
799.42	2099.78
799.61	2189.07
799.79	2331.20
799.98	2707.01
800.16	2609.93
800.34	3015.22
800.53	3468.24
800.71	3613.44
800.89	4176.01
801.08	4159.63
801.26	4161.47
801.44	3678.77
801.63	3243.16
801.81	3185.00
801.99	3046.35
802.18	2928.60
802.36	2869.20
802.54	2778.27
802.73	2469.03
802.91	2480.29
803.09	2421.93
803.28	2347.59
803.46	2246.42
803.64	2328.75
803.83	1940.04
804.01	1905.02
804.19	1835.59
804.38	2079.30
804.56	2035.07
804.74	1908.50
804.92	1911.78
805.11	1805.28
805.29	2070.70
805.47	1875.94
805.66	1762.89
805.84	1779.68
806.02	2020.73
806.21	1850.75
806.39	2029.74
806.57	2024.62
806.76	2020.94
806.94	1928.78
807.12	1827.40
807.30	1841.53
807.49	1937.17
807.67	1946.59
807.85	2027.49
808.04	2045.31
808.22	2221.23
808.40	1783.99
808.58	1774.77
808.77	1999.02
808.95	2148.11
809.13	2079.30
809.31	2872.89
809.50	3535.41
809.68	3940.09
809.86	4029.79
810.05	4323.47
810.23	4898.54
810.41	5745.99
810.59	8648.16
810.78	10432.56
810.96	12001.10
811.14	12928.62
811.32	12476.84
811.51	10362.72
811.69	8587.75
811.87	8554.37
812.05	7595.71
812.24	7196.15
812.42	6762.80
812.60	6227.46
812.78	5351.55
812.97	4711.97
813.15	4600.76
813.33	4036.14
813.51	3673.24
813.70	3062.12
813.88	2757.59
814.06	2556.27
814.24	2344.31
814.42	2060.05
814.61	2108.79
814.79	2201.36
814.97	1826.38
815.15	1895.19
815.34	1945.57
815.52	2046.94
815.70	1787.26
815.88	1794.23
816.06	1796.07
816.25	1850.54
816.43	1798.94
816.61	1937.99
816.79	2090.36
816.98	1740.77
817.16	1814.91
817.34	1800.16
817.52	1980.80
817.70	2141.97
817.89	1887.82
818.07	1769.65
818.25	1886.18
818.43	1929.39
818.61	1847.68
818.80	1786.03
818.98	2120.88
819.16	1922.63
819.34	1767.60
819.52	2070.50
819.70	1782.35
819.89	1904.20
820.07	1743.44
820.25	1725.82
820.43	1915.06
820.61	1999.23
820.80	1873.07
820.98	1786.24
821.16	1680.56
821.34	1725.82
821.52	1836.41
821.70	1900.72
821.89	1882.49
822.07	1853.82
822.25	1839.08
822.43	1750.81
822.61	2061.49
822.79	1924.89
822.98	1836.82
823.16	1655.58
823.34	1922.22
823.52	2028.92
823.70	1940.66
823.88	1700.22
824.06	1948.44
824.25	1903.59
824.43	1949.26
824.61	1791.97
824.79	1926.32
824.97	1954.17
825.15	2061.49
825.33	2252.56
825.52	2497.91
825.70	2488.69
825.88	2563.85
826.06	2722.36
826.24	2741.21
826.42	2674.65
826.60	2433.40
826.78	2429.30
826.97	2286.35
827.15	2423.36
827.33	2134.80
827.51	2225.53
827.69	2075.00
827.87	2139.51
828.05	2093.02
828.23	1928.57
828.41	2140.54
828.60	2076.64
828.78	1778.66
828.96	1967.48
829.14	1874.51
829.32	1868.98
829.50	1828.43
829.68	1823.72
829.86	1831.70
830.04	1986.12
830.22	1920.99
830.41	1731.56
830.59	1880.44
830.77	1978.75
830.95	1789.52
831.13	1790.74
831.31	1788.90
831.49	2001.07
831.67	1974.04
831.85	1950.90
832.03	1812.66
832.21	1970.56
832.39	1754.29
832.57	1753.06
832.76	2030.77
832.94	1873.69
833.12	1703.91
833.30	1858.33
833.48	2041.01
833.66	1934.31
833.84	1790.33
834.02	1846.86
834.20	1984.69
834.38	1984.28
834.56	1690.19
834.74	1734.22
834.92	1739.95
835.10	2109.61
835.28	1886.18
835.46	1865.90
835.64	1891.91
835.82	1792.59
836.01	2057.59
836.19	1969.33
836.37	1842.56
836.55	1770.47
836.73	1777.23
836.91	1759.00
837.09	1955.20
837.27	2067.63
837.45	1724.59
837.63	1764.53
837.81	1761.46
837.99	1903.59
838.17	1868.98
838.35	1801.39
838.53	2242.32
838.71	2004.96
838.89	1872.87
839.07	1851.36
839.25	1970.15
839.43	2058.41
839.61	1988.37
839.79	2565.08
839.97	2995.77
840.15	3322.21
840.33	3442.64
840.51	3744.71
840.69	3539.09
840.87	3136.46
841.05	3014.61
841.23	3010.10
841.41	3530.08
841.59	4547.92
841.77	4902.63
841.95	5205.32
842.13	5656.08
842.31	5306.49
842.49	4539.94
842.67	4165.98
842.85	4111.09
843.03	3608.93
843.21	3523.74
843.39	3462.91
843.57	3245.21
843.75	3056.59
843.93	2815.75
844.11	2638.40
844.29	2559.96
844.47	2414.56
844.65	2469.03
844.83	2198.90
845.01	2147.91
845.19	2195.42
845.36	1983.05
845.54	2029.33
845.72	1939.43
845.90	2023.19
846.08	1772.72
846.26	1870.82
846.44	1973.63
846.62	1951.71
846.80	1901.54
846.98	1783.99
847.16	1863.86
847.34	1914.85
847.52	1737.50
847.70	1719.68
847.88	1851.16
848.06	2089.34
848.24	1907.89
848.41	1703.30
848.59	2013.15
848.77	1928.57
848.95	1826.17
849.13	1785.42
849.31	1977.93
849.49	1924.89
849.67	1772.52
849.85	1721.73
850.03	1923.86
850.21	1935.54
850.39	1784.80
850.57	1923.86
850.74	2083.60
850.92	2085.24
851.10	2038.34
851.28	2162.45
851.46	2357.83
851.64	2677.51
851.82	2460.22
852.00	2492.79
852.18	2541.32
852.36	2358.85
852.53	2174.33
852.71	2259.93
852.89	2229.42
853.07	2215.90
853.25	2026.47
853.43	1927.34
853.61	2048.99
853.79	2080.33
853.97	1899.08
854.14	1857.30
854.32	2107.97
854.50	2002.91
854.68	1845.02
854.86	1859.76
855.04	1833.34
855.22	2001.48
855.40	1726.03
855.57	1820.44
855.75	1998.00
855.93	1949.26
856.11	1693.67
856.29	1774.36
856.47	1807.74
856.65	1910.75
856.82	1760.43
857.00	1724.18
857.18	1866.52
857.36	1840.30
857.54	1837.03
857.72	1946.18
857.89	1958.06
858.07	1898.26
858.25	1975.88
858.43	1738.32
858.61	1843.79
858.79	1877.78
858.97	1764.94
859.14	1885.97
859.32	1865.90
859.50	1847.88
859.68	1907.27
859.86	1803.24
860.03	1919.77
860.21	1972.40
860.39	1791.36
860.57	1907.68
860.75	1945.98
860.93	2125.38
861.10	2014.38
861.28	1800.16
861.46	1933.49
861.64	1970.15
861.82	1830.68
861.99	1934.72
862.17	2022.16
862.35	2004.35
862.53	1856.89
862.71	1862.83
862.88	1907.27
863.06	1964.62
863.24	1798.94
863.42	1759.00
863.60	1851.16
863.77	1920.18
863.95	1671.96
864.13	1858.33
864.31	1859.76
864.49	1975.88
864.66	1721.93
864.84	1813.89
865.02	1912.39
865.20	2249.49
865.37	1878.81
865.55	1806.72
865.73	1757.98
865.91	2017.25
866.09	1985.10
866.26	1942.91
866.44	2063.53
866.62	1966.05
866.80	1810.40
866.97	1910.14
867.15	1923.45
867.33	1953.76
867.51	1947.00
867.68	1894.17
867.86	1848.91
868.04	1858.74
868.22	1695.92
868.39	1823.51
868.57	1932.05
868.75	2075.00
868.93	1729.10
869.10	1802.62
869.28	2102.04
869.46	2061.69
869.64	1838.67
869.81	1844.61
869.99	1898.88
870.17	1897.03
870.35	1778.05
870.52	1789.52
870.70	2004.96
870.88	1804.87
871.05	1760.43
871.23	1628.54
871.41	1867.75
871.59	1865.49
871.76	1805.49
871.94	1770.88
872.12	1902.77
872.29	1719.27
872.47	1789.11
872.65	1744.25
872.83	1905.84
873.00	2056.57
873.18	1826.58
873.36	1793.00
873.53	1960.52
873.71	1708.83
873.89	1775.38
874.06	1836.62
874.24	1935.74
874.42	2023.80
874.60	1948.64
874.77	1877.37
874.95	1796.07
875.13	2010.90
875.30	1805.90
875.48	1808.15
875.66	2078.07
875.83	1793.41
876.01	1826.38
876.19	1912.19
876.36	1735.24
876.54	1914.65
876.72	1758.18
876.89	1906.66
877.07	1985.10
877.25	1666.64
877.42	1856.69
877.60	1818.39
877.78	2100.81
877.95	1813.68
878.13	1798.32
878.31	1920.99
878.48	1986.53
878.66	1954.79
878.84	1776.20
879.01	1851.36
879.19	1917.92
879.37	1961.34
879.54	1805.49
879.72	1714.35
879.90	1683.23
880.07	1970.15
880.25	1577.35
880.42	1928.78
880.60	1915.06
880.78	1999.64
880.95	1809.38
881.13	1808.36
881.31	1872.05
881.48	1816.14
881.66	1768.63
881.83	1887.82
882.01	1779.28
882.19	1737.09
882.36	1849.11
882.54	1809.59
882.72	1967.69
882.89	1880.65
883.07	1744.66
883.24	1813.27
883.42	1988.78
883.60	1910.75
883.77	1751.42
883.95	1794.43
884.12	1988.17
884.30	1951.10
884.48	1979.16
884.65	1909.73
884.83	1985.71
885.00	1963.80
885.18	1763.71
885.36	1832.93
885.53	1979.57
885.71	2046.74
885.88	1751.63
886.06	1822.08
886.23	1971.78
886.41	1843.38
886.59	1819.62
886.76	1774.36
886.94	1936.56
887.11	2236.18
887.29	1833.75
887.47	1703.30
887.64	2020.12
887.82	2038.75
887.99	1683.02
888.17	1859.97
888.34	1829.25
888.52	1742.41
888.69	1842.56
888.87	1755.11
889.05	1830.06
889.22	1836.62
889.40	1766.58
889.57	1947.00
889.75	2103.67
889.92	1817.16
890.10	1729.51
890.27	1833.55
890.45	1811.84
890.62	1673.60
890.80	1732.17
890.98	1689.16
891.15	2054.93
891.33	1992.06
891.50	1793.00
891.68	1690.39
891.85	1961.34
892.03	1948.64
892.20	1799.75
892.38	1754.49
892.55	1951.51
892.73	1964.41
892.90	1726.23
893.08	1771.70
893.25	1800.37
893.43	1805.49
893.60	1926.73
893.78	1645.75
893.95	1914.65
894.13	1869.18
894.30	1786.03
894.48	1820.03
894.65	1981.82
894.83	1885.77
895.00	1664.18
895.18	1667.25
895.35	1999.02
895.53	1958.47
895.70	1717.84
895.88	1905.84
896.05	1943.11
896.23	1726.03
896.40	1795.04
896.58	1839.28
896.75	1978.34
896.93	2048.17
897.10	1806.31
897.28	1729.92
897.45	1894.78
897.63	1924.68
897.80	1934.92
897.98	1839.28
898.15	1914.44
898.33	1775.18
898.50	1855.05
898.67	1824.54
898.85	1851.77
899.02	1939.63
899.20	1993.90
899.37	1802.62
899.55	1883.11
899.72	2025.44
899.90	1763.30
900.07	1748.56
900.25	1919.77
900.42	2045.10
900.59	1774.56
900.77	1896.42
900.94	1950.90
901.12	1892.94
901.29	1772.93
901.47	1895.19
901.64	1925.30
901.82	1864.27
901.99	1626.50
902.16	1757.16
902.34	2006.80
902.51	1917.51
902.69	1798.53
902.86	1840.71
903.03	2331.82
903.21	1855.87
903.38	1845.02
903.56	1766.17
903.73	2018.07
903.91	1827.20
904.08	1719.06
904.25	1642.88
904.43	1761.87
904.60	1975.68
904.78	1805.28
904.95	1757.36
905.12	1832.93
905.30	2094.05
905.47	1922.84
905.65	1946.18
905.82	1880.04
905.99	1958.27
906.17	1897.03
906.34	1801.80
906.52	1799.75
906.69	2009.26
906.86	1987.96
907.04	1892.53
907.21	2033.63
907.38	2036.70
907.56	1805.90
907.73	1795.66
907.91	2090.57
908.08	2029.54
908.25	1789.92
908.43	1756.95
908.60	1953.56
908.77	1901.74
908.95	1786.24
909.12	1733.40
909.30	1945.57
909.47	1702.48
909.64	1816.55
909.82	1929.80
909.99	1837.64
910.16	1882.29
910.34	1773.75
910.51	1815.93
910.68	1902.56
910.86	1861.19
911.03	1736.27
911.20	1889.46
911.38	2323.83
911.55	2930.44
911.72	3139.74
911.90	3137.28
912.07	3452.26
912.24	3514.11
912.42	2902.18
912.59	2454.49
912.76	2581.67
912.94	2371.14
913.11	2165.11
913.28	2074.18
913.46	2008.65
913.63	2153.85
913.80	2261.78
913.98	1969.74
914.15	2134.80
914.32	2134.80
914.49	1995.75
914.67	1857.10
914.84	2031.99
915.01	2055.55
915.19	1934.92
915.36	1857.30
915.53	2059.23
915.71	1945.78
915.88	1909.94
916.05	1813.07
916.22	2027.49
916.40	1901.74
916.57	1764.33
916.74	1865.09
916.92	2072.54
917.09	1747.94
917.26	1778.87
917.43	1730.33
917.61	1857.71
917.78	1684.86
917.95	1645.54
918.13	1736.27
918.30	2155.90
918.47	1878.60
918.64	1760.64
918.82	1763.71
918.99	1889.05
919.16	2149.34
919.33	1870.21
919.51	1817.37
919.68	1888.84
919.85	2089.34
920.02	1718.04
920.20	1836.00
920.37	2073.98
920.54	1966.66
920.71	1751.22
920.89	1797.50
921.06	2109.82
921.23	1777.64
921.40	1778.87
921.58	1973.63
921.75	2438.93
921.92	2021.55
922.09	2096.92
922.27	2114.32
922.44	2104.49
922.61	2103.67
922.78	1934.10
922.96	1856.89
923.13	1904.20
923.30	2014.38
923.47	1738.11
923.64	1824.74
923.82	1968.10
923.99	1943.32
924.16	1905.63
924.33	1760.64
924.50	1914.03
924.68	2072.34
924.85	1742.21
925.02	1802.62
925.19	1967.48
925.36	1932.05
925.54	1869.59
925.71	1838.87
925.88	2277.34
926.05	1823.10
926.22	1747.12
926.40	1843.58
926.57	1906.04
926.74	1969.12
926.91	1764.12
927.08	1965.03
927.26	1997.59
927.43	1866.93
927.60	1759.61
927.77	1841.53
927.94	2103.06
928.11	2041.62
928.29	1712.31
928.46	1839.49
928.63	1777.64
928.80	1850.34
928.97	1899.90
929.14	1754.90
929.32	2155.49
929.49	1896.62
929.66	1761.46
929.83	1701.45
930.00	1806.72
930.17	1930.21
930.35	1717.43
930.52	1780.91
930.69	2070.70
930.86	1745.69
931.03	1881.47
931.20	1630.39
931.37	2003.53
931.55	1856.89
931.72	1868.16
931.89	1686.91
932.06	1744.25
932.23	2070.29
932.40	1887.20
932.57	1903.38
932.74	2023.80
932.92	2038.34
933.09	1937.17
933.26	1560.55
933.43	1791.97
933.60	1912.19
933.77	1815.52
933.94	1877.17
934.11	1845.42
934.29	1893.55
934.46	1710.67
934.63	1859.35
934.80	1721.11
934.97	1865.70
935.14	1782.14
935.31	1687.12
935.48	1777.02
935.65	1924.07
935.82	1857.92
936.00	1707.19
936.17	2089.54
936.34	1849.52
936.51	1887.82
936.68	1714.76
936.85	1907.07
937.02	1870.00
937.19	1878.40
937.36	1790.13
937.53	1914.85
937.70	1989.81
937.87	1817.78
938.05	1893.55
938.22	1886.59
938.39	1736.68
938.56	1808.77
938.73	1737.50
938.90	1847.88
939.07	1777.64
939.24	1828.02
939.41	1681.38
939.58	1924.27
939.75	1919.97
939.92	1766.37
940.09	1951.71
940.26	1832.93
940.43	1990.22
940.60	1785.83
940.77	1811.63
940.95	1932.05
941.12	1969.53
941.29	1763.92
941.46	1838.05
941.63	2071.11
941.80	2051.66
941.97	1710.87
942.14	1694.69
942.31	1950.28
942.48	1851.16
942.65	1872.46
942.82	1823.92
942.99	1921.61
943.16	1888.84
943.33	1728.28
943.50	1763.51
943.67	1989.40
943.84	1997.18
944.01	1793.20
944.18	1771.29
944.35	2043.46
944.52	1792.59
944.69	1857.10
944.86	1694.08
945.03	1973.01
945.20	2201.98
945.37	1677.70
945.54	1823.92
945.71	2044.08
945.88	2086.06
946.05	1736.27
946.22	1722.14
946.39	2042.44
946.56	1893.76
946.73	1699.61
946.90	1738.32
947.07	1845.63
947.24	1869.80
947.41	1683.02
947.58	1900.52
947.75	1978.13
947.92	1906.25
948.09	1577.14
948.26	1696.95
948.43	1892.94
948.60	2146.48
948.77	1768.42
948.94	1782.76
949.11	1965.03
949.27	1932.46
949.44	1732.17
949.61	1757.36
949.78	1918.33
949.95	2014.79
950.12	1725.82
950.29	1701.66
950.46	1802.42
950.63	2016.43
950.80	1765.96
950.97	1823.92
951.14	2013.15
951.31	1851.57
951.48	1767.81
951.65	1698.38
951.82	2116.17
951.99	1920.18
952.15	1675.85
952.32	1776.41
952.49	1801.39
952.66	1796.68
952.83	1729.51
953.00	1759.21
953.17	1830.06
953.34	1999.02
953.51	1814.71
953.68	1809.18
953.85	2008.24
954.02	2008.65
954.18	1796.07
954.35	1831.50
954.52	1799.35
954.69	1896.83
954.86	1659.26
955.03	1815.73
955.20	1948.23
955.37	1857.71
955.54	1755.11
955.71	1778.46
955.87	1924.27
956.04	2117.39
956.21	1790.54
956.38	1747.33
956.55	1887.82
956.72	2214.26
956.89	1796.27
957.06	1727.26
957.23	1779.07
957.39	2038.14
957.56	1791.36
957.73	1718.66
957.90	1618.30
958.07	2106.95
958.24	1809.38
958.41	1770.47
958.57	1962.16
958.74	1884.54
958.91	1736.06
959.08	1753.27
959.25	1951.10
959.42	1866.93
959.59	1818.39
959.75	1762.07
959.92	2020.53
960.09	2005.37
960.26	1751.01
960.43	1857.71
960.60	1923.86
960.76	1843.38
960.93	1681.79
961.10	1816.34
961.27	1975.06
961.44	1833.55
961.61	1696.95
961.77	1702.48
961.94	1913.01
962.11	1985.51
962.28	1766.78
962.45	1706.98
962.62	1849.32
962.78	2007.01
962.95	1716.20
963.12	1765.14
963.29	1932.26
963.46	2234.95
963.62	1859.76
963.79	1771.70
963.96	2178.01
964.13	1840.92
964.30	1855.46
964.46	1767.40
964.63	1734.22
964.80	2203.61
964.97	1643.49
965.14	1900.11
965.30	1967.28
965.47	2049.40
965.64	1958.06
965.81	1924.89
965.98	2148.93
966.14	1966.66
966.31	1814.09
966.48	1814.09
966.65	2031.99
966.81	1944.96
966.98	1799.14
967.15	1833.55
967.32	1892.73
967.49	1803.24
967.65	1671.35
967.82	1632.23
967.99	1859.35
968.16	1695.31
968.32	1947.00
968.49	1770.26
968.66	1852.18
968.83	2098.76
968.99	1858.33
969.16	1726.23
969.33	2060.87
969.50	1959.91
969.66	1865.70
969.83	1980.18
970.00	1971.37
970.17	1958.47
970.33	1792.59
970.50	1705.55
970.67	2075.41
970.84	2029.95
971.00	1713.74
971.17	1707.19
971.34	1959.09
971.50	1880.44
971.67	1883.11
971.84	1825.15
972.01	1736.88
972.17	1652.10
972.34	1713.74
972.51	1864.88
972.67	2019.50
972.84	1903.38
973.01	1726.23
973.18	1759.41
973.34	1988.17
973.51	1779.68
973.68	1772.93
973.84	1805.08
974.01	1828.22
974.18	2065.79
974.34	1838.67
974.51	1854.03
974.68	1783.17
974.85	2097.94
975.01	1900.92
975.18	1802.62
975.35	1870.00
975.51	1754.90
975.68	1669.91
975.85	1925.71
976.01	1823.51
976.18	2056.57
976.35	1806.92
976.51	1759.61
976.68	2061.89
976.85	2013.15
977.01	1804.26
977.18	1874.92
977.35	1936.97
977.51	1769.65
977.68	1615.44
977.85	1705.55
978.01	1990.63
978.18	1951.92
978.35	1808.77
978.51	1809.38
978.68	2013.97
978.85	2101.42
979.01	1761.46
979.18	1822.49
979.34	1843.38
979.51	1888.84
979.68	1746.51
979.84	1824.33
980.01	2205.87
980.18	1888.02
980.34	1755.11
980.51	1863.04
980.67	1971.58
980.84	1981.61
981.01	1814.50
981.17	1848.50
981.34	1681.79
981.51	1983.05
981.67	1725.41
981.84	1881.67
982.00	1933.90
982.17	1858.33
982.34	1664.59
982.50	1603.56
982.67	2065.58
982.83	1812.25
983.00	1697.77
983.17	1597.42
983.33	2008.03
983.50	1697.36
983.66	1693.47
983.83	1598.44
984.00	1839.90
984.16	1876.14
984.33	1600.69
984.49	1623.83
984.66	1775.59
984.83	1988.37
984.99	1657.83
985.16	1596.60
985.32	1949.05
985.49	1967.28
985.65	1730.94
985.82	1607.25
985.99	2064.56
986.15	1895.80
986.32	1714.76
986.48	1666.23
986.65	1807.13
986.81	1967.07
986.98	1616.67
987.14	1680.97
987.31	1882.90
987.48	1706.78
987.64	1586.15
987.81	1588.40
987.97	2141.36
988.14	1773.34
988.30	1643.49
988.47	1523.69
988.63	1919.56
988.80	1752.86
988.96	1687.73
989.13	1723.37
989.30	1857.10
989.46	2010.49
989.63	1557.48
989.79	1580.01
989.96	1855.66
990.12	2047.15
990.29	1644.11
990.45	1690.39
990.62	1860.99
990.78	2027.69
990.95	1751.63
991.11	1631.21
991.28	1797.30
991.44	1913.62
991.61	1545.60
991.77	1689.16
991.94	1894.99
992.10	2013.36
992.27	1713.13
992.43	1669.09
992.60	1914.85
992.76	1809.18
992.93	1787.06
993.09	1594.14
993.26	2011.11
993.42	2076.03
993.59	1638.78
993.75	1574.48
993.92	1786.65
994.08	1766.37
994.25	1701.45
994.41	1613.59
994.58	1944.55
994.74	2046.13
994.91	1607.86
995.07	1735.24
995.24	1854.23
995.40	1848.70
995.56	1766.17
995.73	1744.05
995.89	2094.05
996.06	1866.11
996.22	1620.97
996.39	1582.26
996.55	1856.28
996.72	1903.18
996.88	1566.49
997.05	1638.37
997.21	2104.08
997.37	1944.34
997.54	1705.96
997.70	1665.61
997.87	1902.56
998.03	1873.89
998.20	1566.08
998.36	1572.02
998.52	1952.33
998.69	1975.27
998.85	1581.03
999.02	1681.38
999.18	2002.50
999.35	1974.86
999.51	1652.30
999.67	1659.88
999.84	1747.53
1000.00	1953.76
1000.17	1744.05
1000.33	1607.86
1000.49	1799.96
1000.66	1835.39
1000.82	1647.80
1000.99	1702.48
1001.15	2016.84
1001.31	1861.40
1001.48	1674.01
1001.64	1711.28
1001.81	1832.52
1001.97	2125.38
1002.13	1642.68
1002.30	1669.09
1002.46	2043.05
1002.63	1846.04
1002.79	1724.59
1002.95	1624.86
1003.12	1978.13
1003.28	1923.86
1003.45	1633.87
1003.61	1618.10
1003.77	1882.70
1003.94	1728.69
1004.10	1677.49
1004.26	1708.62
1004.43	1925.91
1004.59	2080.12
1004.75	1648.00
1004.92	1606.02
1005.08	1810.61
1005.25	1934.92
1005.41	1642.27
1005.57	1697.77
1005.74	2013.77
1005.90	1825.97
1006.06	1739.14
1006.23	1653.94
1006.39	1967.07
1006.55	2218.15
1006.72	1774.97
1006.88	1613.59
1007.04	1783.99
1007.21	1848.09
1007.37	1693.67
1007.53	1650.05
1007.70	2071.32
1007.86	1967.89
1008.02	1715.38
1008.19	1603.76
1008.35	1921.40
1008.51	1769.24
1008.68	1648.21
1008.84	1576.73
1009.00	1770.88
1009.17	1987.14
1009.33	1792.18
1009.49	1745.07
1009.65	1781.12
1009.82	1908.30
1009.98	1706.16
1010.14	1550.72
1010.31	1967.69
1010.47	1952.33
1010.63	1721.32
1010.80	1692.65
1010.96	1933.69
1011.12	1842.15
1011.28	1652.30
1011.45	1624.45
1011.61	2225.73
1011.77	1750.40
1011.94	1629.98
1012.10	1607.66
1012.26	1742.82
1012.42	1840.10
1012.59	1684.04
1012.75	1685.89
1012.91	1857.92
1013.07	1980.59
1013.24	1601.10
1013.40	1645.34
1013.56	1877.58
1013.72	1831.29
1013.89	1733.61
1014.05	1719.88
1014.21	2116.78
1014.37	2180.88
1014.54	1715.79
1014.70	1609.70
1014.86	1831.91
1015.02	1747.12
1015.19	1652.51
1015.35	1593.32
1015.51	1856.89
1015.67	1843.17
1015.84	1642.27
1016.00	1624.04
1016.16	2001.89
1016.32	1978.54
1016.49	1648.61
1016.65	1607.45
1016.81	1874.51
1016.97	1945.78
1017.14	1776.82
1017.30	1648.21
1017.46	1822.49
1017.62	1894.17
1017.78	1696.74
1017.95	1629.98
1018.11	1950.69
1018.27	2162.86
1018.43	1754.90
1018.59	1720.70
1018.76	1966.05
1018.92	2201.36
1019.08	1615.03
1019.24	1654.55
1019.40	2029.13
1019.57	1923.66
1019.73	1748.76
1019.89	1677.49
1020.05	1893.55
1020.21	2131.32
1020.38	1647.18
1020.54	1799.55
1020.70	1938.61
1020.86	1958.27
1021.02	1672.99
1021.18	1630.59
1021.35	1811.84
1021.51	1917.72
1021.67	1779.68
1021.83	1658.85
1021.99	1867.75
1022.15	1914.65
1022.32	1746.30
1022.48	1720.29
1022.64	2040.60
1022.80	2089.34
1022.96	1687.73
1023.12	1608.07
1023.29	1982.23
1023.45	1936.97
1023.61	1634.07
1023.77	1804.06
1023.93	1908.71
1024.09	1789.72
1024.25	1624.04
1024.42	1573.86
1024.58	1806.92
1024.74	1902.56
1024.90	1667.46
1025.06	1703.71
1025.22	1799.55
1025.38	2082.58
1025.54	1585.13
1025.71	1731.35
1025.87	1952.94
1026.03	1916.90
1026.19	1631.62
1026.35	1770.67
1026.51	1960.73
1026.67	1862.42
1026.83	1694.90
1026.99	1767.19
1027.16	1953.76
1027.32	1877.99
1027.48	1688.14
1027.64	1609.91
1027.80	1936.97
1027.96	1873.69
1028.12	1649.23
1028.28	1627.73
1028.44	1897.85
1028.60	2065.79
1028.77	1770.26
1028.93	1671.96
1029.09	1836.41
1029.25	1770.88
1029.41	1691.01
1029.57	1730.12
1029.73	1918.33
1029.89	2068.04
1030.05	1778.66
1030.21	1736.88
1030.37	2178.22
1030.53	1932.87
1030.69	1682.61
1030.85	1600.49
1031.02	1789.92
1031.18	1873.48
1031.34	1687.32
1031.50	1725.00
1031.66	1792.59
1031.82	2048.58
1031.98	1716.20
1032.14	1633.46
1032.30	1756.54
1032.46	1974.24
1032.62	1805.90
1032.78	1608.88
1032.94	1801.39
1033.10	1825.56
1033.26	1713.13
1033.42	1731.97
1033.58	2119.24
1033.74	1811.22
1033.90	1632.44
1034.06	1814.30
1034.22	2153.44
1034.38	2020.53
1034.54	1667.05
1034.70	1702.89
1034.86	2088.11
>>>>>End Processed Spectral Data<<<<<
