SpectraSuite Data File
++++++++++++++++++++++++++++++++++++
Date: Thu Mar 30 14:26:36 PDT 2017
User: UCSD _CER
Dark Spectrum Present: No
Reference Spectrum Present: No
Number of Sampled Component Spectra: 1
Spectrometers: USB4C00073
Integration Time (usec): 380000 (USB4C00073)
Spectra Averaged: 10 (USB4C00073)
Boxcar Smoothing: 0 (USB4C00073)
Correct for Electrical Dark: No (USB4C00073)
Strobe/Lamp Enabled: No (USB4C00073)
Correct for Detector Non-linearity: No (USB4C00073)
Correct for Stray Light: No (USB4C00073)
Number of Pixels in Processed Spectrum: 3648
>>>>>Begin Processed Spectral Data<<<<<
345.37	1250.49
345.58	1250.49
345.80	1250.49
346.01	1243.12
346.22	1230.62
346.43	2040.60
346.65	1916.69
346.86	2432.58
347.07	2375.03
347.28	1846.45
347.50	1821.87
347.71	2127.84
347.92	1871.43
348.13	1809.99
348.35	1801.19
348.56	2143.61
348.77	1943.52
348.98	1836.82
349.20	1669.09
349.41	2147.91
349.62	2290.45
349.83	1924.27
350.05	1808.15
350.26	2191.33
350.47	2366.43
350.68	1855.66
350.90	1751.22
351.11	2359.26
351.32	2352.50
351.53	1875.53
351.75	1781.53
351.96	2190.92
352.17	2117.60
352.38	1920.79
352.60	1917.72
352.81	2152.21
353.02	2423.57
353.23	1796.07
353.44	1820.64
353.66	2044.90
353.87	2060.67
354.08	1919.97
354.29	1840.30
354.51	2064.15
354.72	2148.11
354.93	1868.16
355.14	1901.13
355.35	1958.06
355.57	2365.40
355.78	1930.01
355.99	2013.36
356.20	2185.18
356.42	2176.99
356.63	1999.43
356.84	1880.44
357.05	2313.80
357.26	2539.48
357.48	1962.36
357.69	1884.13
357.90	2167.77
358.11	2054.11
358.32	1804.87
358.54	1885.36
358.75	2089.75
358.96	2235.36
359.17	1824.13
359.38	1880.65
359.60	2259.11
359.81	2118.21
360.02	1875.53
360.23	1829.04
360.44	2056.57
360.66	2331.41
360.87	1831.91
361.08	1801.80
361.29	2199.52
361.50	2131.73
361.72	1830.88
361.93	1897.44
362.14	2138.69
362.35	1898.06
362.56	2027.90
362.77	1769.85
362.99	2266.49
363.20	2159.58
363.41	1953.15
363.62	1736.68
363.83	2265.05
364.05	2303.96
364.26	1800.57
364.47	1848.09
364.68	2353.32
364.89	2038.75
365.10	1765.76
365.32	1897.65
365.53	1987.96
365.74	2053.29
365.95	1822.90
366.16	1697.77
366.37	2104.29
366.59	2094.66
366.80	1834.98
367.01	1745.69
367.22	2506.71
367.43	2648.43
367.64	1891.91
367.86	1837.23
368.07	2252.97
368.28	2337.14
368.49	1758.59
368.70	1906.04
368.91	2082.58
369.12	2137.06
369.34	1769.24
369.55	1752.86
369.76	2129.89
369.97	2059.03
370.18	1746.30
370.39	1786.03
370.60	1887.61
370.82	1952.94
371.03	1851.16
371.24	1789.31
371.45	2249.49
371.66	2194.60
371.87	1818.80
372.08	1820.85
372.30	1958.06
372.51	2295.57
372.72	1948.64
372.93	1812.04
373.14	2396.74
373.35	2006.19
373.56	1788.08
373.78	1856.28
373.99	2258.91
374.20	2627.34
374.41	1813.27
374.62	1828.63
374.83	2408.21
375.04	2052.27
375.25	1849.73
375.47	1872.05
375.68	2045.92
375.89	2263.01
376.10	1897.44
376.31	1925.50
376.52	2224.50
376.73	2195.42
376.94	1897.03
377.15	1811.02
377.37	2130.91
377.58	2091.59
377.79	1763.71
378.00	1789.72
378.21	2174.12
378.42	2249.28
378.63	1896.62
378.84	1941.47
379.05	2264.44
379.27	2156.10
379.48	1919.36
379.69	1792.38
379.90	2337.96
380.11	1800.98
380.32	1852.59
380.53	1948.03
380.74	2386.70
380.95	2125.18
381.16	1894.99
381.37	1890.68
381.59	2371.96
381.80	2250.51
382.01	1814.09
382.22	1772.93
382.43	2238.43
382.64	2189.07
382.85	1809.18
383.06	1957.45
383.27	2292.29
383.48	2117.80
383.69	1906.04
383.91	1815.32
384.12	2243.96
384.33	2195.63
384.54	1864.88
384.75	1743.44
384.96	2655.40
385.17	2276.11
385.38	1825.97
385.59	1812.25
385.80	2255.02
386.01	2383.22
386.22	1942.50
386.43	1836.62
386.64	2487.67
386.86	2108.79
387.07	1922.63
387.28	1727.87
387.49	2017.04
387.70	2354.14
387.91	1956.63
388.12	1836.41
388.33	2199.52
388.54	2073.16
388.75	1811.02
388.96	1948.85
389.17	2035.89
389.38	2082.17
389.59	1925.30
389.80	1976.49
390.01	2131.73
390.22	2048.79
390.43	1941.27
390.64	1707.39
390.86	2218.36
391.07	2289.63
391.28	1832.93
391.49	1906.25
391.70	1916.69
391.91	1971.17
392.12	1825.56
392.33	1916.90
392.54	2155.28
392.75	2102.04
392.96	1931.64
393.17	1836.00
393.38	2541.12
393.59	2361.51
393.80	1854.44
394.01	2063.53
394.22	2368.27
394.43	2783.19
394.64	2100.40
394.85	2247.85
395.06	2372.16
395.27	2308.27
395.48	1935.33
395.69	1763.71
395.90	2133.37
396.11	2138.69
396.32	1858.33
396.53	1965.23
396.74	2096.30
396.95	2281.03
397.16	1830.88
397.37	1728.69
397.58	2303.96
397.79	2145.25
398.00	1915.26
398.21	1874.51
398.42	2170.23
398.63	2513.68
398.84	1866.72
399.05	1807.74
399.26	2346.56
399.47	2189.48
399.68	1711.69
399.89	1796.68
400.10	1941.47
400.31	2067.22
400.52	1897.03
400.73	1813.89
400.94	1877.37
401.15	2175.35
401.36	1847.06
401.57	1895.80
401.78	2334.68
401.99	2309.49
402.20	1778.87
402.41	2003.12
402.62	2400.01
402.83	2076.85
403.04	1811.43
403.25	2075.21
403.46	2309.90
403.67	2685.30
403.88	2265.26
404.09	2244.78
404.30	2510.20
404.51	2417.83
404.72	2103.67
404.93	2202.39
405.14	2130.50
405.35	2129.27
405.56	1910.75
405.77	1797.30
405.98	2175.56
406.19	2095.69
406.40	1772.93
406.61	1823.31
406.82	1995.13
407.03	2525.96
407.24	1739.75
407.45	1859.56
407.66	2186.62
407.87	2266.49
408.08	1923.45
408.29	1944.96
408.49	2228.39
408.70	2115.14
408.91	1825.15
409.12	1977.31
409.33	1966.46
409.54	2403.29
409.75	1791.97
409.96	1882.70
410.17	2274.06
410.38	2097.53
410.59	1816.34
410.80	1959.91
411.01	2119.65
411.22	2108.18
411.43	1917.10
411.64	1813.68
411.85	1978.13
412.06	1961.34
412.27	1684.04
412.47	1795.04
412.68	2116.17
412.89	2168.59
413.10	1835.80
413.31	1787.06
413.52	2462.07
413.73	2467.60
413.94	1831.70
414.15	2039.16
414.36	2067.63
414.57	2058.41
414.78	2108.38
414.99	3132.37
415.19	4297.46
415.40	4672.24
415.61	4913.69
415.82	4701.11
416.03	4352.34
416.24	3670.98
416.45	2960.95
416.66	2374.41
416.87	2151.80
417.08	2400.42
417.29	2050.63
417.50	2281.44
417.70	2696.56
417.91	2716.02
418.12	2700.25
418.33	2922.04
418.54	3340.85
418.75	3645.38
418.96	3760.89
419.17	4741.46
419.38	6059.33
419.59	6168.89
419.79	5901.02
420.00	5522.96
420.21	5063.60
420.42	3756.38
420.63	2884.15
420.84	2462.48
421.05	2308.47
421.26	2169.41
421.47	1797.91
421.67	2221.23
421.88	1984.28
422.09	1919.15
422.30	2055.34
422.51	1832.52
422.72	2465.14
422.93	2245.60
423.14	1907.27
423.35	1766.17
423.55	1856.28
423.76	1988.99
423.97	1875.53
424.18	1807.74
424.39	2215.29
424.60	2466.98
424.81	2105.72
425.02	2499.55
425.22	2956.04
425.43	3025.87
425.64	3262.82
425.85	3421.54
426.06	3877.01
426.27	3767.03
426.48	3792.63
426.68	3730.99
426.89	3906.09
427.10	3910.80
427.31	2967.71
427.52	2441.59
427.73	2663.79
427.94	2429.10
428.14	2152.62
428.35	1936.76
428.56	2388.96
428.77	2288.81
428.98	2039.78
429.19	2482.34
429.40	2904.84
429.60	3103.49
429.81	3016.04
430.02	2886.00
430.23	2701.07
430.44	2631.23
430.65	2131.73
430.85	2024.42
431.06	2256.86
431.27	1880.24
431.48	1865.70
431.69	1926.73
431.90	2165.73
432.10	2136.85
432.31	2032.40
432.52	2441.59
432.73	3554.04
432.94	3691.26
433.15	3350.48
433.35	3186.02
433.56	3365.22
433.77	2935.97
433.98	2707.41
434.19	2490.74
434.40	2617.10
434.60	2433.81
434.81	2106.34
435.02	2061.69
435.23	2209.35
435.44	2089.34
435.64	1825.56
435.85	1856.28
436.06	2114.32
436.27	2070.50
436.48	1805.28
436.68	1839.08
436.89	2403.29
437.10	2224.71
437.31	1904.20
437.52	2002.09
437.73	2173.71
437.93	2137.67
438.14	1925.71
438.35	1747.53
438.56	2062.92
438.77	2099.99
438.97	2045.72
439.18	1834.16
439.39	2335.09
439.60	1896.62
439.80	1837.64
440.01	1853.00
440.22	2021.14
440.43	2233.72
440.64	1823.31
440.84	1906.45
441.05	1936.35
441.26	2640.86
441.47	1961.54
441.68	1864.88
441.88	2119.44
442.09	2054.93
442.30	1995.54
442.51	2004.14
442.71	2079.51
442.92	2163.88
443.13	1864.27
443.34	1831.70
443.55	1958.68
443.75	2237.82
443.96	1859.76
444.17	1800.57
444.38	2323.42
444.58	1980.80
444.79	1980.39
445.00	1954.38
445.21	2092.61
445.41	2100.19
445.62	1738.52
445.83	2023.80
446.04	2157.33
446.24	1910.14
446.45	1723.57
446.66	1880.24
446.87	2206.48
447.07	2051.86
447.28	2122.51
447.49	1901.54
447.70	2282.26
447.90	2328.75
448.11	1932.46
448.32	2015.61
448.53	2388.96
448.73	2398.17
448.94	1861.40
449.15	2034.45
449.36	2151.60
449.56	2208.12
449.77	1890.28
449.98	1822.90
450.19	2280.00
450.39	2466.57
450.60	2449.37
450.81	2452.03
451.02	2606.45
451.22	2751.24
451.43	2141.77
451.64	2188.05
451.84	2351.89
452.05	2637.78
452.26	2131.32
452.47	2056.16
452.67	2140.74
452.88	2435.85
453.09	1870.00
453.30	1866.93
453.50	2282.26
453.71	2397.97
453.92	1858.94
454.12	2020.53
454.33	2050.43
454.54	2107.56
454.75	1868.77
454.95	1866.72
455.16	2195.83
455.37	2270.17
455.57	1991.65
455.78	1919.56
455.99	2123.74
456.19	2156.92
456.40	1854.64
456.61	1907.27
456.82	2152.82
457.02	2260.75
457.23	1943.32
457.44	2059.85
457.64	2044.69
457.85	2303.56
458.06	2021.75
458.26	2150.37
458.47	2195.01
458.68	2382.20
458.89	2032.40
459.09	2242.12
459.30	2682.63
459.51	2334.48
459.71	1939.22
459.92	1930.42
460.13	2338.58
460.33	2558.94
460.54	1969.74
460.75	1953.97
460.95	1987.14
461.16	2206.28
461.37	1950.08
461.57	1915.87
461.78	2154.46
461.99	2022.78
462.19	2318.92
462.40	1995.75
462.61	2939.86
462.81	2451.42
463.02	1961.34
463.23	1961.75
463.43	2330.38
463.64	2154.05
463.85	3258.11
464.05	2026.87
464.26	2818.00
464.47	2471.28
464.67	2206.69
464.88	2078.89
465.09	2033.63
465.29	2229.01
465.50	2067.42
465.71	1962.77
465.91	2106.34
466.12	2139.72
466.33	1981.41
466.53	1879.83
466.74	2357.01
466.94	2093.02
467.15	1970.76
467.36	2118.01
467.56	1993.29
467.77	2203.20
467.98	1984.07
468.18	1898.26
468.39	2066.81
468.60	2488.08
468.80	1930.42
469.01	1880.85
469.21	2254.40
469.42	2515.52
469.63	2219.18
469.83	2168.18
470.04	2573.48
470.25	2714.58
470.45	2227.58
470.66	2048.17
470.86	2317.07
471.07	2202.59
471.28	2119.85
471.48	2099.58
471.69	2249.49
471.90	2788.10
472.10	1945.78
472.31	1921.81
472.51	2056.98
472.72	2031.99
472.93	1896.42
473.13	2033.84
473.34	2216.72
473.54	2134.80
473.75	1993.08
473.96	2160.81
474.16	2188.87
474.37	2336.12
474.57	2206.28
474.78	2111.05
474.99	2389.98
475.19	2350.25
475.40	2068.24
475.60	1934.51
475.81	2456.74
476.02	2235.36
476.22	2209.96
476.43	2311.34
476.63	2366.63
476.84	2632.46
477.05	1959.29
477.25	1955.20
477.46	2731.79
477.66	2195.63
477.87	1901.33
478.08	1947.00
478.28	2346.77
478.49	2155.69
478.69	1942.50
478.90	1943.32
479.10	2304.58
479.31	2515.32
479.52	2087.70
479.72	2101.83
479.93	2306.83
480.13	2119.44
480.34	1929.39
480.54	2000.05
480.75	2031.38
480.96	2376.67
481.16	1896.62
481.37	2021.35
481.57	2318.92
481.78	2232.70
481.98	2167.98
482.19	2046.54
482.40	2549.11
482.60	2328.34
482.81	2190.71
483.01	2049.40
483.22	2532.52
483.42	2455.10
483.63	2166.55
483.83	2054.11
484.04	2121.29
484.24	2336.73
484.45	2099.58
484.66	1888.02
484.86	2219.59
485.07	2046.54
485.27	2037.32
485.48	1970.56
485.68	2423.98
485.89	2085.86
486.09	2134.60
486.30	1987.14
486.50	2250.72
486.71	2313.18
486.91	2364.79
487.12	2419.47
487.33	2883.54
487.53	2922.66
487.74	2444.05
487.94	2491.35
488.15	2762.30
488.35	2877.40
488.56	2643.93
488.76	2564.67
488.97	2609.73
489.17	2617.92
489.38	2301.71
489.58	2160.20
489.79	2379.74
489.99	2334.27
490.20	2062.51
490.40	2167.57
490.61	2351.48
490.81	2140.33
491.02	2071.52
491.22	2100.81
491.43	2369.50
491.63	2261.16
491.84	2240.48
492.04	1950.69
492.25	2318.71
492.45	2146.48
492.66	1981.20
492.86	1905.43
493.07	2176.79
493.27	2585.15
493.48	1905.63
493.68	1999.43
493.89	2189.48
494.09	2331.20
494.30	2019.09
494.50	2252.97
494.71	2344.51
494.91	2152.82
495.12	2277.75
495.32	2358.03
495.53	2445.27
495.73	2095.69
495.94	2121.90
496.14	1890.07
496.35	2559.55
496.55	2142.58
496.76	1996.56
496.96	2076.03
497.17	2230.03
497.37	2318.71
497.58	2046.13
497.78	1959.50
497.98	2188.66
498.19	2260.34
498.39	2120.67
498.60	2170.85
498.80	2046.74
499.01	2404.72
499.21	1928.16
499.42	2058.62
499.62	2154.87
499.83	2599.08
500.03	1952.12
500.24	2119.24
500.44	2430.53
500.64	2370.11
500.85	1975.27
501.05	2093.84
501.26	1950.49
501.46	2402.47
501.67	1959.29
501.87	1905.84
502.08	2033.02
502.28	2115.35
502.48	2124.97
502.69	2200.75
502.89	2092.61
503.10	2228.19
503.30	2204.43
503.51	2142.38
503.71	2027.90
503.92	2388.14
504.12	2277.75
504.32	2222.87
504.53	2648.43
504.73	2687.34
504.94	2519.21
505.14	2788.31
505.35	2941.50
505.55	2932.08
505.75	2730.76
505.96	2832.14
506.16	2973.65
506.37	2451.62
506.57	2250.51
506.78	2404.32
506.98	2667.48
507.18	2180.27
507.39	2104.29
507.59	2186.82
507.80	2268.33
508.00	2437.29
508.20	2406.16
508.41	2199.52
508.61	2570.41
508.82	2446.71
509.02	2231.88
509.22	1989.81
509.43	2029.74
509.63	2121.90
509.84	2031.18
510.04	1930.42
510.24	2481.32
510.45	2343.29
510.65	1906.45
510.86	2085.65
511.06	2132.14
511.26	2475.99
511.47	2380.35
511.67	2141.77
511.88	2400.01
512.08	2425.00
512.28	1990.83
512.49	2112.27
512.69	2262.39
512.90	2267.31
513.10	2017.86
513.30	2113.71
513.51	2307.04
513.71	2487.87
513.91	2083.81
514.12	2150.37
514.32	2578.19
514.53	2463.09
514.73	2563.65
514.93	2525.56
515.14	2782.17
515.34	3213.06
515.54	2990.03
515.75	3265.69
515.95	3552.82
516.15	3660.74
516.36	2829.68
516.56	2603.58
516.77	2220.20
516.97	2629.59
517.17	2343.08
517.38	2444.25
517.58	2806.33
517.78	2781.35
517.99	3088.54
518.19	3276.55
518.39	3796.93
518.60	3606.88
518.80	3129.30
519.00	2880.47
519.21	2704.75
519.41	2872.07
519.61	2219.79
519.82	2333.66
520.02	2409.03
520.22	2426.02
520.43	2271.81
520.63	2300.28
520.83	2339.39
521.04	2278.98
521.24	2839.10
521.44	3071.34
521.65	3311.57
521.85	3643.95
522.05	3246.44
522.26	2808.17
522.46	3096.53
522.66	2722.98
522.87	2332.84
523.07	2472.31
523.27	2358.85
523.48	2687.55
523.68	2308.06
523.88	2382.40
524.09	2669.73
524.29	2588.02
524.49	2423.98
524.70	2803.46
524.90	3245.62
525.10	3075.03
525.31	2559.14
525.51	2372.57
525.71	2576.34
525.91	2437.90
526.12	2117.19
526.32	2010.29
526.52	2150.98
526.73	2099.37
526.93	2147.09
527.13	1960.32
527.34	2238.43
527.54	2276.11
527.74	2181.91
527.94	2082.37
528.15	2184.98
528.35	2331.61
528.55	2225.12
528.76	2122.92
528.96	1974.24
529.16	2371.75
529.36	2150.16
529.57	1955.40
529.77	2420.08
529.97	2030.77
530.18	2113.09
530.38	2014.59
530.58	2297.21
530.78	2258.50
530.99	2052.27
531.19	2177.20
531.39	2170.03
531.60	2284.92
531.80	2132.75
532.00	2227.78
532.20	2286.56
532.41	2122.31
532.61	2038.55
532.81	2003.32
533.01	2138.69
533.22	2255.22
533.42	2171.05
533.62	1890.68
533.82	2410.87
534.03	2162.25
534.23	2177.61
534.43	2013.97
534.63	2149.96
534.84	2241.50
535.04	2127.02
535.24	2082.17
535.44	2640.04
535.65	2101.22
535.85	2019.09
536.05	1911.78
536.25	2201.98
536.46	2143.81
536.66	2313.59
536.86	2275.09
537.06	2526.37
537.27	2612.18
537.47	2203.00
537.67	2101.42
537.87	2494.22
538.08	2254.40
538.28	2008.65
538.48	2046.33
538.68	2341.03
538.88	2473.33
539.09	2019.50
539.29	2164.91
539.49	2419.47
539.69	2247.03
539.90	2160.81
540.10	2046.74
540.30	2594.98
540.50	2273.86
540.70	2135.42
540.91	2218.36
541.11	2668.71
541.31	2937.61
541.51	2646.39
541.72	2784.62
541.92	2959.11
542.12	2642.08
542.32	2448.76
542.52	2315.02
542.73	2300.48
542.93	2447.94
543.13	2198.70
543.33	2485.82
543.53	2759.02
543.74	2798.14
543.94	2559.14
544.14	2827.43
544.34	3249.51
544.54	3164.52
544.75	3292.72
544.95	3458.81
545.15	3426.66
545.35	3340.85
545.55	2938.02
545.75	2641.67
545.96	3032.22
546.16	2427.87
546.36	2360.90
546.56	2429.91
546.76	2656.01
546.97	2742.23
547.17	2254.40
547.37	2270.58
547.57	2182.32
547.77	2375.85
547.97	2172.69
548.18	2238.63
548.38	2455.51
548.58	3553.23
548.78	3975.72
548.98	4706.23
549.18	5496.95
549.39	5824.01
549.59	4936.22
549.79	4296.43
549.99	4302.99
550.19	3940.09
550.39	3529.06
550.60	3085.67
550.80	2981.84
551.00	2930.85
551.20	2486.03
551.40	2364.99
551.60	2546.85
551.80	2519.41
552.01	2416.40
552.21	2381.99
552.41	2492.17
552.61	2709.87
552.81	2307.04
553.01	2137.87
553.21	2430.73
553.42	2204.43
553.62	2137.67
553.82	2066.40
554.02	2540.91
554.22	2349.43
554.42	1982.84
554.62	2259.73
554.83	3103.29
555.03	3787.10
555.23	3898.51
555.43	4554.89
555.63	4781.39
555.83	4411.53
556.03	3699.66
556.23	3386.93
556.44	3595.82
556.64	3667.30
556.84	3046.15
557.04	3309.11
557.24	3284.74
557.44	3015.43
557.64	2697.79
557.84	2440.77
558.04	2499.14
558.25	2598.46
558.45	2231.47
558.65	2377.28
558.85	2526.78
559.05	2292.91
559.25	2509.99
559.45	2689.39
559.65	3624.90
559.85	4492.63
560.05	3873.94
560.26	4189.12
560.46	4249.94
560.66	3760.69
560.86	3267.53
561.06	2926.55
561.26	3266.31
561.46	2955.63
561.66	2566.92
561.86	2635.74
562.06	2478.86
562.26	2511.42
562.47	2308.06
562.67	2114.32
562.87	2460.02
563.07	2153.03
563.27	2319.32
563.47	2326.70
563.67	2366.43
563.87	2623.65
564.07	2529.86
564.27	2762.51
564.47	3079.12
564.67	3237.43
564.87	3091.41
565.08	2995.77
565.28	2844.42
565.48	2923.88
565.68	2620.17
565.88	2533.13
566.08	2819.23
566.28	2401.45
566.48	2104.29
566.68	2120.06
566.88	2197.27
567.08	2406.98
567.28	2241.50
567.48	2284.51
567.68	2525.76
567.88	2329.97
568.08	2541.12
568.28	2620.38
568.48	2571.22
568.68	2829.68
568.89	2436.06
569.09	2183.34
569.29	2513.68
569.49	2485.21
569.69	2102.85
569.89	2088.93
570.09	1956.22
570.29	2123.33
570.49	1974.45
570.69	2049.61
570.89	2333.66
571.09	2552.79
571.29	1955.81
571.49	2208.73
571.69	2257.68
571.89	2242.32
572.09	2025.03
572.29	2065.79
572.49	2289.01
572.69	2236.59
572.89	2207.30
573.09	2120.47
573.29	2616.28
573.49	2766.81
573.69	2656.83
573.89	2596.21
574.09	2442.41
574.29	2634.30
574.49	2252.97
574.69	2078.48
574.89	2047.97
575.09	2066.81
575.29	1946.39
575.49	2062.10
575.69	2238.63
575.89	1961.13
576.09	2046.94
576.29	2134.60
576.49	2185.80
576.69	2326.08
576.89	2252.56
577.09	2305.19
577.29	2115.14
577.49	2669.94
577.69	2143.81
577.89	2277.96
578.09	2270.79
578.29	2032.20
578.49	2131.94
578.69	2021.35
578.89	2409.23
579.09	2262.60
579.29	2059.03
579.49	2282.26
579.69	2290.24
579.89	2661.13
580.09	2005.37
580.29	2009.47
580.49	2169.41
580.69	2050.02
580.89	2005.99
581.09	2016.02
581.29	2084.01
581.49	2149.75
581.69	1939.22
581.89	1956.63
582.09	2031.99
582.28	2058.21
582.48	2309.08
582.68	2435.44
582.88	2738.54
583.08	2499.34
583.28	2441.18
583.48	2332.43
583.68	2270.17
583.88	2357.21
584.08	2199.52
584.28	2165.73
584.48	2570.00
584.68	2280.00
584.88	2076.44
585.08	2359.06
585.28	2482.96
585.48	2555.66
585.68	2286.35
585.87	2387.73
586.07	2413.74
586.27	2280.00
586.47	2187.23
586.67	2096.10
586.87	2221.64
587.07	2153.03
587.27	2105.52
587.47	2374.21
587.67	2974.88
587.87	3759.05
588.07	3613.64
588.27	3661.15
588.46	4216.15
588.66	4226.60
588.86	3429.32
589.06	3241.93
589.26	3207.73
589.46	2947.44
589.66	2445.27
589.86	2307.24
590.06	2580.44
590.26	2946.82
590.46	2877.60
590.66	3082.19
590.85	3135.64
591.05	3289.86
591.25	2761.07
591.45	2688.37
591.65	2893.17
591.85	2947.64
592.05	2830.50
592.25	3021.37
592.45	3375.05
592.64	3137.49
592.84	2853.43
593.04	2601.33
593.24	3224.94
593.44	2660.93
593.64	2624.68
593.84	2675.47
594.04	2643.52
594.24	2906.27
594.43	2352.30
594.63	2305.19
594.83	2580.24
595.03	2488.49
595.23	2089.34
595.43	2012.74
595.63	2159.17
595.83	2433.60
596.02	1966.05
596.22	2229.62
596.42	2461.04
596.62	2384.86
596.82	2231.47
597.02	2294.95
597.22	2550.13
597.41	2367.86
597.61	2186.21
597.81	2436.88
598.01	2641.06
598.21	2516.95
598.41	2401.04
598.61	2368.07
598.80	2564.06
599.00	2598.87
599.20	2585.15
599.40	2450.19
599.60	2560.17
599.80	2680.79
599.99	2503.64
600.19	2327.31
600.39	2540.91
600.59	2588.43
600.79	2401.04
600.99	2346.77
601.19	2744.89
601.38	2807.15
601.58	2478.66
601.78	2241.91
601.98	3287.60
602.18	5214.13
602.37	6706.89
602.57	7524.24
602.77	8809.95
602.97	9165.89
603.17	8104.84
603.37	7757.09
603.56	7668.21
603.76	7344.84
603.96	6911.89
604.16	6221.11
604.36	5676.76
604.56	5037.39
604.75	4190.96
604.95	4064.40
605.15	3960.16
605.35	3676.31
605.55	3213.67
605.74	3070.93
605.94	3172.51
606.14	2829.06
606.34	2506.51
606.54	2451.42
606.73	2322.19
606.93	2474.77
607.13	2113.09
607.33	2219.79
607.53	2545.01
607.72	2457.56
607.92	2229.01
608.12	2327.52
608.32	2298.03
608.51	2478.66
608.71	2214.67
608.91	2546.65
609.11	2789.74
609.31	2733.22
609.50	2921.63
609.70	3315.25
609.90	3398.19
610.10	3463.73
610.29	3095.50
610.49	2799.37
610.69	3001.71
610.89	2788.31
611.09	2554.02
611.28	2665.84
611.48	2712.74
611.68	2452.03
611.88	2331.41
612.07	2274.06
612.27	2586.17
612.47	2327.31
612.67	2248.46
612.86	2263.01
613.06	2292.50
613.26	2030.97
613.46	2270.58
613.65	2544.40
613.85	3182.95
614.05	2973.45
614.25	2818.82
614.44	2714.17
614.64	2801.62
614.84	2720.52
615.04	2619.15
615.23	2662.97
615.43	2805.51
615.63	2744.28
615.83	2454.70
616.02	2498.93
616.22	3162.68
616.42	3056.39
616.62	3169.85
616.81	3364.61
617.01	3430.55
617.21	3177.01
617.41	2707.41
617.60	2700.86
617.80	2805.72
618.00	2680.79
618.19	2444.46
618.39	2243.14
618.59	2462.27
618.79	2286.76
618.98	1928.37
619.18	2050.22
619.38	2550.54
619.57	2131.73
619.77	1999.64
619.97	2019.71
620.17	2276.52
620.36	2391.41
620.56	2856.71
620.76	2742.64
620.95	2959.31
621.15	2942.32
621.35	2702.91
621.54	2685.91
621.74	2689.19
621.94	2478.66
622.14	2252.56
622.33	2166.55
622.53	2337.14
622.73	2258.30
622.92	2005.37
623.12	2101.22
623.32	2559.96
623.51	2344.72
623.71	1947.62
623.91	2258.50
624.10	2076.64
624.30	2275.09
624.50	1978.95
624.69	1940.45
624.89	2879.85
625.09	2131.94
625.29	1831.29
625.48	1909.73
625.68	2209.14
625.88	2347.59
626.07	2062.10
626.27	1943.11
626.47	2061.49
626.66	1898.06
626.86	2024.62
627.06	1977.11
627.25	2141.15
627.45	2442.82
627.64	2025.24
627.84	2158.76
628.04	2003.32
628.23	2499.96
628.43	1936.76
628.63	2125.59
628.82	2391.82
629.02	2874.73
629.22	2548.90
629.41	2677.72
629.61	2701.27
629.81	3147.73
630.00	2708.44
630.20	2751.45
630.40	3058.03
630.59	3014.20
630.79	2594.98
630.98	2483.98
631.18	2506.30
631.38	2447.73
631.57	2351.89
631.77	2045.72
631.97	2311.13
632.16	2305.81
632.36	2070.91
632.56	2073.77
632.75	2203.20
632.95	2295.77
633.14	1874.51
633.34	2139.10
633.54	1864.47
633.73	2052.27
633.93	1945.98
634.12	1825.35
634.32	2591.29
634.52	2144.02
634.71	1845.63
634.91	2014.38
635.11	1948.23
635.30	2046.94
635.50	2054.73
635.69	1994.72
635.89	2636.55
636.09	2538.46
636.28	2221.84
636.48	2210.37
636.67	2533.95
636.87	2479.27
637.07	2274.68
637.26	2195.83
637.46	2501.18
637.65	2672.39
637.85	2470.06
638.04	2362.74
638.24	2470.67
638.44	2531.08
638.63	2284.92
638.83	2216.31
639.02	2376.67
639.22	2349.84
639.42	2067.83
639.61	2057.59
639.81	2245.19
640.00	2173.10
640.20	2170.64
640.39	2290.86
640.59	3367.68
640.79	3597.05
640.98	3781.78
641.18	3952.37
641.37	4125.43
641.57	3581.28
641.76	3352.32
641.96	2888.25
642.15	3100.62
642.35	2804.49
642.55	2713.35
642.74	2417.22
642.94	2670.35
643.13	2661.13
643.33	2148.52
643.52	2047.15
643.72	2128.25
643.91	2163.88
644.11	1917.10
644.31	1943.52
644.50	2031.99
644.70	2339.39
644.89	2033.84
645.09	2102.44
645.28	2161.02
645.48	2252.77
645.67	1976.90
645.87	1913.21
646.06	2140.54
646.26	2295.57
646.45	1881.47
646.65	1829.25
646.84	2514.09
647.04	2124.77
647.24	1918.33
647.43	2027.49
647.63	2246.42
647.82	2456.13
648.02	1921.61
648.21	1990.42
648.41	2439.95
648.60	2106.34
648.80	2149.55
648.99	2025.85
649.19	2058.00
649.38	1878.19
649.58	2007.62
649.77	2058.21
649.97	2338.58
650.16	2237.20
650.36	1773.54
650.55	2169.41
650.75	2209.96
650.94	2436.26
651.14	2023.19
651.33	2064.76
651.53	2454.70
651.72	2043.46
651.92	1980.39
652.11	1791.97
652.31	2230.24
652.50	2214.88
652.70	2062.10
652.89	1965.44
653.09	2519.62
653.28	2246.42
653.48	1946.80
653.67	1965.64
653.87	2781.14
654.06	2291.06
654.25	2335.50
654.45	2021.75
654.64	2153.44
654.84	2158.15
655.03	1828.02
655.23	2133.78
655.42	2290.86
655.62	2453.47
655.81	2106.13
656.01	1936.56
656.20	2320.76
656.40	2438.31
656.59	2067.01
656.79	2144.63
656.98	2170.85
657.17	2308.47
657.37	1983.05
657.56	1951.10
657.76	2210.99
657.95	2299.25
658.15	1652.10
658.34	2012.33
658.54	2136.65
658.73	1989.19
658.92	2047.97
659.12	2091.59
659.31	2405.34
659.51	2199.31
659.70	2345.74
659.90	2266.08
660.09	2633.07
660.29	2443.84
660.48	2135.21
660.67	2356.60
660.87	2239.45
661.06	2338.78
661.26	2190.92
661.45	2224.50
661.65	2306.83
661.84	2104.90
662.03	1957.65
662.23	1974.86
662.42	2515.93
662.62	1983.25
662.81	1866.11
663.00	1952.94
663.20	2134.39
663.39	2199.31
663.59	2077.05
663.78	1944.14
663.97	2059.03
664.17	2285.94
664.36	1878.40
664.56	1915.26
664.75	2314.00
664.94	2271.40
665.14	2173.51
665.33	2231.88
665.53	2388.55
665.72	2382.81
665.91	2382.61
666.11	2273.65
666.30	2403.29
666.50	2285.94
666.69	2219.59
666.88	2147.09
667.08	2325.67
667.27	2227.37
667.47	2106.13
667.66	2063.33
667.85	2381.17
668.05	2233.11
668.24	1980.39
668.43	2246.01
668.63	2122.51
668.82	2381.79
669.02	2174.53
669.21	2080.74
669.40	2070.09
669.60	2586.58
669.79	1931.23
669.98	2678.54
670.18	2045.51
670.37	1998.41
670.56	2057.18
670.76	2133.37
670.95	2242.73
671.15	2445.89
671.34	2195.42
671.53	2219.38
671.73	2236.18
671.92	2165.11
672.11	2021.55
672.31	2073.77
672.50	2305.40
672.69	2019.30
672.89	1822.90
673.08	2056.78
673.27	2310.93
673.47	2217.75
673.66	2034.45
673.85	1948.85
674.05	2573.07
674.24	3477.86
674.43	3828.88
674.63	4587.04
674.82	5495.52
675.01	4814.77
675.21	4542.19
675.40	4036.75
675.59	3962.21
675.79	4139.35
675.98	3519.64
676.17	3531.11
676.37	3395.12
676.56	3031.20
676.75	2765.99
676.95	2591.29
677.14	2507.74
677.33	2610.14
677.52	2086.27
677.72	2097.73
677.91	2334.48
678.10	1977.72
678.30	1945.78
678.49	1927.34
678.68	2565.70
678.88	1879.63
679.07	2210.37
679.26	1980.18
679.45	2463.30
679.65	2383.02
679.84	1825.76
680.03	1852.59
680.23	2119.24
680.42	2627.54
680.61	1939.84
680.81	1988.37
681.00	2164.70
681.19	2253.99
681.38	2149.75
681.58	2124.56
681.77	2192.35
681.96	2385.27
682.15	2068.45
682.35	2236.38
682.54	2365.40
682.73	2069.47
682.93	1966.46
683.12	1981.20
683.31	2358.44
683.50	2644.13
683.70	1935.74
683.89	2091.39
684.08	2045.31
684.27	2350.25
684.47	1906.04
684.66	2029.74
684.85	2568.15
685.04	2420.49
685.24	1933.49
685.43	2003.12
685.62	1921.40
685.81	2376.26
686.01	2756.16
686.20	3128.27
686.39	3457.59
686.58	4308.72
686.78	4025.69
686.97	3810.66
687.16	3705.59
687.35	3473.15
687.55	3181.11
687.74	3222.07
687.93	3046.97
688.12	3104.52
688.32	2975.49
688.51	2643.93
688.70	2853.84
688.89	2433.81
689.08	2173.10
689.28	2207.30
689.47	2368.68
689.66	2333.25
689.85	2238.02
690.05	2042.64
690.24	2133.37
690.43	2220.61
690.62	2078.69
690.81	1955.20
691.01	2212.01
691.20	2095.28
691.39	1894.37
691.58	2084.63
691.77	2501.80
691.97	2209.14
692.16	2107.36
692.35	2060.05
692.54	2213.44
692.73	2663.79
692.93	2568.77
693.12	2778.89
693.31	3034.48
693.50	2971.81
693.69	2705.37
693.89	2469.44
694.08	2888.05
694.27	2913.24
694.46	2465.96
694.65	2511.42
694.85	2741.62
695.04	2755.75
695.23	2683.66
695.42	4147.96
695.61	5443.50
695.80	6243.64
696.00	6848.00
696.19	7289.95
696.38	6380.45
696.57	5397.22
696.76	5088.79
696.95	4652.17
697.15	4686.98
697.34	4404.36
697.53	3743.28
697.72	3577.39
697.91	3280.64
698.10	3282.89
698.30	2647.00
698.49	2435.03
698.68	2502.82
698.87	2335.09
699.06	2119.85
699.25	2137.87
699.45	2472.92
699.64	2282.87
699.83	2223.27
700.02	2008.85
700.21	2275.50
700.40	2088.52
700.59	1968.92
700.79	2035.27
700.98	2243.96
701.17	2063.33
701.36	1945.98
701.55	2015.61
701.74	2625.29
701.93	3044.10
702.12	3681.22
702.32	4113.14
702.51	4841.60
702.70	4916.76
702.89	4212.88
703.08	3669.14
703.27	3941.52
703.46	3644.77
703.65	3183.57
703.85	2967.51
704.04	2983.89
704.23	3152.64
704.42	2584.13
704.61	2450.60
704.80	2735.88
704.99	2237.41
705.18	2221.43
705.37	2343.29
705.57	3552.82
705.76	5269.63
705.95	5867.84
706.14	7090.48
706.33	7888.37
706.52	7776.14
706.71	6038.03
706.90	5349.09
707.09	5271.68
707.28	4910.41
707.47	4280.25
707.67	4195.47
707.86	3854.48
708.05	3893.39
708.24	3219.00
708.43	2918.36
708.62	2653.14
708.81	2381.17
709.00	2138.28
709.19	2085.24
709.38	2410.46
709.57	2153.23
709.76	2308.88
709.96	2282.67
710.15	2826.40
710.34	2602.56
710.53	2562.83
710.72	2330.38
710.91	2646.39
711.10	2524.33
711.29	2329.36
711.48	2240.07
711.67	2264.64
711.86	2547.26
712.05	2180.47
712.24	2222.25
712.43	2442.82
712.62	2560.98
712.81	2163.68
713.00	2291.47
713.19	2072.75
713.39	2346.97
713.58	2072.13
713.77	2346.97
713.96	2589.45
714.15	2485.82
714.34	2412.30
714.53	2224.91
714.72	2830.50
714.91	2394.69
715.10	2523.71
715.29	2414.15
715.48	3168.00
715.67	2714.79
715.86	2376.67
716.05	2305.81
716.24	2367.86
716.43	2328.75
716.62	2095.69
716.81	2066.61
717.00	2280.62
717.19	2577.37
717.38	2115.96
717.57	2063.94
717.76	1973.63
717.95	2350.04
718.14	2033.43
718.33	2036.09
718.52	1904.00
718.71	1908.30
718.90	1900.11
719.09	1923.66
719.28	2154.87
719.47	2446.30
719.66	2442.41
719.85	2600.92
720.04	2713.97
720.23	2856.51
720.42	2644.95
720.61	2635.33
720.80	2311.13
720.99	2584.54
721.18	2337.76
721.37	2216.72
721.56	2359.26
721.75	2523.71
721.94	2141.15
722.13	2163.47
722.32	2243.55
722.51	2398.17
722.70	2115.14
722.89	2136.85
723.08	2175.35
723.27	2336.94
723.46	2082.99
723.65	2046.74
723.84	2100.60
724.03	2400.01
724.22	1885.56
724.41	2007.21
724.60	2120.67
724.79	2298.03
724.98	2026.87
725.16	1974.45
725.35	2301.10
725.54	2035.07
725.73	2091.18
725.92	2215.29
726.11	2523.92
726.30	3099.19
726.49	2876.99
726.68	3173.33
726.87	3500.59
727.06	3538.69
727.25	2839.71
727.44	2862.86
727.63	2870.43
727.82	2772.74
728.01	2683.04
728.20	2633.07
728.38	2916.92
728.57	2514.09
728.76	2282.26
728.95	2392.23
729.14	2134.19
729.33	2105.11
729.52	1845.42
729.71	1983.46
729.90	2047.35
730.09	2294.75
730.28	2328.75
730.47	2472.72
730.66	3018.71
730.84	2918.97
731.03	2722.98
731.22	2656.22
731.41	2709.87
731.60	2715.40
731.79	2243.96
731.98	2271.20
732.17	2570.61
732.36	2523.51
732.55	2204.43
732.73	2068.45
732.92	2517.98
733.11	2356.60
733.30	2020.12
733.49	1973.42
733.68	2345.74
733.87	2371.75
734.06	2217.34
734.25	2629.39
734.43	3093.87
734.62	3439.36
734.81	3453.69
735.00	3420.93
735.19	3326.52
735.38	3121.51
735.57	2772.34
735.76	2957.47
735.94	3399.42
736.13	4633.53
736.32	4814.77
736.51	5235.02
736.70	6134.49
736.89	6284.19
737.08	5799.23
737.27	6962.89
737.45	9382.56
737.64	10176.97
737.83	11268.74
738.02	11799.58
738.21	11091.80
738.40	9083.36
738.59	8143.54
738.77	7406.89
738.96	6885.07
739.15	6382.29
739.34	5732.88
739.53	5179.11
739.72	4920.24
739.90	4490.99
740.09	3653.37
740.28	3363.99
740.47	3257.91
740.66	2988.60
740.85	2456.33
741.03	2428.69
741.22	2353.73
741.41	2452.65
741.60	2199.52
741.79	2453.47
741.98	2752.88
742.16	2919.17
742.35	2598.26
742.54	2829.68
742.73	3446.94
742.92	3124.79
743.10	3056.18
743.29	3028.33
743.48	3421.75
743.67	2764.14
743.86	2512.24
744.05	2508.15
744.23	2524.74
744.42	2482.55
744.61	2415.58
744.80	2226.76
744.99	2330.38
745.17	2090.98
745.36	2000.46
745.55	2191.94
745.74	2221.64
745.93	2112.27
746.11	1951.30
746.30	1910.75
746.49	2359.26
746.68	2041.01
746.86	2028.72
747.05	2022.37
747.24	2335.09
747.43	2461.66
747.62	2140.54
747.80	2232.90
747.99	2768.85
748.18	2683.45
748.37	2334.89
748.56	2373.60
748.74	2636.15
748.93	2574.30
749.12	3063.97
749.31	4790.40
749.49	6278.66
749.68	7295.07
749.87	8216.66
750.06	8495.59
750.24	8828.79
750.43	9764.92
750.62	10967.28
750.81	11929.83
750.99	12781.17
751.18	12654.19
751.37	10352.28
751.56	8750.77
751.74	8919.11
751.93	8223.82
752.12	6615.55
752.31	5966.96
752.49	5514.77
752.68	5329.02
752.87	4336.37
753.06	3948.69
753.24	3611.59
753.43	3439.97
753.62	2694.51
753.81	2503.85
753.99	2783.60
754.18	2533.95
754.37	2150.78
754.55	2201.16
754.74	2644.34
754.93	2036.91
755.12	2037.93
755.30	1977.93
755.49	2425.20
755.68	2225.94
755.86	2136.85
756.05	1938.61
756.24	2450.19
756.43	2009.88
756.61	1952.12
756.80	2086.68
756.99	2423.77
757.17	2209.96
757.36	1998.00
757.55	2053.50
757.74	2323.83
757.92	2222.05
758.11	1950.28
758.30	1874.51
758.48	2185.18
758.67	2011.92
758.86	2072.54
759.04	2010.08
759.23	2161.22
759.42	2228.80
759.60	2003.73
759.79	2051.66
759.98	2147.09
760.16	2034.45
760.35	1971.37
760.54	1916.08
760.73	2226.55
760.91	1973.22
761.10	2020.32
761.29	2166.34
761.47	2232.29
761.66	2611.16
761.85	2190.30
762.03	2632.25
762.22	4678.99
762.41	11155.29
762.59	18070.87
762.78	21614.88
762.97	26489.04
763.15	28125.16
763.34	25322.31
763.52	18563.20
763.71	17380.70
763.90	15815.03
764.08	14687.62
764.27	13538.92
764.46	12562.04
764.64	10988.38
764.83	9735.84
765.02	8500.50
765.20	7478.16
765.39	6171.14
765.58	4581.10
765.76	3811.88
765.95	3396.15
766.13	2960.95
766.32	2556.89
766.51	2445.07
766.69	3291.09
766.88	2491.56
767.07	2107.16
767.25	1939.43
767.44	2477.02
767.62	2503.44
767.81	2023.19
768.00	2118.42
768.18	2291.88
768.37	2190.51
768.56	1941.27
768.74	2058.41
768.93	2019.09
769.11	2313.39
769.30	2135.21
769.49	2050.63
769.67	2198.70
769.86	2160.40
770.04	2034.25
770.23	2031.79
770.42	2449.17
770.60	2197.68
770.79	1957.24
770.97	2151.80
771.16	3309.72
771.35	5236.04
771.53	6869.50
771.72	7979.50
771.90	9373.35
772.09	10032.38
772.27	8646.52
772.46	6595.07
772.65	6747.24
772.83	6157.22
773.02	5832.41
773.20	5237.48
773.39	5244.03
773.58	4818.05
773.76	4085.90
773.95	3810.86
774.13	3696.79
774.32	3251.76
774.50	2673.83
774.69	2515.52
774.87	2404.93
775.06	2729.74
775.25	2059.44
775.43	2064.15
775.62	2256.04
775.80	2286.35
775.99	2068.45
776.17	2067.42
776.36	2284.51
776.54	2494.84
776.73	2141.15
776.92	2256.25
777.10	2472.92
777.29	2348.41
777.47	2061.89
777.66	2056.78
777.84	2266.49
778.03	2217.54
778.21	1997.79
778.40	2101.42
778.58	2310.31
778.77	2383.43
778.95	1931.64
779.14	1991.44
779.32	2511.83
779.51	2343.70
779.70	1978.34
779.88	1868.36
780.07	2070.91
780.25	2606.25
780.44	2029.74
780.62	2094.66
780.81	2263.42
780.99	2253.99
781.18	1934.10
781.36	1938.20
781.55	2113.30
781.73	2451.21
781.92	1871.23
782.10	1912.80
782.29	2225.94
782.47	2438.52
782.66	1954.38
782.84	1854.23
783.03	2064.35
783.21	2347.59
783.40	1947.82
783.58	1938.20
783.77	2045.10
783.95	2116.78
784.14	1923.04
784.32	2051.25
784.51	2416.60
784.69	2134.60
784.88	1969.53
785.06	2105.52
785.24	2047.56
785.43	2480.50
785.61	2179.04
785.80	2039.57
785.98	2377.28
786.17	2263.21
786.35	2011.92
786.54	2202.80
786.72	2398.99
786.91	2409.23
787.09	2069.68
787.28	1922.43
787.46	2229.83
787.65	2376.26
787.83	1893.35
788.01	2106.34
788.20	2136.03
788.38	2384.86
788.57	2281.64
788.75	2253.79
788.94	2765.99
789.12	2574.50
789.31	2225.12
789.49	2284.71
789.67	2247.85
789.86	2352.71
790.04	2105.93
790.23	2044.28
790.41	2742.23
790.60	2331.41
790.78	2177.61
790.96	2172.89
791.15	2411.28
791.33	2241.91
791.52	2116.78
791.70	1982.84
791.89	2249.69
792.07	2379.74
792.25	2071.32
792.44	1918.33
792.62	2413.12
792.81	2136.24
792.99	2054.52
793.17	2003.53
793.36	2172.49
793.54	2998.64
793.73	4034.70
793.91	5610.82
794.10	6803.56
794.28	7889.19
794.46	7981.55
794.65	7645.68
794.83	6097.01
795.01	5739.84
795.20	5473.61
795.38	5155.56
795.57	5002.16
795.75	4771.77
795.93	4223.12
796.12	3907.73
796.30	3948.69
796.49	3656.03
796.67	3033.86
796.85	2990.65
797.04	2825.79
797.22	2735.06
797.40	2242.53
797.59	2269.15
797.77	2386.91
797.96	2201.36
798.14	2074.59
798.32	2095.07
798.51	2377.69
798.69	2584.74
798.87	2064.56
799.06	2076.85
799.24	2082.58
799.42	2893.98
799.61	3617.94
799.79	4295.00
799.98	5330.86
800.16	5723.25
800.34	7337.26
800.53	9220.16
800.71	9952.51
800.89	11711.51
801.08	11973.86
801.26	11942.93
801.44	9969.51
801.63	8192.69
801.81	7940.18
801.99	7134.10
802.18	6832.84
802.36	6457.45
802.54	5852.89
802.73	5061.96
802.91	4817.44
803.09	4401.29
803.28	3936.81
803.46	3521.48
803.64	3570.02
803.83	2815.55
804.01	2508.56
804.19	2328.54
804.38	2710.69
804.56	2636.35
804.74	2328.13
804.92	2378.31
805.11	2275.91
805.29	2558.12
805.47	2139.31
805.66	2069.06
805.84	2138.69
806.02	2495.65
806.21	2130.09
806.39	2349.63
806.57	2465.96
806.76	2471.69
806.94	2202.80
807.12	2197.68
807.30	2342.26
807.49	2473.33
807.67	2385.47
807.85	2458.59
808.04	2608.29
808.22	2778.68
808.40	2114.53
808.58	2035.27
808.77	2439.34
808.95	2762.51
809.13	3203.43
809.31	6137.35
809.50	9386.86
809.68	11005.78
809.86	12502.85
810.05	13594.42
810.23	14961.03
810.41	19322.38
810.59	30664.65
810.78	37560.57
810.96	43225.25
811.14	46706.79
811.32	45672.16
811.51	36666.83
811.69	29369.10
811.87	28939.03
812.05	25069.60
812.24	23483.03
812.42	21624.50
812.60	19376.65
812.78	16243.67
812.97	13764.81
813.15	12383.25
813.33	10506.08
813.51	8858.49
813.70	7004.87
813.88	5682.70
814.06	4671.42
814.24	3657.26
814.42	2908.53
814.61	2880.67
814.79	2950.51
814.97	2203.20
815.15	2209.14
815.34	2406.77
815.52	2465.96
815.70	2037.52
815.88	2084.42
816.06	2086.47
816.25	2173.71
816.43	2044.90
816.61	2190.10
816.79	2510.81
816.98	2094.05
817.16	2120.47
817.34	2135.62
817.52	2436.06
817.70	2609.52
817.89	2163.27
818.07	2042.23
818.25	2257.48
818.43	2306.42
818.61	2073.98
818.80	1999.84
818.98	2534.77
819.16	2225.73
819.34	1923.86
819.52	2287.99
819.70	2061.28
819.89	2178.63
820.07	1868.77
820.25	1848.29
820.43	2195.22
820.61	2308.47
820.80	1994.93
820.98	1883.52
821.16	1873.28
821.34	1968.10
821.52	1971.17
821.70	2068.24
821.89	2155.69
822.07	2097.12
822.25	2028.92
822.43	1903.18
822.61	2395.92
822.79	2186.00
822.98	1972.19
823.16	1812.66
823.34	2172.49
823.52	2343.08
823.70	2010.29
823.88	1823.10
824.06	2249.49
824.25	2138.49
824.43	2137.26
824.61	1986.94
824.79	2297.62
824.97	2388.75
825.15	2470.87
825.33	3259.75
825.52	4509.83
825.70	5080.81
825.88	5446.16
826.06	5951.19
826.24	6278.25
826.42	5608.98
826.60	4453.92
826.78	4560.42
826.97	4169.25
827.15	4339.65
827.33	3687.57
827.51	3606.47
827.69	3418.26
827.87	3301.74
828.05	2992.90
828.23	2675.47
828.41	2978.57
828.60	2833.98
828.78	2255.84
828.96	2373.60
829.14	2249.69
829.32	2217.34
829.50	2076.23
829.68	2039.78
829.86	2133.37
830.04	2301.30
830.22	2135.21
830.41	1940.86
830.59	2161.84
830.77	2275.29
830.95	1956.01
831.13	1925.91
831.31	2016.02
831.49	2313.39
831.67	2123.33
831.85	2116.99
832.03	2082.37
832.21	2299.25
832.39	1905.84
832.57	1955.20
832.76	2375.44
832.94	2175.15
833.12	1847.88
833.30	1982.23
833.48	2397.76
833.66	2237.20
833.84	1970.15
834.02	2003.12
834.20	2336.32
834.38	2298.03
834.56	1830.47
834.74	1918.95
834.92	1966.25
835.10	2464.32
835.28	1998.41
835.46	2037.52
835.64	2116.78
835.82	2025.85
836.01	2280.62
836.19	2198.70
836.37	2052.27
836.55	2004.96
836.73	1933.69
836.91	1894.17
837.09	2268.33
837.27	2408.41
837.45	1867.75
837.63	1915.67
837.81	2032.20
837.99	2248.26
838.17	2152.82
838.35	2147.30
838.53	2765.17
838.71	2536.00
838.89	2250.92
839.07	2265.46
839.25	2449.99
839.43	2645.77
839.61	2916.72
839.79	4896.08
839.97	7260.25
840.15	8547.20
840.33	9490.70
840.51	10166.32
840.69	9899.88
840.87	8059.99
841.05	6999.96
841.23	7733.13
841.41	9916.47
841.59	13992.75
841.77	15650.37
841.95	17217.89
842.13	18409.81
842.31	17545.36
842.49	13977.80
842.67	11535.80
842.85	11434.63
843.03	9966.85
843.21	9302.08
843.39	8609.25
843.57	7851.91
843.75	6992.99
843.93	5880.74
844.11	5271.68
844.29	4904.48
844.47	4461.50
844.65	4109.25
844.83	3619.78
845.01	3299.69
845.19	3139.13
845.36	2612.59
845.54	2411.28
845.72	2393.05
845.90	2428.48
846.08	2023.60
846.26	2125.59
846.44	2293.93
846.62	2269.35
846.80	2095.07
846.98	1934.31
847.16	2110.64
847.34	2156.31
847.52	1920.18
847.70	1815.32
847.88	2103.88
848.06	2394.89
848.24	2087.70
848.41	1864.68
848.59	2323.63
848.77	2209.35
848.95	1941.06
849.13	1934.51
849.31	2242.94
849.49	2165.11
849.67	1882.90
849.85	1837.03
850.03	2199.52
850.21	2175.56
850.39	1853.62
850.57	2040.39
850.74	2392.85
850.92	2526.58
851.10	2812.27
851.28	3487.49
851.46	4263.67
851.64	4990.29
851.82	4664.45
852.00	4775.86
852.18	4543.01
852.36	3939.88
852.53	3604.42
852.71	3490.56
852.89	3508.38
853.07	3404.13
853.25	2962.80
853.43	2759.84
853.61	2900.95
853.79	2796.50
853.97	2385.88
854.14	2321.17
854.32	2708.44
854.50	2525.15
854.68	2148.11
854.86	2081.76
855.04	2086.47
855.22	2306.42
855.40	1855.25
855.57	1916.49
855.75	2286.76
855.93	2220.00
856.11	1808.97
856.29	1933.49
856.47	2026.06
856.65	2153.85
856.82	1863.65
857.00	1851.16
857.18	2087.29
857.36	2028.72
857.54	2046.94
857.72	2079.51
857.89	2218.77
858.07	2119.85
858.25	2098.55
858.43	1835.18
858.61	2047.35
858.79	2069.06
858.97	1851.36
859.14	2029.95
859.32	2085.65
859.50	2088.11
859.68	2080.12
859.86	2018.27
860.03	2260.55
860.21	2397.35
860.39	2044.49
860.57	2226.14
860.75	2291.47
860.93	2558.12
861.10	2235.15
861.28	2031.38
861.46	2314.61
861.64	2352.30
861.82	2067.63
861.99	2165.93
862.17	2370.73
862.35	2368.68
862.53	2047.15
862.71	2010.90
862.88	2213.04
863.06	2284.92
863.24	1951.51
863.42	1906.04
863.60	2109.61
863.77	2225.53
863.95	1789.72
864.13	1922.02
864.31	2056.57
864.49	2220.61
864.66	1832.73
864.84	1830.88
865.02	2181.29
865.20	2583.10
865.37	1996.36
865.55	1855.46
865.73	1997.18
865.91	2514.70
866.09	2436.67
866.26	2420.08
866.44	2750.22
866.62	2604.40
866.80	2297.82
866.97	2277.96
867.15	2406.77
867.33	2425.20
867.51	2295.77
867.68	2234.95
867.86	2260.55
868.04	2187.23
868.22	1903.38
868.39	2021.14
868.57	2302.12
868.75	2442.20
868.93	1917.72
869.10	1928.98
869.28	2473.95
869.46	2388.75
869.64	1967.28
869.81	1949.87
869.99	2148.52
870.17	2164.50
870.35	1859.15
870.52	1901.95
870.70	2271.61
870.88	2036.09
871.05	1854.23
871.23	1757.57
871.41	2070.70
871.59	2110.64
871.76	1909.73
871.94	1838.46
872.12	2127.63
872.29	1865.49
872.47	1920.18
872.65	1845.22
872.83	2162.45
873.00	2387.93
873.18	1925.71
873.36	1888.43
873.53	2270.38
873.71	1905.23
873.89	1838.67
874.06	1921.61
874.24	2187.85
874.42	2331.20
874.60	2024.01
874.77	2002.50
874.95	1998.61
875.13	2290.04
875.30	1955.61
875.48	1943.11
875.66	2473.33
875.83	2129.68
876.01	1993.29
876.19	2089.34
876.36	1992.06
876.54	2205.25
876.72	1889.46
876.89	2028.31
877.07	2280.82
877.25	1857.10
877.42	1964.00
877.60	1933.69
877.78	2406.16
877.95	2052.68
878.13	1839.90
878.31	2039.78
878.48	2283.08
878.66	2214.06
878.84	1913.83
879.01	1933.08
879.19	2172.28
879.37	2223.68
879.54	1957.86
879.72	1804.87
879.90	1823.31
880.07	2249.08
880.25	1669.91
880.42	2071.73
880.60	2147.91
880.78	2220.41
880.95	1886.59
881.13	1953.15
881.31	2112.27
881.48	1997.79
881.66	1843.17
881.83	2016.43
882.01	1984.69
882.19	1873.89
882.36	1918.13
882.54	1871.23
882.72	2159.17
882.89	2107.77
883.07	1842.76
883.24	1887.82
883.42	2226.55
883.60	2122.11
883.77	1838.67
883.95	1985.71
884.12	2359.87
884.30	2304.17
884.48	2250.10
884.65	2169.82
884.83	2368.27
885.00	2359.87
885.18	1957.04
885.36	2020.12
885.53	2326.70
885.71	2443.43
885.88	1862.83
886.06	1949.87
886.23	2251.13
886.41	2054.73
886.59	1897.85
886.76	1839.90
886.94	2215.29
887.11	2629.39
887.29	1944.96
887.47	1833.96
887.64	2337.55
887.82	2343.90
887.99	1756.54
888.17	1907.07
888.34	2028.72
888.52	1905.02
888.69	1852.80
888.87	1813.07
889.05	2036.50
889.22	2033.43
889.40	1870.82
889.57	2112.89
889.75	2371.55
889.92	2025.03
890.10	1828.02
890.27	1913.83
890.45	1978.13
890.62	1795.86
890.80	1833.75
890.98	1704.93
891.15	2348.82
891.33	2251.13
891.50	1851.98
891.68	1760.02
891.85	2195.63
892.03	2200.75
892.20	1836.62
892.38	1819.62
892.55	2186.21
892.73	2209.76
892.90	1753.47
893.08	1850.13
893.25	1955.61
893.43	2006.39
893.60	1940.66
893.78	1695.31
893.95	2162.45
894.13	2035.48
894.30	1836.00
894.48	1880.85
894.65	2229.62
894.83	2134.19
895.00	1734.63
895.18	1734.63
895.35	2218.15
895.53	2232.90
895.70	1816.75
895.88	2049.81
896.05	2235.36
896.23	1934.10
896.40	1926.52
896.58	1968.10
896.75	2244.37
896.93	2345.13
897.10	1913.42
897.28	1788.08
897.45	2145.04
897.63	2175.35
897.80	1965.85
897.98	1855.25
898.15	2137.87
898.33	2028.72
898.50	1933.69
898.67	1881.88
898.85	2037.52
899.02	2170.23
899.20	2128.66
899.37	1912.80
899.55	2132.35
899.72	2324.03
899.90	1862.22
900.07	1830.68
900.25	2176.58
900.42	2297.21
900.59	1847.47
900.77	1975.88
900.94	2183.34
901.12	2126.61
901.29	1879.63
901.47	1997.59
901.64	2169.82
901.82	2073.98
901.99	1686.50
902.16	1839.49
902.34	2283.08
902.51	2146.27
902.69	1846.86
902.86	1909.73
903.03	2711.31
903.21	2098.76
903.38	1849.32
903.56	1823.51
903.73	2286.76
903.91	1996.56
904.08	1830.68
904.25	1700.84
904.43	1965.44
904.60	2232.08
904.78	1894.17
904.95	1839.28
905.12	2044.08
905.30	2403.70
905.47	1979.98
905.65	2110.64
905.82	2159.38
905.99	2309.49
906.17	2036.50
906.34	2017.45
906.52	2180.88
906.69	2444.05
906.86	2187.23
907.04	2136.24
907.21	2444.66
907.38	2418.45
907.56	1972.19
907.73	1947.21
907.91	2431.76
908.08	2362.74
908.25	1929.19
908.43	1826.99
908.60	2214.47
908.77	2160.20
908.95	1927.55
909.12	1827.61
909.30	2260.75
909.47	1900.11
909.64	1917.72
909.82	2106.95
909.99	2096.10
910.16	2130.30
910.34	1857.71
910.51	1868.36
910.68	2124.36
910.86	2116.58
911.03	1940.25
911.20	2412.92
911.38	4102.29
911.55	6155.17
911.72	6908.21
911.90	7560.08
912.07	8401.79
912.24	8228.53
912.42	6294.43
912.59	4699.27
912.76	4671.83
912.94	3974.08
913.11	3450.42
913.28	3114.55
913.46	3046.15
913.63	3143.63
913.80	3114.14
913.98	2653.96
914.15	2996.59
914.32	2990.03
914.49	2611.57
914.67	2425.41
914.84	2712.74
915.01	2785.85
915.19	2485.21
915.36	2289.22
915.53	2563.44
915.71	2428.07
915.88	2112.07
916.05	1994.93
916.22	2320.96
916.40	2172.89
916.57	1790.95
916.74	2034.04
916.92	2386.29
917.09	1953.15
917.26	1834.78
917.43	1820.44
917.61	2059.85
917.78	1868.98
917.95	1825.76
918.13	1794.43
918.30	2511.01
918.47	2150.16
918.64	1914.44
918.82	1934.10
918.99	2259.93
919.16	2648.64
919.33	2212.01
919.51	2222.66
919.68	2332.43
919.85	2496.47
920.02	1927.14
920.20	2018.07
920.37	2449.37
920.54	2329.97
920.71	1907.89
920.89	1931.23
921.06	2473.13
921.23	2071.11
921.40	2047.15
921.58	2606.04
921.75	3648.05
921.92	3137.08
922.09	3304.60
922.27	3228.83
922.44	3269.17
922.61	2957.47
922.78	2408.21
922.96	2320.76
923.13	2401.04
923.30	2556.68
923.47	2048.17
923.64	2070.70
923.82	2401.24
923.99	2334.07
924.16	2157.74
924.33	1955.20
924.50	2252.77
924.68	2489.10
924.85	1962.16
925.02	2019.50
925.19	2340.21
925.36	2242.73
925.54	2013.15
925.71	2030.77
925.88	2728.71
926.05	2107.77
926.22	1857.71
926.40	2007.01
926.57	2171.67
926.74	2227.17
926.91	1885.77
927.08	2021.75
927.26	2270.99
927.43	2098.96
927.60	1830.68
927.77	1893.96
927.94	2401.24
928.11	2295.57
928.29	1774.77
928.46	1965.85
928.63	1994.11
928.80	2092.41
928.97	2025.65
929.14	1896.01
929.32	2502.82
929.49	2098.55
929.66	1836.62
929.83	1743.23
930.00	2034.04
930.17	2151.19
930.35	1807.13
930.52	1829.86
930.69	2366.22
930.86	1918.33
931.03	1906.86
931.20	1667.66
931.37	2263.62
931.55	2085.86
931.72	1919.97
931.89	1754.70
932.06	1915.87
932.23	2356.19
932.40	1963.59
932.57	1987.35
932.74	2325.67
932.92	2282.26
933.09	2042.03
933.26	1632.23
933.43	2029.33
933.60	2126.00
933.77	1916.69
933.94	1966.25
934.11	2044.28
934.29	2112.07
934.46	1829.66
934.63	1994.31
934.80	1956.01
934.97	2135.42
935.14	1962.16
935.31	1818.60
935.48	2023.39
935.65	2177.81
935.82	1946.39
936.00	1820.03
936.17	2353.73
936.34	2077.05
936.51	1950.28
936.68	1799.14
936.85	2166.55
937.02	2140.33
937.19	1984.48
937.36	1906.25
937.53	2162.86
937.70	2259.93
937.87	1878.19
938.05	1990.83
938.22	2132.55
938.39	1909.12
938.56	1880.44
938.73	1779.28
938.90	2071.52
939.07	1986.32
939.24	1957.45
939.41	1730.94
939.58	2167.16
939.75	2189.69
939.92	1852.59
940.09	2162.25
940.26	2047.56
940.43	2263.01
940.60	1905.43
940.77	1853.21
940.95	2121.70
941.12	2238.84
941.29	1898.06
941.46	1883.72
941.63	2306.42
941.80	2324.44
941.97	1763.92
942.14	1736.88
942.31	2171.46
942.48	2058.41
942.65	1973.01
942.82	1899.90
942.99	2187.03
943.16	2110.64
943.33	1760.84
943.50	1836.21
943.67	2214.47
943.84	2275.91
944.01	1850.34
944.18	1804.47
944.35	2292.29
944.52	1946.39
944.69	1925.91
944.86	1766.58
945.03	2241.71
945.20	2581.87
945.37	1774.77
945.54	1982.23
945.71	2404.93
945.88	2452.03
946.05	1847.68
946.22	1809.18
946.39	2332.64
946.56	2085.04
946.73	1758.80
946.90	1812.04
947.07	2026.26
947.24	2086.68
947.41	1724.39
947.58	1974.04
947.75	2230.85
947.92	2146.07
948.09	1671.35
948.26	1761.25
948.43	2136.44
948.60	2407.39
948.77	1837.44
948.94	1862.42
949.11	2230.24
949.27	2177.61
949.44	1830.06
949.61	1756.75
949.78	2153.64
949.95	2285.33
950.12	1755.93
950.29	1708.83
950.46	2015.00
950.63	2230.24
950.80	1796.68
950.97	1843.99
951.14	2267.51
951.31	2017.45
951.48	1795.45
951.65	1744.87
951.82	2387.11
951.99	2123.33
952.15	1739.95
952.32	1839.69
952.49	1999.64
952.66	2010.90
952.83	1814.09
953.00	1775.18
953.17	2061.89
953.34	2206.69
953.51	1898.47
953.68	1866.72
953.85	2272.43
954.02	2275.70
954.18	1884.13
954.35	1839.49
954.52	1962.57
954.69	2122.31
954.86	1733.81
955.03	1898.06
955.20	2192.96
955.37	2076.23
955.54	1835.18
955.71	1783.37
955.87	2163.68
956.04	2379.94
956.21	1828.22
956.38	1767.60
956.55	2100.19
956.72	2548.70
956.89	1900.92
957.06	1791.77
957.23	1969.12
957.39	2298.03
957.56	1865.70
957.73	1743.64
957.90	1727.26
958.07	2386.50
958.24	1874.30
958.41	1828.63
958.57	2212.01
958.74	2068.45
958.91	1772.11
959.08	1812.66
959.25	2205.66
959.42	2032.20
959.59	1879.83
959.75	1860.58
959.92	2275.09
960.09	2250.10
960.26	1785.62
960.43	1889.05
960.60	2106.95
960.76	2037.32
960.93	1728.28
961.10	1885.36
961.27	2261.57
961.44	2045.10
961.61	1732.79
961.77	1740.77
961.94	2121.49
962.11	2214.47
962.28	1798.53
962.45	1733.40
962.62	2029.74
962.78	2191.74
962.95	1713.54
963.12	1811.84
963.29	2179.04
963.46	2582.90
963.62	1899.90
963.79	1799.75
963.96	2533.95
964.13	2013.77
964.30	1925.50
964.46	1861.19
964.63	1951.10
964.80	2590.68
964.97	1844.81
965.14	2262.60
965.30	2469.85
965.47	2594.57
965.64	2370.93
965.81	2308.88
965.98	2629.59
966.14	2353.12
966.31	2015.20
966.48	1973.63
966.65	2467.19
966.81	2299.25
966.98	1983.66
967.15	1965.23
967.32	2198.49
967.49	2041.42
967.65	1807.33
967.82	1780.30
967.99	2126.61
968.16	1897.85
968.32	2095.07
968.49	1858.33
968.66	2086.47
968.83	2453.26
968.99	1981.82
969.16	1824.54
969.33	2336.32
969.50	2227.17
969.66	1981.41
969.83	2128.04
970.00	2232.49
970.17	2227.37
970.33	1883.11
970.50	1747.12
970.67	2335.71
970.84	2348.41
971.00	1780.09
971.17	1698.38
971.34	2190.10
971.50	2061.69
971.67	1920.99
971.84	1863.04
972.01	1880.44
972.17	1753.27
972.34	1731.56
972.51	1994.93
972.67	2298.03
972.84	2139.31
973.01	1777.64
973.18	1820.85
973.34	2227.58
973.51	1923.04
973.68	1834.98
973.84	1881.47
974.01	2024.01
974.18	2395.71
974.34	1893.76
974.51	1906.66
974.68	1939.63
974.85	2397.76
975.01	1928.78
975.18	1822.08
975.35	2084.63
975.51	1950.28
975.68	1725.62
975.85	1990.42
976.01	1955.81
976.18	2350.86
976.35	1820.44
976.51	1875.12
976.68	2376.67
976.85	2306.01
977.01	1875.73
977.18	1920.38
977.35	2192.56
977.51	1912.80
977.68	1695.92
977.85	1790.74
978.01	2282.26
978.18	2235.77
978.35	1940.86
978.51	1969.53
978.68	2281.64
978.85	2408.00
979.01	1893.76
979.18	1868.57
979.34	2055.34
979.51	2139.51
979.68	1818.39
979.84	1888.43
980.01	2547.88
980.18	2097.32
980.34	1819.42
980.51	1922.43
980.67	2229.01
980.84	2234.33
981.01	1853.21
981.17	1908.30
981.34	1832.73
981.51	2232.08
981.67	1791.36
981.84	1928.37
982.00	2168.18
982.17	2039.98
982.34	1686.09
982.50	1602.95
982.67	2352.91
982.83	1997.18
983.00	1736.47
983.17	1633.26
983.33	2249.28
983.50	1853.00
983.66	1711.90
983.83	1627.32
984.00	2036.09
984.16	2080.12
984.33	1623.22
984.49	1598.64
984.66	1941.27
984.83	2217.95
984.99	1639.60
985.16	1623.22
985.32	2207.92
985.49	2211.81
985.65	1759.61
985.82	1638.99
985.99	2346.36
986.15	2113.50
986.32	1762.69
986.48	1660.90
986.65	2034.04
986.81	2208.53
986.98	1607.86
987.14	1704.93
987.31	2108.79
987.48	1826.58
987.64	1566.90
987.81	1606.84
987.97	2447.94
988.14	1948.64
988.30	1623.42
988.47	1508.53
988.63	2139.92
988.80	1902.15
988.96	1714.15
989.13	1728.49
989.30	2004.35
989.46	2218.77
989.63	1575.91
989.79	1582.67
989.96	2058.62
990.12	2329.77
990.29	1642.68
990.45	1726.64
990.62	2088.93
990.78	2285.74
990.95	1742.82
991.11	1665.61
991.28	1992.26
991.44	2153.03
991.61	1533.31
991.77	1695.10
991.94	2106.54
992.10	2259.73
992.27	1706.98
992.43	1713.13
992.60	2150.78
992.76	2013.77
992.93	1870.82
993.09	1606.22
993.26	2227.58
993.42	2417.63
993.59	1654.35
993.75	1563.42
993.92	1942.70
994.08	1962.98
994.25	1735.86
994.41	1644.72
994.58	2182.11
994.74	2321.78
994.91	1617.08
995.07	1743.23
995.24	2038.96
995.40	2062.30
995.56	1812.66
995.73	1744.87
995.89	2392.03
996.06	2049.81
996.22	1612.37
996.39	1577.55
996.55	2058.00
996.72	2130.09
996.88	1582.26
997.05	1622.81
997.21	2425.00
997.37	2165.93
997.54	1728.69
997.70	1709.64
997.87	2139.92
998.03	2065.17
998.20	1559.94
998.36	1551.54
998.52	2176.17
998.69	2238.63
998.85	1606.84
999.02	1665.20
999.18	2237.41
999.35	2202.80
999.51	1713.54
999.67	1672.78
999.84	1889.05
1000.00	2182.73
1000.17	1751.22
1000.33	1627.73
1000.49	1998.20
1000.66	2041.01
1000.82	1656.40
1000.99	1718.86
1001.15	2291.06
1001.31	2053.50
1001.48	1671.96
1001.64	1740.16
1001.81	2043.87
1001.97	2442.61
1002.13	1672.37
1002.30	1693.67
1002.46	2324.65
1002.63	2029.95
1002.79	1772.31
1002.95	1635.30
1003.12	2239.66
1003.28	2128.25
1003.45	1635.30
1003.61	1616.46
1003.77	2111.66
1003.94	1888.64
1004.10	1660.90
1004.26	1773.75
1004.43	2185.18
1004.59	2356.60
1004.75	1673.80
1004.92	1634.89
1005.08	2008.85
1005.25	2149.55
1005.41	1702.48
1005.57	1762.69
1005.74	2297.00
1005.90	2030.56
1006.06	1836.21
1006.23	1673.80
1006.39	2237.20
1006.55	2579.42
1006.72	1819.21
1006.88	1618.71
1007.04	1973.22
1007.21	2088.72
1007.37	1714.76
1007.53	1657.01
1007.70	2354.75
1007.86	2215.90
1008.02	1763.51
1008.19	1600.69
1008.35	2132.14
1008.51	1955.20
1008.68	1694.28
1008.84	1615.23
1009.00	1947.41
1009.17	2251.33
1009.33	1866.31
1009.49	1777.64
1009.65	1976.90
1009.82	2154.46
1009.98	1738.52
1010.14	1577.55
1010.31	2210.17
1010.47	2175.35
1010.63	1732.99
1010.80	1717.63
1010.96	2165.11
1011.12	2020.73
1011.28	1692.85
1011.45	1641.24
1011.61	2530.27
1011.77	1938.61
1011.94	1625.06
1012.10	1625.47
1012.26	1908.30
1012.42	1986.53
1012.59	1713.54
1012.75	1700.22
1012.91	2034.86
1013.07	2214.26
1013.24	1604.99
1013.40	1632.64
1013.56	2116.78
1013.72	2033.63
1013.89	1717.63
1014.05	1774.97
1014.21	2398.79
1014.37	2498.73
1014.54	1725.00
1014.70	1610.32
1014.86	2046.13
1015.02	1896.62
1015.19	1667.05
1015.35	1611.14
1015.51	2065.99
1015.67	2005.99
1015.84	1669.71
1016.00	1665.41
1016.16	2261.98
1016.32	2200.13
1016.49	1658.45
1016.65	1594.14
1016.81	2052.47
1016.97	2172.49
1017.14	1793.20
1017.30	1672.78
1017.46	1972.19
1017.62	2112.07
1017.78	1735.86
1017.95	1641.45
1018.11	2209.14
1018.27	2509.99
1018.43	1842.15
1018.59	1738.93
1018.76	2213.04
1018.92	2548.90
1019.08	1616.46
1019.24	1675.85
1019.40	2319.32
1019.57	2125.18
1019.73	1760.84
1019.89	1684.25
1020.05	2097.94
1020.21	2457.97
1020.38	1641.04
1020.54	1825.15
1020.70	2170.85
1020.86	2204.43
1021.02	1658.85
1021.18	1647.18
1021.35	1998.00
1021.51	2157.13
1021.67	1837.44
1021.83	1678.92
1021.99	2080.12
1022.15	2129.27
1022.32	1725.41
1022.48	1708.42
1022.64	2314.00
1022.80	2333.05
1022.96	1738.93
1023.12	1600.90
1023.29	2276.11
1023.45	2165.32
1023.61	1630.59
1023.77	1887.41
1023.93	2103.67
1024.09	1948.64
1024.25	1643.70
1024.42	1596.39
1024.58	1994.31
1024.74	2151.60
1024.90	1673.19
1025.06	1746.10
1025.22	1979.57
1025.38	2384.65
1025.54	1625.47
1025.71	1778.66
1025.87	2154.26
1026.03	2165.93
1026.19	1612.78
1026.35	1837.03
1026.51	2165.93
1026.67	2059.44
1026.83	1715.38
1026.99	1810.40
1027.16	2176.38
1027.32	2041.82
1027.48	1707.39
1027.64	1661.93
1027.80	2173.30
1027.96	2095.89
1028.12	1683.23
1028.28	1665.61
1028.44	2144.84
1028.60	2331.61
1028.77	1827.61
1028.93	1710.05
1029.09	1979.98
1029.25	1910.14
1029.41	1722.55
1029.57	1749.58
1029.73	2127.23
1029.89	2312.16
1030.05	1783.99
1030.21	1782.14
1030.37	2479.07
1030.53	2182.93
1030.69	1725.00
1030.85	1601.31
1031.02	1918.74
1031.18	2093.23
1031.34	1664.38
1031.50	1768.63
1031.66	1965.85
1031.82	2323.63
1031.98	1730.74
1032.14	1628.75
1032.30	1914.85
1032.46	2227.37
1032.62	1818.60
1032.78	1597.42
1032.94	2000.25
1033.10	2022.57
1033.26	1735.45
1033.42	1811.02
1033.58	2450.60
1033.74	2004.96
1033.90	1642.06
1034.06	1851.77
1034.22	2458.38
1034.38	2264.44
1034.54	1725.41
1034.70	1737.91
1034.86	2403.91
>>>>>End Processed Spectral Data<<<<<
