SpectraSuite Data File
++++++++++++++++++++++++++++++++++++
Date: Thu Mar 30 16:25:45 PDT 2017
User: UCSD _CER
Dark Spectrum Present: No
Reference Spectrum Present: No
Number of Sampled Component Spectra: 1
Spectrometers: USB4C00073
Integration Time (usec): 250000 (USB4C00073)
Spectra Averaged: 10 (USB4C00073)
Boxcar Smoothing: 0 (USB4C00073)
Correct for Electrical Dark: No (USB4C00073)
Strobe/Lamp Enabled: No (USB4C00073)
Correct for Detector Non-linearity: No (USB4C00073)
Correct for Stray Light: No (USB4C00073)
Number of Pixels in Processed Spectrum: 3648
>>>>>Begin Processed Spectral Data<<<<<
345.37	1266.05
345.58	1266.05
345.80	1266.05
346.01	1274.25
346.22	1298.41
346.43	1997.38
346.65	1769.65
346.86	2134.19
347.07	2097.73
347.28	1807.33
347.50	1803.44
347.71	1926.73
347.92	1705.34
348.13	1797.09
348.35	1727.05
348.56	1925.50
348.77	1780.71
348.98	1815.73
349.20	1678.11
349.41	1913.62
349.62	1976.29
349.83	1870.82
350.05	1708.01
350.26	1949.05
350.47	2086.47
350.68	1768.63
350.90	1719.27
351.11	2100.19
351.32	2054.11
351.53	1797.71
351.75	1726.44
351.96	1942.70
352.17	1904.61
352.38	1867.13
352.60	1873.07
352.81	1937.99
353.02	2116.58
353.23	1772.93
353.44	1808.97
353.66	1851.77
353.87	1877.78
354.08	1884.95
354.29	1823.10
354.51	1824.33
354.72	1871.23
354.93	1774.97
355.14	1733.61
355.35	1743.23
355.57	2033.84
355.78	1809.99
355.99	1852.18
356.20	1939.22
356.42	1907.27
356.63	1890.68
356.84	1807.13
357.05	2023.80
357.26	2192.56
357.48	1903.38
357.69	1846.04
357.90	1953.35
358.11	1854.44
358.32	1815.73
358.54	1844.61
358.75	1837.44
358.96	2024.83
359.17	1785.62
359.38	1799.75
359.60	1974.04
359.81	1885.97
360.02	1796.07
360.23	1773.13
360.44	1832.93
360.66	2043.67
360.87	1753.47
361.08	1774.16
361.29	1954.17
361.50	1912.19
361.72	1784.19
361.93	1846.24
362.14	1905.02
362.35	1753.68
362.56	1876.96
362.77	1739.54
362.99	1993.08
363.20	1907.27
363.41	1852.80
363.62	1712.31
363.83	2006.80
364.05	2015.82
364.26	1703.50
364.47	1763.10
364.68	2059.44
364.89	1819.62
365.10	1728.08
365.32	1820.03
365.53	1812.25
365.74	1866.11
365.95	1794.23
366.16	1694.69
366.37	1892.73
366.59	1894.17
366.80	1790.13
367.01	1665.20
367.22	2161.43
367.43	2286.56
367.64	1795.86
367.86	1802.01
368.07	1954.17
368.28	2078.07
368.49	1723.57
368.70	1846.65
368.91	1870.21
369.12	1913.01
369.34	1681.59
369.55	1711.90
369.76	1887.41
369.97	1863.24
370.18	1732.79
370.39	1755.93
370.60	1752.04
370.82	1801.60
371.03	1785.83
371.24	1741.39
371.45	2009.06
371.66	1966.87
371.87	1801.19
372.08	1753.27
372.30	1765.35
372.51	1997.38
372.72	1883.52
372.93	1751.22
373.14	2092.82
373.35	1796.27
373.56	1774.36
373.78	1825.76
373.99	2011.51
374.20	2297.00
374.41	1783.58
374.62	1809.18
374.83	2082.58
375.04	1845.22
375.25	1787.47
375.47	1765.96
375.68	1869.39
375.89	2006.39
376.10	1801.60
376.31	1871.43
376.52	1967.28
376.73	1952.53
376.94	1809.99
377.15	1789.52
377.37	1904.82
377.58	1894.58
377.79	1682.61
378.00	1758.39
378.21	1954.38
378.42	1989.60
378.63	1818.19
378.84	1865.29
379.05	2011.92
379.27	1934.31
379.48	1932.05
379.69	1732.99
379.90	2062.51
380.11	1686.50
380.32	1807.95
380.53	1883.31
380.74	2067.22
380.95	1940.45
381.16	1795.25
381.37	1764.53
381.59	2086.47
381.80	2012.74
382.01	1776.61
382.22	1691.21
382.43	1975.68
382.64	1919.56
382.85	1730.74
383.06	1853.62
383.27	2009.67
383.48	1882.49
383.69	1832.32
383.91	1735.65
384.12	1979.77
384.33	1967.28
384.54	1826.17
384.75	1700.84
384.96	2274.68
385.17	2026.47
385.38	1768.83
385.59	1784.80
385.80	1976.70
386.01	2096.30
386.22	1881.67
386.43	1815.11
386.64	2176.99
386.86	1900.31
387.07	1913.83
387.28	1713.13
387.49	1839.28
387.70	2050.02
387.91	1868.98
388.12	1726.23
388.33	1972.60
388.54	1846.04
388.75	1777.84
388.96	1830.47
389.17	1848.50
389.38	1864.47
389.59	1868.77
389.80	1822.08
390.01	1867.75
390.22	1857.92
390.43	1880.24
390.64	1668.07
390.86	1943.32
391.07	2041.82
391.28	1809.99
391.49	1833.34
391.70	1760.43
391.91	1808.97
392.12	1802.42
392.33	1800.57
392.54	1925.09
392.75	1871.43
392.96	1877.58
393.17	1760.02
393.38	2198.90
393.59	2039.16
393.80	1725.41
394.01	1841.12
394.22	1933.28
394.43	2206.07
394.64	1807.13
394.85	1949.87
395.06	1948.44
395.27	1956.63
395.48	1831.09
395.69	1724.18
395.90	1872.05
396.11	1908.71
396.32	1782.76
396.53	1879.83
396.74	1864.06
396.95	2026.47
397.16	1765.35
397.37	1713.13
397.58	2011.51
397.79	1923.45
398.00	1854.85
398.21	1797.09
398.42	1941.47
398.63	2162.66
398.84	1822.49
399.05	1772.11
399.26	2046.54
399.47	1964.82
399.68	1645.54
399.89	1736.68
400.10	1776.61
400.31	1856.69
400.52	1824.13
400.73	1786.44
400.94	1720.09
401.15	1974.65
401.36	1811.02
401.57	1839.08
401.78	2031.38
401.99	2003.94
402.20	1720.70
402.41	1930.62
402.62	2112.27
402.83	1863.24
403.04	1745.28
403.25	1936.35
403.46	1971.58
403.67	2118.01
403.88	1867.54
404.09	1854.64
404.30	1907.48
404.51	1872.46
404.72	1776.20
404.93	1910.55
405.14	1831.29
405.35	1890.89
405.56	1803.65
405.77	1783.17
405.98	1921.81
406.19	1898.26
406.40	1762.48
406.61	1759.82
406.82	1814.30
407.03	2169.21
407.24	1720.29
407.45	1818.39
407.66	1954.17
407.87	2055.55
408.08	1826.58
408.29	1882.70
408.49	1968.71
408.70	1886.79
408.91	1815.32
409.12	1882.70
409.33	1766.17
409.54	2066.61
409.75	1781.32
409.96	1797.50
410.17	2004.55
410.38	1871.02
410.59	1772.52
410.80	1889.87
411.01	1872.05
411.22	1897.85
411.43	1870.00
411.64	1747.12
411.85	1819.83
412.06	1779.68
412.27	1619.33
412.47	1777.64
412.68	1914.03
412.89	1966.05
413.10	1763.30
413.31	1711.08
413.52	2144.02
413.73	2158.76
413.94	1753.27
414.15	1920.79
414.36	1857.51
414.57	1784.60
414.78	1751.63
414.99	1986.94
415.19	2363.77
415.40	2364.38
415.61	2491.35
415.82	2330.38
416.03	2373.80
416.24	2242.73
416.45	2018.48
416.66	1876.35
416.87	1791.15
417.08	2044.08
417.29	1791.36
417.50	1888.02
417.70	2043.87
417.91	2056.78
418.12	1944.34
418.33	2002.09
418.54	2171.46
418.75	2287.79
418.96	2271.81
419.17	2358.65
419.38	2754.11
419.59	2702.91
419.79	2557.91
420.00	2482.96
420.21	2743.05
420.42	2220.20
420.63	1995.13
420.84	1986.53
421.05	1948.44
421.26	1926.93
421.47	1727.05
421.67	2073.77
421.88	1801.60
422.09	1743.64
422.30	1943.93
422.51	1809.99
422.72	2132.96
422.93	1985.51
423.14	1814.30
423.35	1672.78
423.55	1712.72
423.76	1806.92
423.97	1822.90
424.18	1687.32
424.39	1904.41
424.60	2037.73
424.81	1867.54
425.02	1982.84
425.22	2022.37
425.43	2013.36
425.64	2167.98
425.85	2076.85
426.06	2419.27
426.27	2286.15
426.48	2231.88
426.68	2202.18
426.89	2309.49
427.10	2384.04
427.31	2005.78
427.52	1857.92
427.73	2046.33
427.94	1989.40
428.14	1910.35
428.35	1807.74
428.56	2080.94
428.77	2048.38
428.98	1896.62
429.19	1916.49
429.40	2008.24
429.60	2091.18
429.81	2122.51
430.02	2029.13
430.23	1989.19
430.44	2062.51
430.65	1838.26
430.85	1859.76
431.06	1991.85
431.27	1713.33
431.48	1832.52
431.69	1822.28
431.90	1924.27
432.10	1917.10
432.31	1859.56
432.52	1812.04
432.73	2382.81
432.94	2315.43
433.15	2158.15
433.35	2056.37
433.56	2211.19
433.77	2029.95
433.98	2042.44
434.19	1897.85
434.40	1975.88
434.60	1958.68
434.81	1838.46
435.02	1893.96
435.23	1923.86
435.44	1857.92
435.64	1712.92
435.85	1774.97
436.06	1859.56
436.27	1840.51
436.48	1715.38
436.68	1769.24
436.89	2114.73
437.10	1978.13
437.31	1843.58
437.52	1900.51
437.73	1924.68
437.93	1917.51
438.14	1876.96
438.35	1689.98
438.56	1845.63
438.77	1893.55
438.97	1924.27
439.18	1756.95
439.39	2013.36
439.60	1768.01
439.80	1705.34
440.01	1813.48
440.22	1822.08
440.43	1994.31
440.64	1695.72
440.84	1851.57
441.05	1778.66
441.26	2262.80
441.47	1864.27
441.68	1775.18
441.88	1853.41
442.09	1884.95
442.30	1942.29
442.51	1856.28
442.71	1867.34
442.92	1896.01
443.13	1757.36
443.34	1749.37
443.55	1804.06
443.75	1983.87
443.96	1778.05
444.17	1737.09
444.38	2048.58
444.58	1792.18
444.79	1868.57
445.00	1822.69
445.21	1901.74
445.41	1886.18
445.62	1628.54
445.83	1888.84
446.04	1913.62
446.24	1766.37
446.45	1634.48
446.66	1803.85
446.87	1959.09
447.07	1844.61
447.28	2010.70
447.49	1824.94
447.70	1998.82
447.90	2030.36
448.11	1823.72
448.32	1889.87
448.53	2076.64
448.73	2084.63
448.94	1803.24
449.15	1926.52
449.36	1922.22
449.56	1952.33
449.77	1788.08
449.98	1736.68
450.19	1894.78
450.39	1938.20
450.60	1949.46
450.81	1926.73
451.02	1976.49
451.22	2138.90
451.43	1808.77
451.64	1835.80
451.84	1881.67
452.05	2095.28
452.26	1861.40
452.47	1840.10
452.67	1854.03
452.88	2112.48
453.09	1770.26
453.30	1742.62
453.50	1997.59
453.71	2077.25
453.92	1785.62
454.12	1870.61
454.33	1819.42
454.54	1877.78
454.75	1715.38
454.95	1755.52
455.16	1925.50
455.37	1999.02
455.57	1820.44
455.78	1811.43
455.99	1894.37
456.19	1930.42
456.40	1737.09
456.61	1840.10
456.82	1908.09
457.02	2010.70
457.23	1862.01
457.44	1997.59
457.64	1812.66
457.85	1949.67
458.06	1810.20
458.26	1833.55
458.47	1873.89
458.68	2023.39
458.89	1768.63
459.09	1942.50
459.30	2197.68
459.51	1956.83
459.71	1729.51
459.92	1805.28
460.13	2011.31
460.33	2192.96
460.54	1779.48
460.75	1824.13
460.95	1769.04
461.16	1950.90
461.37	1801.80
461.57	1858.12
461.78	1920.18
461.99	1793.20
462.19	2042.44
462.40	1781.32
462.61	2194.60
462.81	2052.27
463.02	1765.14
463.23	1813.68
463.43	2022.98
463.64	1874.71
463.85	2756.98
464.05	1824.33
464.26	2334.07
464.47	2076.85
464.67	1985.10
464.88	1881.06
465.09	1817.57
465.29	1910.96
465.50	1924.89
465.71	1843.17
465.91	1838.67
466.12	1909.73
466.33	1863.86
466.53	1815.73
466.74	2056.16
466.94	1885.97
467.15	1824.13
467.36	1991.65
467.56	1785.21
467.77	1937.99
467.98	1848.70
468.18	1780.91
468.39	1871.23
468.60	2152.42
468.80	1846.04
469.01	1771.90
469.21	1998.41
469.42	2021.96
469.63	1867.75
469.83	1799.96
470.04	2043.26
470.25	2126.00
470.45	1891.50
470.66	1800.78
470.86	1971.58
471.07	1874.51
471.28	1922.84
471.48	1983.25
471.69	1937.17
471.90	2375.23
472.10	1811.84
472.31	1816.34
472.51	1813.89
472.72	1832.93
472.93	1764.53
473.13	1922.84
473.34	1931.03
473.54	1914.03
473.75	1824.54
473.96	1998.00
474.16	1911.16
474.37	1987.35
474.57	1894.37
474.78	1836.41
474.99	2011.51
475.19	1993.29
475.40	1813.68
475.60	1750.60
475.81	2070.29
476.02	1883.52
476.22	1874.71
476.43	2019.30
476.63	1910.55
476.84	2124.36
477.05	1698.38
477.25	1783.37
477.46	2290.24
477.66	1926.11
477.87	1742.21
478.08	1823.72
478.28	2029.33
478.49	1894.78
478.69	1770.47
478.90	1825.56
479.10	2002.30
479.31	2127.23
479.52	1889.25
479.72	1957.65
479.93	1980.39
480.13	1859.97
480.34	1806.31
480.54	1906.04
480.75	1799.75
480.96	2074.59
481.16	1771.90
481.37	1940.66
481.57	2003.53
481.78	1966.66
481.98	2009.67
482.19	1879.42
482.40	2154.26
482.60	2003.73
482.81	2000.25
483.01	1829.04
483.22	2050.43
483.42	2070.91
483.63	1955.20
483.83	1913.21
484.04	1868.77
484.24	2030.77
484.45	1880.44
484.66	1706.98
484.86	1990.83
485.07	1826.99
485.27	1876.76
485.48	1771.70
485.68	2075.21
485.89	1816.14
486.09	1910.96
486.30	1811.02
486.50	1932.26
486.71	1954.79
486.91	1945.57
487.12	1977.52
487.33	2229.01
487.53	2223.48
487.74	1959.70
487.94	1948.23
488.15	2082.17
488.35	2144.63
488.56	2000.05
488.76	1932.67
488.97	2030.97
489.17	2045.92
489.38	1902.15
489.58	1867.95
489.79	2019.09
489.99	1970.15
490.20	1880.85
490.40	1931.64
490.61	1973.63
490.81	1876.55
491.02	1883.72
491.22	1925.71
491.43	2049.61
491.63	1932.46
491.84	1978.34
492.04	1749.78
492.25	2001.68
492.45	1879.83
492.66	1809.38
492.86	1731.56
493.07	1885.77
493.27	2168.18
493.48	1738.11
493.68	1881.67
493.89	1896.01
494.09	2030.56
494.30	1795.25
494.50	2068.86
494.71	2014.18
494.91	1809.18
495.12	1871.64
495.32	1992.06
495.53	1984.69
495.73	1749.37
495.94	1861.40
496.14	1712.92
496.35	2137.67
496.55	1876.55
496.76	1811.22
496.96	1878.81
497.17	1918.95
497.37	1986.32
497.58	1809.99
497.78	1741.18
497.98	1897.03
498.19	1902.56
498.39	1881.26
498.60	1924.68
498.80	1757.57
499.01	2030.77
499.21	1796.89
499.42	1884.54
499.62	1885.97
499.83	2188.87
500.03	1731.56
500.24	1915.26
500.44	2077.66
500.64	2049.81
500.85	1826.58
501.05	1941.47
501.26	1737.91
501.46	2086.68
501.67	1802.42
501.87	1730.74
502.08	1828.02
502.28	1860.58
502.48	1941.68
502.69	1969.94
502.89	1778.87
503.10	1862.22
503.30	1934.10
503.51	1902.77
503.71	1786.85
503.92	2046.13
504.12	1949.46
504.32	1910.55
504.53	2083.81
504.73	2101.01
504.94	2057.18
505.14	2144.22
505.35	2145.86
505.55	2129.68
505.75	2063.53
505.96	2124.15
506.16	2280.41
506.37	1945.37
506.57	1857.71
506.78	1952.53
506.98	2098.35
507.18	1802.01
507.39	1796.07
507.59	1901.13
507.80	1881.47
508.00	1978.95
508.20	2046.33
508.41	1914.65
508.61	2104.29
508.82	2047.15
509.02	1988.37
509.22	1799.96
509.43	1796.68
509.63	1880.65
509.84	1879.83
510.04	1772.52
510.24	2113.50
510.45	2019.50
510.65	1763.10
510.86	1917.72
511.06	1796.48
511.26	2018.89
511.47	1980.39
511.67	1854.85
511.88	2004.14
512.08	2076.03
512.28	1776.00
512.49	1958.47
512.69	1939.43
512.90	1939.22
513.10	1824.13
513.30	1896.01
513.51	1971.99
513.71	2089.95
513.91	1914.44
514.12	1910.55
514.32	2056.57
514.53	1914.24
514.73	2012.33
514.93	1957.45
515.14	2052.47
515.34	2266.49
515.54	2156.72
515.75	2188.25
515.95	2324.24
516.15	2319.94
516.36	2089.13
516.56	2048.99
516.77	1752.65
516.97	2054.52
517.17	1925.50
517.38	2023.19
517.58	2179.86
517.78	2009.47
517.99	2133.78
518.19	2191.12
518.39	2413.12
518.60	2224.50
518.80	2079.30
519.00	2150.98
519.21	2030.97
519.41	2233.31
519.61	1863.86
519.82	1997.38
520.02	1998.41
520.22	1980.39
520.43	1923.66
520.63	1953.35
520.83	1915.26
521.04	1800.57
521.24	2118.01
521.44	2093.84
521.65	2139.10
521.85	2330.59
522.05	2118.21
522.26	2051.86
522.46	2311.34
522.66	2114.12
522.87	1927.75
523.07	2064.97
523.27	1941.47
523.48	2179.45
523.68	1988.78
523.88	1947.82
524.09	2144.63
524.29	2062.30
524.49	1864.06
524.70	2163.68
524.90	2279.59
525.10	2190.10
525.31	1932.26
525.51	1868.57
525.71	2082.78
525.91	2020.32
526.12	1856.89
526.32	1777.64
526.52	1892.53
526.73	1850.54
526.93	1932.46
527.13	1747.74
527.34	1898.47
527.54	1956.01
527.74	1887.61
527.94	1814.71
528.15	1827.40
528.35	1964.82
528.55	1983.46
528.76	1941.47
528.96	1715.38
529.16	2050.63
529.36	1986.53
529.57	1788.29
529.77	2082.99
529.97	1801.19
530.18	1943.93
530.38	1847.68
530.58	1981.00
530.78	1942.09
530.99	1861.60
531.19	1977.52
531.39	1835.80
531.60	1942.91
531.80	1859.35
532.00	1991.44
532.20	1969.33
532.41	1836.21
532.61	1849.11
532.81	1861.40
533.01	1875.73
533.22	1996.16
533.42	1978.75
533.62	1713.95
533.82	2096.71
534.03	1896.83
534.23	1941.27
534.43	1792.79
534.63	1877.37
534.84	1958.88
535.04	1904.41
535.24	1892.53
535.44	2236.79
535.65	1864.47
535.85	1819.01
536.05	1823.92
536.25	1898.26
536.46	1825.76
536.66	2070.29
536.86	1953.76
537.06	2044.08
537.27	2111.05
537.47	1987.14
537.67	1895.19
537.87	2124.56
538.08	1887.20
538.28	1800.57
538.48	1812.86
538.68	1922.02
538.88	2034.25
539.09	1771.70
539.29	1910.55
539.49	2051.45
539.69	1971.17
539.90	1954.99
540.10	1831.70
540.30	2105.52
540.50	1921.40
540.70	1815.32
540.91	1953.15
541.11	2095.89
541.31	2208.73
541.51	2049.40
541.72	2094.66
541.92	2119.85
542.12	1990.42
542.32	1933.90
542.52	1902.15
542.73	1897.65
542.93	2025.24
543.13	1907.89
543.33	2041.42
543.53	2116.99
543.74	2115.96
543.94	1994.11
544.14	2131.12
544.34	2285.12
544.54	2144.63
544.75	2227.17
544.95	2385.06
545.15	2282.67
545.35	2363.56
545.55	2134.39
545.75	1971.17
545.96	2323.63
546.16	1890.28
546.36	1924.48
546.56	1971.37
546.76	2125.79
546.97	2173.30
547.17	1915.67
547.37	1984.89
547.57	1868.36
547.77	2023.80
547.97	1934.10
548.18	1969.74
548.38	1970.76
548.58	2371.55
548.78	2307.86
548.98	2541.53
549.18	2853.03
549.39	2973.65
549.59	2697.99
549.79	2444.05
549.99	2569.38
550.19	2436.88
550.39	2292.50
550.60	2145.66
550.80	2153.23
551.00	2147.91
551.20	1988.78
551.40	1923.66
551.60	2041.62
551.80	2024.83
552.01	2048.99
552.21	1967.48
552.41	1996.16
552.61	2198.90
552.81	1961.95
553.01	1820.03
553.21	2019.91
553.42	1841.12
553.62	1866.52
553.82	1815.11
554.02	2129.07
554.22	2010.70
554.42	1826.17
554.62	1938.20
554.83	2256.66
555.03	2416.60
555.23	2296.80
555.43	2669.12
555.63	2579.62
555.83	2486.03
556.03	2270.79
556.23	2094.25
556.44	2283.89
556.64	2364.38
556.84	1980.18
557.04	2166.55
557.24	2192.35
557.44	2136.85
557.64	2030.36
557.84	1918.33
558.04	1942.91
558.25	2053.91
558.45	1897.65
558.65	1971.37
558.85	1997.38
559.05	1813.27
559.25	1938.40
559.45	2106.13
559.65	2450.19
559.85	2885.18
560.05	2316.66
560.26	2379.13
560.46	2372.78
560.66	2261.98
560.86	2125.18
561.06	2015.00
561.26	2285.53
561.46	2157.33
561.66	1975.88
561.86	2088.31
562.06	1939.43
562.26	1976.90
562.47	1965.03
562.67	1841.94
562.87	2037.93
563.07	1814.09
563.27	1967.89
563.47	1987.96
563.67	1926.73
563.87	2076.64
564.07	1948.64
564.27	2048.79
564.47	2141.36
564.67	2170.44
564.87	2053.70
565.08	2138.90
565.28	2025.85
565.48	2148.93
565.68	2084.01
565.88	2035.27
566.08	2195.22
566.28	1951.71
566.48	1785.42
566.68	1925.30
566.88	1893.96
567.08	2051.86
567.28	1904.00
567.48	1934.31
567.68	2073.77
567.88	1845.83
568.08	2049.61
568.28	2135.83
568.48	1982.84
568.68	2166.96
568.89	2014.79
569.09	1798.12
569.29	2078.48
569.49	2049.20
569.69	1826.79
569.89	1840.30
570.09	1725.62
570.29	1837.03
570.49	1730.53
570.69	1814.30
570.89	2039.37
571.09	2174.53
571.29	1768.01
571.49	2025.24
571.69	1954.58
571.89	1971.37
572.09	1830.47
572.29	1851.36
572.49	1991.04
572.69	1995.95
572.89	1908.09
573.09	1703.91
573.29	2030.97
573.49	2079.30
573.69	2028.51
573.89	2108.59
574.09	1927.96
574.29	2137.26
574.49	1897.44
574.69	1850.54
574.89	1808.56
575.09	1825.56
575.29	1819.01
575.49	1903.79
575.69	1996.16
575.89	1762.07
576.09	1908.09
576.29	1902.97
576.49	1824.33
576.69	1934.31
576.89	1880.24
577.09	1934.10
577.29	1787.26
577.49	2210.99
577.69	1852.18
577.89	1998.41
578.09	1949.46
578.29	1757.77
578.49	1909.73
578.69	1813.27
578.89	2034.04
579.09	1933.90
579.29	1805.69
579.49	2021.14
579.69	1893.55
579.89	2175.35
580.09	1743.03
580.29	1753.68
580.49	1863.65
580.69	1804.26
580.89	1874.92
581.09	1835.59
581.29	1882.49
581.49	1882.90
581.69	1793.61
581.89	1804.67
582.09	1811.02
582.28	1792.18
582.48	2018.68
582.68	2099.17
582.88	2142.58
583.08	1985.10
583.28	1975.68
583.48	1944.34
583.68	1870.82
583.88	1951.10
584.08	1933.90
584.28	1890.48
584.48	2170.64
584.68	1986.32
584.88	1883.11
585.08	2039.98
585.28	2039.98
585.48	2110.02
585.68	2008.65
585.87	2015.41
586.07	2015.00
586.27	1927.34
586.47	1995.75
586.67	1941.06
586.87	1911.78
587.07	1886.79
587.27	1795.45
587.47	1939.43
587.67	2192.76
587.87	2489.51
588.07	2262.80
588.27	2222.05
588.46	2459.41
588.66	2502.00
588.86	2212.63
589.06	2211.40
589.26	2222.87
589.46	2154.26
589.66	1905.23
589.86	1866.93
590.06	1980.59
590.26	2100.19
590.46	2028.10
590.66	2157.33
590.85	2069.68
591.05	2160.61
591.25	1979.57
591.45	1984.89
591.65	2119.24
591.85	2108.38
592.05	2014.79
592.25	2219.18
592.45	2273.45
592.64	2097.32
592.84	2105.52
593.04	1953.97
593.24	2391.21
593.44	1999.84
593.64	2083.40
593.84	2101.63
594.04	2011.31
594.24	2232.70
594.43	1918.13
594.63	1976.90
594.83	2088.52
595.03	2073.57
595.23	1833.96
595.43	1758.59
595.63	1835.59
595.83	2045.92
596.02	1721.11
596.22	1912.19
596.42	1995.75
596.62	1971.17
596.82	1889.46
597.02	2028.31
597.22	2135.62
597.41	1976.90
597.61	1867.34
597.81	2031.38
598.01	2085.86
598.21	1963.80
598.41	1947.41
598.61	1904.82
598.80	1988.78
599.00	2054.11
599.20	2081.15
599.40	1957.24
599.60	1976.70
599.80	2107.16
599.99	2100.60
600.19	1944.96
600.39	1989.60
600.59	2062.51
600.79	1984.07
600.99	1954.79
601.19	2161.84
601.38	2227.17
601.58	2030.77
601.78	1772.52
601.98	2191.53
602.18	2684.48
602.37	3165.75
602.57	3257.50
602.77	3562.03
602.97	3640.47
603.17	3510.42
603.37	3305.63
603.56	3366.04
603.76	3243.37
603.96	3164.11
604.16	3011.95
604.36	2886.00
604.56	2719.91
604.75	2346.77
604.95	2328.95
605.15	2486.64
605.35	2349.63
605.55	2095.89
605.74	2047.35
605.94	2230.85
606.14	2063.94
606.34	2032.61
606.54	1930.21
606.73	1924.48
606.93	2048.38
607.13	1878.81
607.33	1964.21
607.53	2155.90
607.72	2070.91
607.92	1995.75
608.12	2039.57
608.32	1937.79
608.51	2036.30
608.71	1897.03
608.91	2015.61
609.11	2106.13
609.31	2033.84
609.50	2140.33
609.70	2319.12
609.90	2299.05
610.10	2287.38
610.29	2140.74
610.49	2020.12
610.69	2184.57
610.89	2081.76
611.09	2076.44
611.28	2130.91
611.48	2117.39
611.68	1974.24
611.88	1906.04
612.07	1881.67
612.27	2097.32
612.47	1910.14
612.67	1972.19
612.86	2047.76
613.06	1950.90
613.26	1789.11
613.46	1912.80
613.65	2013.36
613.85	2400.01
614.05	2161.43
614.25	2138.90
614.44	2026.47
614.64	2068.24
614.84	1984.69
615.04	1971.37
615.23	1984.07
615.43	2120.88
615.63	2098.35
615.83	1926.11
616.02	1889.66
616.22	2189.28
616.42	2034.66
616.62	2070.50
616.81	2162.45
617.01	2229.62
617.21	2156.92
617.41	1996.36
617.60	2051.25
617.80	2084.83
618.00	2087.49
618.19	2030.97
618.39	1989.60
618.59	2028.10
618.79	1917.31
618.98	1748.76
619.18	1874.92
619.38	2198.08
619.57	1866.72
619.77	1875.94
619.97	1877.78
620.17	1895.19
620.36	1887.61
620.56	2135.42
620.76	1965.64
620.95	2011.51
621.15	2051.45
621.35	1983.46
621.54	2005.17
621.74	2042.03
621.94	1896.83
622.14	1871.64
622.33	1819.01
622.53	1943.93
622.73	1901.13
622.92	1789.72
623.12	1901.95
623.32	2184.98
623.51	2022.57
623.71	1747.33
623.91	2019.91
624.10	1800.16
624.30	1941.68
624.50	1780.91
624.69	1783.99
624.89	2405.95
625.09	1884.75
625.29	1712.31
625.48	1784.19
625.68	1925.91
625.88	2047.35
626.07	1931.64
626.27	1778.46
626.47	1841.94
626.66	1736.06
626.86	1851.98
627.06	1875.32
627.25	1886.18
627.45	2099.58
627.64	1848.29
627.84	2047.15
628.04	1806.10
628.23	2154.67
628.43	1817.57
628.63	1860.17
628.82	1909.12
629.02	2248.46
629.22	2101.01
629.41	2191.94
629.61	2030.15
629.81	2335.71
630.00	1984.07
630.20	1931.03
630.40	2124.77
630.59	2147.09
630.79	2053.91
630.98	1995.13
631.18	1966.25
631.38	1937.79
631.57	2034.66
631.77	1786.85
631.97	1954.79
632.16	1968.92
632.36	1930.21
632.56	1915.67
632.75	1944.55
632.95	2042.85
633.14	1757.16
633.34	2029.33
633.54	1704.11
633.73	1845.22
633.93	1819.42
634.12	1733.20
634.32	2226.35
634.52	1913.83
634.71	1755.31
634.91	1923.45
635.11	1758.39
635.30	1794.84
635.50	1921.20
635.69	1817.98
635.89	2175.35
636.09	2070.70
636.28	1829.86
636.48	1851.36
636.67	2041.82
636.87	2042.03
637.07	1962.77
637.26	1855.66
637.46	1975.47
637.65	2084.22
637.85	1973.42
638.04	1880.65
638.24	1925.71
638.44	1995.75
638.63	1929.80
638.83	1882.49
639.02	1974.65
639.22	1998.61
639.42	1893.76
639.61	1881.26
639.81	1950.28
640.00	1870.82
640.20	1963.39
640.39	1960.52
640.59	2313.80
640.79	2264.23
640.98	2237.82
641.18	2215.49
641.37	2290.04
641.57	2133.98
641.76	2106.95
641.96	1907.48
642.15	2092.20
642.35	1981.20
642.55	2016.63
642.74	1875.73
642.94	2050.22
643.13	2131.32
643.33	1874.51
643.52	1821.67
643.72	1849.32
643.91	1897.24
644.11	1820.85
644.31	1788.29
644.50	1809.38
644.70	2050.84
644.89	1858.74
645.09	1922.22
645.28	1913.83
645.48	1962.98
645.67	1790.74
645.87	1709.64
646.06	1879.83
646.26	1949.26
646.45	1679.33
646.65	1680.77
646.84	2141.77
647.04	1901.54
647.24	1750.81
647.43	1907.89
647.63	1905.84
647.82	2083.60
648.02	1753.68
648.21	1816.96
648.41	2071.93
648.60	1859.15
648.80	1999.02
648.99	1878.60
649.19	1824.74
649.38	1721.93
649.58	1907.48
649.77	1885.97
649.97	2013.56
650.16	1963.39
650.36	1660.70
650.55	1986.53
650.75	1921.61
650.94	2096.71
651.14	1876.55
651.33	1908.50
651.53	2113.91
651.72	1815.32
651.92	1860.37
652.11	1687.94
652.31	1932.87
652.50	1956.01
652.70	1927.96
652.89	1746.51
653.09	2112.68
653.28	1915.06
653.48	1714.35
653.67	1758.39
653.87	2301.71
654.06	1933.08
654.25	2043.67
654.45	1810.20
654.64	1879.22
654.84	1879.63
655.03	1663.57
655.23	1979.77
655.42	1968.10
655.62	2091.39
655.81	1901.33
656.01	1763.10
656.20	2009.47
656.40	2077.46
656.59	1892.53
656.79	2025.44
656.98	1931.64
657.17	2001.48
657.37	1907.07
657.56	1814.09
657.76	1947.00
657.95	2023.60
658.15	1597.42
658.34	1879.22
658.54	1883.52
658.73	1781.12
658.92	1863.24
659.12	1911.57
659.31	1990.01
659.51	1813.89
659.70	2009.67
659.90	1914.24
660.09	2088.72
660.29	1943.32
660.48	1862.42
660.67	2081.35
660.87	1856.48
661.06	2008.24
661.26	1995.75
661.45	1967.89
661.65	1976.49
661.84	1852.18
662.03	1834.57
662.23	1839.28
662.42	2176.79
662.62	1781.73
662.81	1763.92
663.00	1825.56
663.20	1915.06
663.39	1948.44
663.59	1971.58
663.78	1843.79
663.97	1851.57
664.17	1987.96
664.36	1735.45
664.56	1780.09
664.75	1967.48
664.94	1954.58
665.14	1898.06
665.33	1889.66
665.53	1959.29
665.72	1917.92
665.91	2042.23
666.11	1911.16
666.30	1951.92
666.50	1874.51
666.69	1944.75
666.88	1856.89
667.08	1948.44
667.27	1864.88
667.47	1872.87
667.66	1852.39
667.85	1997.59
668.05	1922.02
668.24	1795.66
668.43	2009.47
668.63	1828.22
668.82	2028.10
669.02	1941.06
669.21	1903.59
669.40	1775.59
669.60	2133.98
669.79	1743.03
669.98	2335.50
670.18	1782.35
670.37	1775.18
670.56	1859.15
670.76	1910.96
670.95	1915.26
671.15	2030.36
671.34	1978.54
671.53	1947.21
671.73	1858.94
671.92	1840.92
672.11	1774.77
672.31	1867.54
672.50	1940.25
672.69	1773.34
672.89	1659.88
673.08	1822.90
673.27	2002.71
673.47	1928.78
673.66	1924.07
673.85	1777.23
674.05	1989.40
674.24	2158.97
674.43	2150.16
674.63	2457.15
674.82	2753.90
675.01	2283.69
675.21	2498.11
675.40	2275.91
675.59	2223.07
675.79	2451.21
675.98	2130.71
676.17	2258.30
676.37	2191.12
676.56	2068.86
676.75	2048.99
676.95	1996.36
677.14	1941.47
677.33	2072.95
677.52	1796.48
677.72	1870.82
677.91	1938.40
678.10	1742.00
678.30	1791.36
678.49	1770.06
678.68	2158.56
678.88	1703.71
679.07	2003.12
679.26	1822.28
679.45	2099.99
679.65	2039.98
679.84	1703.09
680.03	1714.97
680.23	1865.90
680.42	2229.42
680.61	1785.62
680.81	1834.37
681.00	1900.92
681.19	1960.73
681.38	1980.80
681.58	1965.23
681.77	1887.61
681.96	2021.75
682.15	1860.99
682.35	1967.07
682.54	1980.80
682.73	1778.46
682.93	1811.43
683.12	1804.67
683.31	1975.88
683.50	2246.21
683.70	1811.63
683.89	1883.31
684.08	1803.24
684.27	2034.66
684.47	1726.64
684.66	1883.11
684.85	2145.66
685.04	2053.91
685.24	1809.59
685.43	1877.58
685.62	1708.62
685.81	1963.59
686.01	2012.33
686.20	2020.12
686.39	2042.44
686.58	2506.10
686.78	2293.93
686.97	2311.13
687.16	2300.48
687.35	2189.89
687.55	2084.83
687.74	2079.51
687.93	1984.28
688.12	2102.04
688.32	2057.39
688.51	1845.22
688.70	2060.46
688.89	1843.58
689.08	1804.26
689.28	1833.14
689.47	1959.50
689.66	1959.70
689.85	1971.58
690.05	1846.24
690.24	1834.57
690.43	1938.40
690.62	1901.33
690.81	1817.37
691.01	1936.56
691.20	1859.76
691.39	1787.88
691.58	1922.43
691.77	2145.66
691.97	1918.74
692.16	1917.51
692.35	1874.51
692.54	1877.99
692.73	2032.61
692.93	1991.85
693.12	2060.87
693.31	2087.08
693.50	2060.67
693.69	2075.62
693.89	1953.97
694.08	2167.98
694.27	2191.12
694.46	1896.62
694.65	1965.03
694.85	2055.96
695.04	2039.57
695.23	1948.23
695.42	2335.71
695.61	2552.79
695.80	2788.72
696.00	2971.19
696.19	3017.27
696.38	2655.19
696.57	2571.02
696.76	2545.42
696.95	2387.93
697.15	2535.59
697.34	2462.68
697.53	2153.85
697.72	2152.62
697.91	2113.09
698.10	2254.81
698.30	1956.42
698.49	1965.64
698.68	2019.71
698.87	1914.65
699.06	1810.40
699.25	1900.31
699.45	2063.53
699.64	1928.37
699.83	1993.49
700.02	1813.07
700.21	1958.06
700.40	1828.63
700.59	1879.63
700.79	1830.06
700.98	1975.47
701.17	1840.51
701.36	1811.02
701.55	1812.45
701.74	2066.81
701.93	1943.11
702.12	2207.71
702.32	2212.83
702.51	2507.74
702.70	2503.23
702.89	2356.80
703.08	2175.15
703.27	2367.66
703.46	2263.42
703.65	2101.63
703.85	1966.46
704.04	2020.53
704.23	2191.33
704.42	1914.65
704.61	1923.45
704.80	2169.82
704.99	1847.06
705.18	1950.49
705.37	1876.96
705.57	2169.82
705.76	2573.68
705.95	2572.25
706.14	3025.05
706.33	3166.16
706.52	3288.22
706.71	2769.47
706.90	2496.88
707.09	2563.44
707.28	2475.38
707.47	2263.21
707.67	2368.89
707.86	2162.66
708.05	2350.45
708.24	2115.55
708.43	2073.16
708.62	1979.77
708.81	1892.12
709.00	1786.85
709.19	1788.29
709.38	2049.81
709.57	1812.45
709.76	1938.81
709.96	1907.07
710.15	2141.56
710.34	2010.08
710.53	2048.99
710.72	1908.30
710.91	2097.94
711.10	1987.55
711.29	1983.25
711.48	1870.41
711.67	1814.91
711.86	2007.83
712.05	1839.08
712.24	1846.45
712.43	1995.54
712.62	2107.16
712.81	1942.29
713.00	2046.33
713.19	1790.95
713.39	1969.33
713.58	1772.52
713.77	1893.35
713.96	2010.90
714.15	1939.02
714.34	1902.97
714.53	1802.42
714.72	2192.15
714.91	1852.59
715.10	1971.99
715.29	1861.60
715.48	2333.25
715.67	2048.99
715.86	1991.04
716.05	1900.31
716.24	1910.14
716.43	1871.64
716.62	1813.48
716.81	1791.36
717.00	1903.79
717.19	2137.46
717.38	1925.91
717.57	1869.80
717.76	1736.47
717.95	2030.97
718.14	1893.55
718.33	1845.42
718.52	1711.69
718.71	1754.29
718.90	1753.68
719.09	1831.09
719.28	1903.79
719.47	2018.89
719.66	2042.23
719.85	2049.81
720.04	2008.85
720.23	2045.51
720.42	1936.76
720.61	2050.02
720.80	1811.84
720.99	2003.94
721.18	1899.29
721.37	1850.54
721.56	1896.21
721.75	2036.30
721.94	1790.54
722.13	1909.73
722.32	1868.57
722.51	2023.39
722.70	1867.13
722.89	1938.61
723.08	1882.90
723.27	2030.15
723.46	1928.37
723.65	1848.91
723.84	1814.91
724.03	2054.93
724.22	1763.71
724.41	1899.90
724.60	1858.12
724.79	1999.43
724.98	1937.38
725.16	1844.81
725.35	1977.31
725.54	1800.16
725.73	1888.84
725.92	1899.90
726.11	1941.06
726.30	2155.90
726.49	1950.28
726.68	2075.82
726.87	2159.38
727.06	2255.84
727.25	1992.06
727.44	2096.10
727.63	2029.33
727.82	1975.06
728.01	2013.77
728.20	2053.50
728.38	2159.17
728.57	1916.28
728.76	1935.54
728.95	2024.83
729.14	1785.83
729.33	1763.71
729.52	1668.48
729.71	1803.24
729.90	1804.47
730.09	1886.18
730.28	1919.15
730.47	1898.67
730.66	2160.81
730.84	2059.44
731.03	2033.63
731.22	2040.19
731.41	1997.18
731.60	2030.56
731.79	1765.55
731.98	1865.09
732.17	2048.38
732.36	1983.46
732.55	1856.89
732.73	1777.43
732.92	2080.33
733.11	1950.90
733.30	1826.58
733.49	1723.37
733.68	1993.29
733.87	1939.22
734.06	1835.59
734.25	1938.61
734.43	2043.87
734.62	2186.41
734.81	2155.08
735.00	2172.08
735.19	2122.51
735.38	2143.40
735.57	1915.67
735.76	2078.07
735.94	2185.39
736.13	2619.76
736.32	2556.89
736.51	2582.08
736.70	2948.67
736.89	2949.69
737.08	2786.88
737.27	2987.37
737.45	3526.60
737.64	3543.81
737.83	3840.56
738.02	3864.93
738.21	3835.23
738.40	3482.57
738.59	3067.45
738.77	3035.09
738.96	2785.44
739.15	2726.05
739.34	2669.12
739.53	2544.60
739.72	2530.47
739.90	2439.95
740.09	2130.71
740.28	2123.33
740.47	2161.22
740.66	2125.18
740.85	1903.38
741.03	1942.70
741.22	1850.34
741.41	1929.60
741.60	1781.32
741.79	1997.79
741.98	2147.70
742.16	2211.40
742.35	2049.81
742.54	1990.83
742.73	2311.13
742.92	2047.97
743.10	1943.32
743.29	2024.62
743.48	2349.63
743.67	1978.95
743.86	1845.22
744.05	1862.83
744.23	1898.26
744.42	1861.60
744.61	1935.33
744.80	1835.18
744.99	1877.37
745.17	1713.33
745.36	1744.05
745.55	1927.34
745.74	1897.03
745.93	1792.18
746.11	1812.04
746.30	1761.05
746.49	2035.48
746.68	1785.21
746.86	1863.45
747.05	1836.21
747.24	1957.86
747.43	1994.72
747.62	1787.67
747.80	1882.70
747.99	2123.33
748.18	2062.30
748.37	1998.41
748.56	1991.44
748.74	2066.61
748.93	1952.74
749.12	2129.68
749.31	2568.15
749.49	2916.10
749.68	3169.03
749.87	3405.57
750.06	3416.22
750.24	3469.46
750.43	3654.60
750.62	3898.10
750.81	4118.06
750.99	4327.15
751.18	4289.27
751.37	3771.74
751.56	3486.46
751.74	3636.17
751.93	3591.32
752.12	2861.01
752.31	2724.62
752.49	2622.83
752.68	2771.72
752.87	2446.91
753.06	2263.62
753.24	2176.58
753.43	2273.86
753.62	2012.95
753.81	1937.58
753.99	2171.05
754.18	2052.27
754.37	1828.84
754.55	1929.19
754.74	2167.16
754.93	1740.98
755.12	1854.85
755.30	1790.33
755.49	2027.08
755.68	1943.93
755.86	1927.34
756.05	1778.87
756.24	2071.11
756.43	1749.78
756.61	1772.52
756.80	1921.40
756.99	2069.68
757.17	1861.60
757.36	1754.29
757.55	1867.13
757.74	1986.53
757.92	1888.02
758.11	1770.06
758.30	1682.41
758.48	1852.59
758.67	1758.59
758.86	1881.06
759.04	1736.88
759.23	1840.10
759.42	1877.78
759.60	1822.90
759.79	1865.29
759.98	1861.60
760.16	1794.02
760.35	1785.01
760.54	1746.30
760.73	1923.04
760.91	1724.59
761.10	1885.97
761.29	1911.98
761.47	1886.18
761.66	2159.17
761.85	1915.67
762.03	2028.10
762.22	2511.01
762.41	3857.35
762.59	5351.96
762.78	6069.56
762.97	7294.86
763.15	7683.36
763.34	7064.06
763.52	5607.54
763.71	5279.87
763.90	5053.98
764.08	4713.20
764.27	4452.49
764.46	4352.75
764.64	3860.63
764.83	3579.23
765.02	3338.39
765.20	3095.50
765.39	2865.52
765.58	2366.43
765.76	2312.98
765.95	2201.77
766.13	2073.16
766.32	1999.02
766.51	1980.80
766.69	2534.98
766.88	1952.53
767.07	1797.50
767.25	1704.93
767.44	2052.27
767.62	2047.97
767.81	1827.81
768.00	1913.01
768.18	1931.03
768.37	1851.36
768.56	1742.00
768.74	1844.81
768.93	1750.60
769.11	1978.75
769.30	1882.90
769.49	1821.87
769.67	1887.82
769.86	1847.06
770.04	1835.18
770.23	1848.09
770.42	2081.35
770.60	1906.66
770.79	1781.12
770.97	1820.64
771.16	2206.89
771.35	2504.26
771.53	2846.68
771.72	3058.85
771.90	3397.58
772.09	3677.13
772.27	3361.74
772.46	2832.75
772.65	2981.23
772.83	2794.04
773.02	2759.64
773.20	2546.85
773.39	2587.40
773.58	2537.43
773.76	2217.75
773.95	2221.43
774.13	2239.66
774.32	2070.09
774.50	1956.83
774.69	1981.20
774.87	1906.25
775.06	2196.65
775.25	1808.97
775.43	1867.34
775.62	1915.06
775.80	1962.57
775.99	1939.63
776.17	1799.14
776.36	1872.66
776.54	2004.76
776.73	1773.54
776.92	1887.20
777.10	1986.94
777.29	1940.04
777.47	1760.84
777.66	1800.78
777.84	1923.86
778.03	1825.97
778.21	1759.41
778.40	1872.05
778.58	1945.37
778.77	2011.92
778.95	1745.28
779.14	1786.24
779.32	2116.58
779.51	1977.93
779.70	1854.03
779.88	1742.41
780.07	1845.22
780.25	2217.13
780.44	1839.69
780.62	1993.08
780.81	1974.86
780.99	1927.55
781.18	1797.71
781.36	1817.98
781.55	1859.56
781.73	2081.56
781.92	1748.56
782.10	1747.94
782.29	1958.88
782.47	2081.35
782.66	1883.31
782.84	1729.92
783.03	1810.20
783.21	2020.12
783.40	1842.15
783.58	1806.72
783.77	1809.79
783.95	1844.40
784.14	1793.20
784.32	1876.55
784.51	2047.56
784.69	1816.96
784.88	1742.21
785.06	1892.12
785.24	1768.83
785.43	2010.90
785.61	1967.07
785.80	1798.53
785.98	1994.52
786.17	1919.56
786.35	1798.12
786.54	1932.87
786.72	2022.78
786.91	2054.52
787.09	1854.23
787.28	1752.65
787.46	1911.57
787.65	2008.24
787.83	1786.03
788.01	1884.75
788.20	1786.03
788.38	1930.21
788.57	1838.87
788.75	1879.22
788.94	2171.26
789.12	2067.83
789.31	1923.04
789.49	1978.75
789.67	1857.71
789.86	1956.63
790.04	1790.33
790.23	1742.41
790.41	2222.46
790.60	1902.77
790.78	1884.75
790.96	1912.19
791.15	2014.59
791.33	1877.58
791.52	1870.00
791.70	1807.13
791.89	1893.96
792.07	2021.35
792.25	1868.57
792.44	1727.87
792.62	2028.72
792.81	1840.92
792.99	1850.75
793.17	1811.22
793.36	1810.20
793.54	2200.54
793.73	2359.87
793.91	2517.77
794.10	2904.63
794.28	3169.85
794.46	3037.55
794.65	3045.33
794.83	2652.32
795.01	2619.15
795.20	2709.87
795.38	2498.73
795.57	2491.56
795.75	2456.33
795.93	2288.81
796.12	2284.71
796.30	2306.01
796.49	2260.14
796.67	1996.97
796.85	2119.65
797.04	2051.86
797.22	2039.16
797.40	1815.11
797.59	1932.46
797.77	1945.78
797.96	1801.19
798.14	1827.20
798.32	1834.16
798.51	1976.29
798.69	2132.55
798.87	1882.70
799.06	1843.99
799.24	1737.09
799.42	2095.48
799.61	2191.12
799.79	2322.40
799.98	2703.93
800.16	2618.33
800.34	3000.68
800.53	3474.58
800.71	3571.04
800.89	4179.29
801.08	4160.04
801.26	4117.24
801.44	3647.84
801.63	3213.47
801.81	3177.42
801.99	3030.99
802.18	2926.55
802.36	2846.88
802.54	2728.51
802.73	2467.60
802.91	2475.18
803.09	2387.73
803.28	2353.12
803.46	2262.80
803.64	2374.41
803.83	1930.82
804.01	1883.11
804.19	1838.67
804.38	2073.77
804.56	2004.35
804.74	1907.07
804.92	1942.70
805.11	1816.55
805.29	2066.40
805.47	1890.28
805.66	1776.20
805.84	1771.29
806.02	2045.72
806.21	1856.28
806.39	2014.38
806.57	2008.24
806.76	2008.65
806.94	1920.38
807.12	1856.07
807.30	1840.71
807.49	1962.98
807.67	1929.39
807.85	2020.12
808.04	2041.62
808.22	2229.62
808.40	1808.15
808.58	1809.59
808.77	1970.56
808.95	2140.33
809.13	2080.12
809.31	2852.82
809.50	3501.21
809.68	3916.13
809.86	4069.31
810.05	4279.85
810.23	4810.27
810.41	5724.48
810.59	8637.51
810.78	10451.81
810.96	11885.80
811.14	12768.88
811.32	12406.19
811.51	10267.08
811.69	8568.50
811.87	8528.97
812.05	7500.89
812.24	7149.05
812.42	6739.66
812.60	6206.16
812.78	5315.50
812.97	4722.00
813.15	4556.53
813.33	4047.61
813.51	3665.04
813.70	3027.10
813.88	2735.88
814.06	2538.46
814.24	2339.80
814.42	2016.23
814.61	2120.67
814.79	2251.54
814.97	1804.47
815.15	1886.79
815.34	1999.23
815.52	2028.10
815.70	1805.90
815.88	1833.55
816.06	1803.44
816.25	1847.06
816.43	1794.64
816.61	1962.36
816.79	2099.37
816.98	1748.15
817.16	1819.42
817.34	1794.23
817.52	1979.77
817.70	2131.32
817.89	1866.72
818.07	1787.26
818.25	1886.79
818.43	1927.55
818.61	1863.86
818.80	1809.79
818.98	2123.54
819.16	1938.81
819.34	1771.29
819.52	2059.23
819.70	1798.73
819.89	1907.48
820.07	1736.68
820.25	1711.49
820.43	1942.29
820.61	2015.20
820.80	1865.49
820.98	1765.76
821.16	1703.30
821.34	1738.11
821.52	1838.67
821.70	1860.78
821.89	1897.65
822.07	1849.93
822.25	1814.09
822.43	1775.38
822.61	2075.41
822.79	1953.97
822.98	1851.57
823.16	1684.04
823.34	1918.33
823.52	2046.54
823.70	1987.76
823.88	1723.57
824.06	1969.94
824.25	1862.83
824.43	1979.36
824.61	1793.61
824.79	1930.42
824.97	1945.78
825.15	2035.07
825.33	2234.33
825.52	2466.57
825.70	2513.06
825.88	2552.18
826.06	2700.86
826.24	2745.92
826.42	2642.08
826.60	2421.11
826.78	2431.35
826.97	2285.94
827.15	2433.60
827.33	2127.84
827.51	2237.20
827.69	2084.63
827.87	2145.45
828.05	2127.02
828.23	1918.13
828.41	2120.06
828.60	2062.51
828.78	1796.48
828.96	1964.41
829.14	1855.87
829.32	1875.32
829.50	1804.47
829.68	1831.70
829.86	1844.20
830.04	1972.40
830.22	1916.49
830.41	1756.13
830.59	1867.13
830.77	1956.63
830.95	1817.57
831.13	1782.76
831.31	1800.37
831.49	2011.31
831.67	1974.65
831.85	1955.20
832.03	1869.18
832.21	1962.16
832.39	1744.87
832.57	1769.04
832.76	2012.74
832.94	1859.56
833.12	1706.16
833.30	1838.05
833.48	2033.63
833.66	1926.52
833.84	1798.73
834.02	1859.35
834.20	2012.54
834.38	1991.24
834.56	1686.91
834.74	1753.06
834.92	1732.17
835.10	2096.10
835.28	1910.96
835.46	1856.28
835.64	1891.09
835.82	1809.79
836.01	2109.61
836.19	1972.60
836.37	1821.05
836.55	1753.27
836.73	1772.52
836.91	1735.45
837.09	1938.40
837.27	2071.93
837.45	1689.98
837.63	1766.58
837.81	1763.51
837.99	1871.84
838.17	1857.92
838.35	1817.78
838.53	2255.84
838.71	1994.93
838.89	1868.16
839.07	1857.10
839.25	1978.54
839.43	2060.46
839.61	1991.85
839.79	2585.56
839.97	3015.02
840.15	3259.55
840.33	3415.60
840.51	3732.22
840.69	3497.11
840.87	3145.07
841.05	3001.30
841.23	3023.62
841.41	3522.10
841.59	4513.72
841.77	4879.29
841.95	5142.65
842.13	5617.58
842.31	5283.76
842.49	4474.40
842.67	4108.02
842.85	4096.55
843.03	3604.22
843.21	3487.69
843.39	3455.13
843.57	3218.59
843.75	3053.11
843.93	2772.13
844.11	2602.56
844.29	2541.32
844.47	2410.25
844.65	2461.66
844.83	2219.79
845.01	2123.33
845.19	2180.47
845.36	1984.28
845.54	2025.85
845.72	1956.42
845.90	2016.43
846.08	1773.34
846.26	1873.28
846.44	1959.09
846.62	1948.23
846.80	1863.04
846.98	1776.20
847.16	1837.64
847.34	1924.48
847.52	1750.60
847.70	1753.47
847.88	1841.53
848.06	2076.85
848.24	1927.14
848.41	1711.90
848.59	2014.38
848.77	1947.21
848.95	1822.49
849.13	1818.39
849.31	1978.54
849.49	1933.90
849.67	1757.57
849.85	1725.82
850.03	1925.50
850.21	1896.62
850.39	1799.14
850.57	1939.63
850.74	2063.12
850.92	2081.15
851.10	2057.59
851.28	2172.89
851.46	2360.28
851.64	2672.60
851.82	2431.14
852.00	2501.80
852.18	2551.15
852.36	2356.19
852.53	2214.47
852.71	2239.86
852.89	2247.24
853.07	2219.79
853.25	2000.66
853.43	1915.87
853.61	2068.24
853.79	2039.16
853.97	1877.78
854.14	1862.83
854.32	2128.86
854.50	2024.62
854.68	1863.04
854.86	1849.52
855.04	1808.97
855.22	1987.76
855.40	1727.87
855.57	1800.78
855.75	1983.25
855.93	1936.15
856.11	1665.20
856.29	1766.17
856.47	1785.83
856.65	1929.80
856.82	1781.94
857.00	1722.96
857.18	1883.52
857.36	1823.51
857.54	1877.58
857.72	1977.31
857.89	1994.52
858.07	1891.71
858.25	1984.69
858.43	1717.63
858.61	1875.73
858.79	1859.97
858.97	1776.41
859.14	1903.59
859.32	1858.53
859.50	1840.92
859.68	1895.80
859.86	1806.51
860.03	1929.80
860.21	1971.17
860.39	1815.93
860.57	1940.25
860.75	1955.40
860.93	2122.51
861.10	1992.67
861.28	1817.16
861.46	1941.27
861.64	1932.46
861.82	1832.32
861.99	1952.33
862.17	2007.42
862.35	2001.48
862.53	1882.29
862.71	1848.50
862.88	1900.92
863.06	1930.21
863.24	1819.42
863.42	1787.67
863.60	1857.51
863.77	1930.82
863.95	1677.29
864.13	1861.60
864.31	1850.54
864.49	1992.47
864.66	1747.12
864.84	1810.61
865.02	1907.48
865.20	2236.59
865.37	1879.63
865.55	1811.84
865.73	1753.68
865.91	1999.84
866.09	1972.19
866.26	1950.28
866.44	2090.16
866.62	1967.48
866.80	1815.93
866.97	1899.29
867.15	1918.95
867.33	1961.34
867.51	1946.59
867.68	1889.87
867.86	1851.57
868.04	1866.31
868.22	1685.68
868.39	1835.59
868.57	1920.59
868.75	2082.99
868.93	1719.47
869.10	1805.69
869.28	2130.91
869.46	2065.17
869.64	1865.49
869.81	1839.08
869.99	1920.59
870.17	1879.22
870.35	1769.24
870.52	1767.40
870.70	1998.00
870.88	1815.32
871.05	1727.67
871.23	1647.59
871.41	1885.16
871.59	1873.28
871.76	1827.61
871.94	1783.17
872.12	1884.75
872.29	1712.72
872.47	1790.74
872.65	1763.71
872.83	1926.32
873.00	2059.44
873.18	1819.62
873.36	1793.82
873.53	1987.35
873.71	1717.22
873.89	1800.57
874.06	1840.30
874.24	1937.38
874.42	2039.16
874.60	1955.61
874.77	1882.08
874.95	1804.26
875.13	2009.26
875.30	1793.61
875.48	1832.11
875.66	2089.54
875.83	1815.93
876.01	1844.20
876.19	1966.66
876.36	1732.38
876.54	1889.87
876.72	1763.10
876.89	1919.15
877.07	1982.64
877.25	1698.79
877.42	1891.30
877.60	1858.12
877.78	2101.83
877.95	1830.68
878.13	1769.85
878.31	1899.49
878.48	1992.06
878.66	1993.29
878.84	1829.66
879.01	1864.27
879.19	1934.51
879.37	1941.27
879.54	1794.84
879.72	1751.83
879.90	1667.87
880.07	1980.59
880.25	1610.11
880.42	1943.73
880.60	1925.71
880.78	1980.80
880.95	1819.01
881.13	1825.76
881.31	1844.81
881.48	1803.85
881.66	1781.32
881.83	1885.77
882.01	1799.96
882.19	1740.36
882.36	1847.88
882.54	1819.21
882.72	1956.22
882.89	1900.72
883.07	1722.55
883.24	1821.46
883.42	1992.26
883.60	1892.53
883.77	1730.74
883.95	1821.05
884.12	2011.31
884.30	1974.24
884.48	2018.27
884.65	1926.73
884.83	1964.21
885.00	1952.33
885.18	1772.11
885.36	1836.41
885.53	1982.02
885.71	2070.70
885.88	1741.39
886.06	1799.35
886.23	1968.10
886.41	1830.27
886.59	1816.34
886.76	1796.89
886.94	1955.81
887.11	2239.66
887.29	1836.62
887.47	1726.44
887.64	2043.67
887.82	2061.89
887.99	1687.73
888.17	1857.10
888.34	1838.05
888.52	1766.99
888.69	1848.29
888.87	1748.56
889.05	1866.31
889.22	1847.06
889.40	1789.31
889.57	1953.97
889.75	2089.13
889.92	1845.42
890.10	1731.97
890.27	1819.42
890.45	1803.24
890.62	1682.20
890.80	1732.79
890.98	1682.20
891.15	2062.71
891.33	1973.22
891.50	1792.18
891.68	1709.85
891.85	1963.39
892.03	1941.88
892.20	1808.97
892.38	1711.28
892.55	1957.86
892.73	1963.18
892.90	1746.10
893.08	1798.94
893.25	1787.47
893.43	1812.86
893.60	1936.76
893.78	1646.98
893.95	1911.16
894.13	1853.41
894.30	1750.60
894.48	1854.85
894.65	1983.46
894.83	1907.07
895.00	1685.68
895.18	1658.24
895.35	1977.72
895.53	1965.64
895.70	1735.86
895.88	1931.23
896.05	1931.03
896.23	1738.52
896.40	1804.06
896.58	1871.64
896.75	1976.70
896.93	2071.32
897.10	1823.51
897.28	1701.25
897.45	1930.82
897.63	1950.08
897.80	1920.79
897.98	1823.51
898.15	1921.81
898.33	1782.35
898.50	1868.98
898.67	1806.51
898.85	1824.33
899.02	1960.73
899.20	1982.64
899.37	1808.15
899.55	1907.07
899.72	2037.73
899.90	1751.42
900.07	1742.00
900.25	1942.50
900.42	2003.32
900.59	1782.14
900.77	1917.10
900.94	1929.80
901.12	1909.73
901.29	1767.40
901.47	1900.31
901.64	1927.96
901.82	1865.49
901.99	1632.85
902.16	1755.52
902.34	2029.74
902.51	1917.10
902.69	1799.55
902.86	1821.26
903.03	2331.41
903.21	1876.76
903.38	1857.30
903.56	1780.30
903.73	1968.92
903.91	1816.96
904.08	1727.87
904.25	1670.94
904.43	1784.80
904.60	1963.18
904.78	1820.23
904.95	1749.58
905.12	1869.18
905.30	2097.12
905.47	1918.95
905.65	1959.29
905.82	1873.48
905.99	1977.72
906.17	1888.02
906.34	1815.32
906.52	1851.57
906.69	1998.82
906.86	1969.12
907.04	1888.84
907.21	2019.09
907.38	2023.60
907.56	1791.36
907.73	1800.37
907.91	2081.56
908.08	2033.02
908.25	1769.24
908.43	1759.00
908.60	1951.92
908.77	1890.89
908.95	1800.78
909.12	1735.04
909.30	1963.18
909.47	1720.91
909.64	1846.04
909.82	1925.71
909.99	1837.64
910.16	1900.11
910.34	1786.03
910.51	1819.83
910.68	1898.67
910.86	1874.30
911.03	1755.11
911.20	1884.75
911.38	2317.48
911.55	2941.09
911.72	3150.39
911.90	3141.79
912.07	3439.77
912.24	3515.95
912.42	2865.31
912.59	2460.02
912.76	2593.96
912.94	2364.58
913.11	2180.68
913.28	2065.99
913.46	2000.25
913.63	2131.73
913.80	2274.88
913.98	1973.22
914.15	2171.67
914.32	2154.05
914.49	1994.31
914.67	1879.83
914.84	2022.16
915.01	2050.63
915.19	1952.33
915.36	1871.43
915.53	2067.42
915.71	2002.09
915.88	1936.35
916.05	1804.47
916.22	2020.73
916.40	1927.55
916.57	1775.59
916.74	1879.83
916.92	2065.79
917.09	1752.45
917.26	1770.88
917.43	1702.89
917.61	1847.06
917.78	1697.97
917.95	1647.59
918.13	1760.02
918.30	2146.89
918.47	1909.32
918.64	1756.13
918.82	1755.11
918.99	1908.50
919.16	2121.70
919.33	1866.52
919.51	1831.91
919.68	1901.33
919.85	2080.94
920.02	1728.49
920.20	1821.87
920.37	2077.05
920.54	1981.20
920.71	1787.06
920.89	1813.48
921.06	2100.81
921.23	1777.23
921.40	1756.13
921.58	1965.44
921.75	2481.73
921.92	2061.28
922.09	2137.67
922.27	2089.54
922.44	2110.84
922.61	2100.19
922.78	1913.83
922.96	1872.66
923.13	1901.54
923.30	2016.02
923.47	1735.24
923.64	1799.55
923.82	1972.40
923.99	1929.60
924.16	1893.55
924.33	1782.76
924.50	1898.88
924.68	2081.76
924.85	1729.30
925.02	1782.55
925.19	1993.70
925.36	1922.22
925.54	1848.09
925.71	1853.82
925.88	2294.75
926.05	1846.45
926.22	1744.87
926.40	1864.06
926.57	1888.43
926.74	1993.49
926.91	1779.89
927.08	1960.32
927.26	2016.63
927.43	1864.06
927.60	1768.42
927.77	1831.91
927.94	2077.25
928.11	2015.20
928.29	1700.63
928.46	1842.15
928.63	1769.85
928.80	1842.56
928.97	1889.66
929.14	1731.76
929.32	2173.10
929.49	1903.59
929.66	1745.89
929.83	1696.13
930.00	1835.59
930.17	1921.20
930.35	1690.80
930.52	1766.58
930.69	2076.23
930.86	1775.79
931.03	1867.75
931.20	1641.86
931.37	2028.92
931.55	1849.73
931.72	1864.47
931.89	1699.40
932.06	1746.71
932.23	2093.43
932.40	1877.37
932.57	1859.76
932.74	2053.29
932.92	2027.69
933.09	1932.26
933.26	1567.52
933.43	1827.61
933.60	1884.95
933.77	1813.68
933.94	1831.70
934.11	1835.39
934.29	1901.74
934.46	1703.09
934.63	1852.80
934.80	1739.14
934.97	1896.21
935.14	1811.63
935.31	1697.36
935.48	1780.30
935.65	1940.04
935.82	1873.28
936.00	1733.40
936.17	2075.21
936.34	1856.89
936.51	1914.65
936.68	1702.89
936.85	1942.91
937.02	1887.20
937.19	1881.06
937.36	1816.34
937.53	1914.24
937.70	1979.36
937.87	1812.86
938.05	1890.07
938.22	1871.43
938.39	1756.13
938.56	1812.04
938.73	1743.85
938.90	1872.25
939.07	1789.11
939.24	1836.00
939.41	1677.49
939.58	1921.61
939.75	1940.04
939.92	1718.86
940.09	1967.69
940.26	1838.46
940.43	1992.26
940.60	1780.50
940.77	1806.10
940.95	1939.63
941.12	1978.54
941.29	1776.61
941.46	1830.88
941.63	2011.92
941.80	2052.27
941.97	1716.40
942.14	1705.96
942.31	1949.87
942.48	1859.15
942.65	1912.19
942.82	1809.38
942.99	1939.22
943.16	1882.29
943.33	1731.97
943.50	1758.80
943.67	1977.11
943.84	2014.79
944.01	1804.47
944.18	1738.73
944.35	2032.20
944.52	1778.66
944.69	1846.65
944.86	1704.11
945.03	1984.69
945.20	2209.55
945.37	1681.18
945.54	1849.32
945.71	2032.61
945.88	2097.32
946.05	1744.66
946.22	1739.14
946.39	2070.09
946.56	1852.18
946.73	1727.67
946.90	1733.61
947.07	1836.21
947.24	1866.93
947.41	1681.79
947.58	1922.22
947.75	1955.40
947.92	1911.16
948.09	1600.90
948.26	1706.16
948.43	1898.88
948.60	2118.83
948.77	1752.45
948.94	1771.49
949.11	1979.57
949.27	1937.38
949.44	1746.10
949.61	1759.61
949.78	1924.48
949.95	2017.86
950.12	1717.63
950.29	1693.47
950.46	1834.78
950.63	1996.97
950.80	1778.25
950.97	1810.40
951.14	2009.67
951.31	1856.69
951.48	1756.75
951.65	1723.78
951.82	2102.65
951.99	1919.77
952.15	1678.72
952.32	1792.38
952.49	1812.66
952.66	1808.77
952.83	1754.49
953.00	1755.31
953.17	1858.53
953.34	1983.66
953.51	1830.47
953.68	1789.52
953.85	2016.84
954.02	2000.05
954.18	1812.25
954.35	1811.84
954.52	1777.64
954.69	1897.44
954.86	1648.21
955.03	1803.65
955.20	1978.13
955.37	1847.88
955.54	1791.77
955.71	1768.01
955.87	1922.43
956.04	2090.57
956.21	1774.36
956.38	1749.58
956.55	1863.65
956.72	2204.23
956.89	1793.82
957.06	1761.87
957.23	1838.05
957.39	2044.08
957.56	1765.55
957.73	1759.21
957.90	1635.51
958.07	2115.96
958.24	1817.57
958.41	1743.85
958.57	1982.02
958.74	1881.47
958.91	1745.48
959.08	1767.19
959.25	1923.45
959.42	1851.77
959.59	1841.33
959.75	1790.74
959.92	2047.56
960.09	2013.15
960.26	1738.93
960.43	1844.61
960.60	1893.76
960.76	1845.83
960.93	1678.31
961.10	1839.28
961.27	1991.24
961.44	1843.17
961.61	1714.35
961.77	1708.42
961.94	1899.08
962.11	1986.73
962.28	1790.74
962.45	1714.15
962.62	1847.68
962.78	1996.36
962.95	1728.90
963.12	1757.77
963.29	1946.18
963.46	2219.79
963.62	1864.06
963.79	1771.90
963.96	2202.80
964.13	1865.70
964.30	1850.95
964.46	1780.50
964.63	1757.16
964.80	2227.99
964.97	1651.07
965.14	1883.31
965.30	1978.13
965.47	2036.50
965.64	1979.98
965.81	1918.33
965.98	2112.27
966.14	1965.44
966.31	1825.35
966.48	1788.90
966.65	2071.52
966.81	1936.76
966.98	1795.86
967.15	1820.64
967.32	1889.87
967.49	1828.22
967.65	1664.38
967.82	1653.12
967.99	1846.65
968.16	1699.40
968.32	1932.87
968.49	1769.24
968.66	1837.03
968.83	2069.47
968.99	1829.45
969.16	1705.96
969.33	2031.99
969.50	1942.29
969.66	1885.77
969.83	1976.29
970.00	1995.75
970.17	1955.20
970.33	1789.31
970.50	1731.97
970.67	2082.17
970.84	2075.41
971.00	1708.62
971.17	1702.48
971.34	1954.58
971.50	1889.87
971.67	1891.71
971.84	1819.62
972.01	1745.48
972.17	1625.88
972.34	1715.79
972.51	1849.93
972.67	2007.42
972.84	1927.55
973.01	1735.45
973.18	1759.00
973.34	1986.73
973.51	1760.64
973.68	1800.16
973.84	1804.87
974.01	1843.38
974.18	2094.87
974.34	1850.54
974.51	1878.40
974.68	1804.87
974.85	2123.13
975.01	1907.07
975.18	1795.45
975.35	1891.30
975.51	1756.95
975.68	1634.07
975.85	1916.69
976.01	1791.77
976.18	2046.13
976.35	1784.40
976.51	1752.04
976.68	2092.41
976.85	2030.36
977.01	1823.51
977.18	1861.40
977.35	1964.62
977.51	1736.06
977.68	1627.32
977.85	1716.81
978.01	1998.82
978.18	1952.53
978.35	1805.08
978.51	1812.45
978.68	2001.48
978.85	2063.33
979.01	1777.84
979.18	1828.63
979.34	1858.12
979.51	1893.55
979.68	1725.41
979.84	1825.76
980.01	2211.60
980.18	1899.49
980.34	1765.14
980.51	1856.69
980.67	1983.87
980.84	1982.02
981.01	1800.78
981.17	1880.24
981.34	1664.79
981.51	1950.90
981.67	1736.27
981.84	1891.30
982.00	1960.11
982.17	1857.30
982.34	1663.77
982.50	1584.92
982.67	2068.45
982.83	1823.92
983.00	1715.17
983.17	1618.92
983.33	2007.21
983.50	1715.17
983.66	1697.36
983.83	1608.88
984.00	1829.04
984.16	1891.30
984.33	1623.83
984.49	1589.02
984.66	1759.82
984.83	1977.31
984.99	1661.11
985.16	1597.83
985.32	1961.75
985.49	1971.37
985.65	1752.65
985.82	1615.03
985.99	2072.75
986.15	1896.42
986.32	1701.86
986.48	1655.17
986.65	1828.63
986.81	1973.63
986.98	1630.39
987.14	1681.38
987.31	1903.79
987.48	1687.94
987.64	1544.78
987.81	1595.78
987.97	2135.62
988.14	1766.99
988.30	1629.16
988.47	1498.91
988.63	1890.68
988.80	1739.34
988.96	1709.03
989.13	1702.89
989.30	1822.90
989.46	2002.91
989.63	1594.14
989.79	1590.04
989.96	1856.69
990.12	2079.92
990.29	1644.93
990.45	1678.92
990.62	1854.85
990.78	2032.40
990.95	1740.57
991.11	1674.62
991.28	1814.09
991.44	1925.91
991.61	1542.12
991.77	1676.47
991.94	1911.98
992.10	2021.35
992.27	1685.68
992.43	1666.43
992.60	1899.08
992.76	1828.43
992.93	1785.62
993.09	1630.18
993.26	1979.77
993.42	2090.57
993.59	1645.13
993.75	1560.14
993.92	1778.66
994.08	1785.01
994.25	1736.06
994.41	1609.29
994.58	1966.87
994.74	2055.96
994.91	1615.64
995.07	1712.31
995.24	1848.91
995.40	1837.64
995.56	1761.25
995.73	1711.90
995.89	2070.91
996.06	1834.98
996.22	1618.71
996.39	1553.79
996.55	1863.04
996.72	1903.18
996.88	1581.85
997.05	1636.94
997.21	2098.55
997.37	1956.22
997.54	1692.65
997.70	1669.30
997.87	1919.77
998.03	1891.09
998.20	1561.17
998.36	1572.64
998.52	1959.09
998.69	1975.27
998.85	1570.18
999.02	1679.95
999.18	1995.13
999.35	1967.48
999.51	1675.24
999.67	1669.30
999.84	1779.48
1000.00	1964.82
1000.17	1722.14
1000.33	1608.07
1000.49	1827.20
1000.66	1839.90
1000.82	1632.44
1000.99	1729.10
1001.15	2011.92
1001.31	1831.09
1001.48	1681.59
1001.64	1735.65
1001.81	1848.09
1001.97	2171.67
1002.13	1644.31
1002.30	1659.88
1002.46	2033.84
1002.63	1830.88
1002.79	1732.99
1002.95	1669.30
1003.12	2011.92
1003.28	1937.17
1003.45	1627.73
1003.61	1583.49
1003.77	1882.90
1003.94	1720.91
1004.10	1646.98
1004.26	1685.89
1004.43	1959.50
1004.59	2087.49
1004.75	1630.80
1004.92	1627.73
1005.08	1836.82
1005.25	1919.36
1005.41	1626.91
1005.57	1714.76
1005.74	2013.56
1005.90	1854.85
1006.06	1742.41
1006.23	1638.78
1006.39	1977.31
1006.55	2207.10
1006.72	1793.61
1006.88	1606.22
1007.04	1757.16
1007.21	1859.97
1007.37	1685.89
1007.53	1642.68
1007.70	2049.61
1007.86	1983.25
1008.02	1713.33
1008.19	1609.70
1008.35	1911.98
1008.51	1774.56
1008.68	1661.31
1008.84	1594.96
1009.00	1769.24
1009.17	2008.85
1009.33	1759.61
1009.49	1722.75
1009.65	1763.30
1009.82	1920.18
1009.98	1720.50
1010.14	1571.82
1010.31	1950.90
1010.47	1937.99
1010.63	1709.44
1010.80	1697.15
1010.96	1914.24
1011.12	1865.29
1011.28	1658.24
1011.45	1659.88
1011.61	2221.64
1011.77	1752.24
1011.94	1631.41
1012.10	1602.13
1012.26	1752.86
1012.42	1793.41
1012.59	1707.39
1012.75	1685.48
1012.91	1863.04
1013.07	1959.70
1013.24	1612.98
1013.40	1636.53
1013.56	1863.86
1013.72	1849.32
1013.89	1732.99
1014.05	1723.98
1014.21	2142.18
1014.37	2217.54
1014.54	1706.16
1014.70	1615.85
1014.86	1850.13
1015.02	1760.02
1015.19	1640.83
1015.35	1618.10
1015.51	1857.10
1015.67	1829.66
1015.84	1663.36
1016.00	1649.84
1016.16	2007.62
1016.32	1963.59
1016.49	1633.66
1016.65	1638.38
1016.81	1860.17
1016.97	1962.77
1017.14	1745.69
1017.30	1667.87
1017.46	1820.23
1017.62	1940.25
1017.78	1694.08
1017.95	1609.70
1018.11	1970.56
1018.27	2172.89
1018.43	1785.83
1018.59	1726.44
1018.76	1963.80
1018.92	2188.25
1019.08	1620.15
1019.24	1658.85
1019.40	2067.83
1019.57	1920.59
1019.73	1713.54
1019.89	1644.31
1020.05	1909.53
1020.21	2139.51
1020.38	1627.52
1020.54	1821.67
1020.70	1945.57
1020.86	1949.87
1021.02	1678.52
1021.18	1633.66
1021.35	1798.94
1021.51	1944.34
1021.67	1778.46
1021.83	1669.91
1021.99	1870.82
1022.15	1904.61
1022.32	1733.61
1022.48	1694.90
1022.64	2053.29
1022.80	2075.41
1022.96	1695.92
1023.12	1601.51
1023.29	2030.15
1023.45	1916.90
1023.61	1632.23
1023.77	1782.76
1023.93	1892.32
1024.09	1790.13
1024.25	1647.39
1024.42	1604.58
1024.58	1821.46
1024.74	1923.86
1024.90	1646.57
1025.06	1730.94
1025.22	1827.61
1025.38	2080.12
1025.54	1611.34
1025.71	1726.03
1025.87	1948.23
1026.03	1941.88
1026.19	1626.29
1026.35	1760.64
1026.51	1918.95
1026.67	1886.38
1026.83	1702.07
1026.99	1760.64
1027.16	1937.58
1027.32	2017.66
1027.48	1676.67
1027.64	1629.98
1027.80	1954.58
1027.96	1875.73
1028.12	1659.06
1028.28	1611.96
1028.44	1925.30
1028.60	2065.38
1028.77	1758.80
1028.93	1708.83
1029.09	1811.22
1029.25	1737.70
1029.41	1691.83
1029.57	1727.67
1029.73	1910.96
1029.89	2028.92
1030.05	1778.87
1030.21	1728.28
1030.37	2171.05
1030.53	1949.67
1030.69	1671.55
1030.85	1573.25
1031.02	1769.85
1031.18	1874.10
1031.34	1677.70
1031.50	1751.42
1031.66	1796.07
1031.82	2074.59
1031.98	1712.92
1032.14	1646.57
1032.30	1764.73
1032.46	1976.70
1032.62	1787.67
1032.78	1609.29
1032.94	1818.19
1033.10	1828.22
1033.26	1710.05
1033.42	1769.45
1033.58	2122.11
1033.74	1825.76
1033.90	1656.60
1034.06	1820.64
1034.22	2165.32
1034.38	2008.44
1034.54	1682.00
1034.70	1718.66
1034.86	2109.82
>>>>>End Processed Spectral Data<<<<<
