SpectraSuite Data File
++++++++++++++++++++++++++++++++++++
Date: Thu Mar 30 16:24:18 PDT 2017
User: UCSD _CER
Dark Spectrum Present: No
Reference Spectrum Present: No
Number of Sampled Component Spectra: 1
Spectrometers: USB4C00073
Integration Time (usec): 250000 (USB4C00073)
Spectra Averaged: 10 (USB4C00073)
Boxcar Smoothing: 0 (USB4C00073)
Correct for Electrical Dark: No (USB4C00073)
Strobe/Lamp Enabled: No (USB4C00073)
Correct for Detector Non-linearity: No (USB4C00073)
Correct for Stray Light: No (USB4C00073)
Number of Pixels in Processed Spectrum: 3648
>>>>>Begin Processed Spectral Data<<<<<
345.37	1293.70
345.58	1293.70
345.80	1293.70
346.01	1251.10
346.22	1256.43
346.43	1972.60
346.65	1798.73
346.86	2130.50
347.07	2077.05
347.28	1805.28
347.50	1784.60
347.71	1940.04
347.92	1709.23
348.13	1808.15
348.35	1711.49
348.56	1930.62
348.77	1753.47
348.98	1820.03
349.20	1649.43
349.41	1926.73
349.62	1987.76
349.83	1850.54
350.05	1737.09
350.26	1951.92
350.47	2084.22
350.68	1774.16
350.90	1688.35
351.11	2084.22
351.32	2075.62
351.53	1799.96
351.75	1740.36
351.96	1970.35
352.17	1900.72
352.38	1857.92
352.60	1894.78
352.81	1947.00
353.02	2151.60
353.23	1776.61
353.44	1814.91
353.66	1849.52
353.87	1865.70
354.08	1902.97
354.29	1825.97
354.51	1854.85
354.72	1896.21
354.93	1802.83
355.14	1754.29
355.35	1753.68
355.57	2054.52
355.78	1828.43
355.99	1893.76
356.20	1931.85
356.42	1912.19
356.63	1914.24
356.84	1856.28
357.05	2024.21
357.26	2186.41
357.48	1894.99
357.69	1841.74
357.90	1945.57
358.11	1856.07
358.32	1826.79
358.54	1835.59
358.75	1875.94
358.96	1982.43
359.17	1787.26
359.38	1787.88
359.60	2013.56
359.81	1890.28
360.02	1816.55
360.23	1782.76
360.44	1835.59
360.66	2047.56
360.87	1756.13
361.08	1757.57
361.29	1970.35
361.50	1929.19
361.72	1770.47
361.93	1844.61
362.14	1941.27
362.35	1716.61
362.56	1889.05
362.77	1740.36
362.99	2030.36
363.20	1939.02
363.41	1890.48
363.62	1708.42
363.83	1987.14
364.05	2034.04
364.26	1697.36
364.47	1788.29
364.68	2033.02
364.89	1834.57
365.10	1731.56
365.32	1786.65
365.53	1822.90
365.74	1863.24
365.95	1806.72
366.16	1703.91
366.37	1894.37
366.59	1871.23
366.80	1816.55
367.01	1679.33
367.22	2144.43
367.43	2298.64
367.64	1816.55
367.86	1799.75
368.07	1964.62
368.28	2087.29
368.49	1718.45
368.70	1850.54
368.91	1878.60
369.12	1877.99
369.34	1715.58
369.55	1720.09
369.76	1922.22
369.97	1843.58
370.18	1739.75
370.39	1766.58
370.60	1749.17
370.82	1794.64
371.03	1803.03
371.24	1753.88
371.45	1982.84
371.66	1991.44
371.87	1799.14
372.08	1785.42
372.30	1779.48
372.51	2022.37
372.72	1868.98
372.93	1762.89
373.14	2069.68
373.35	1809.79
373.56	1777.23
373.78	1840.30
373.99	1999.43
374.20	2280.41
374.41	1791.36
374.62	1800.16
374.83	2098.96
375.04	1864.68
375.25	1813.68
375.47	1776.41
375.68	1867.34
375.89	1997.59
376.10	1823.92
376.31	1893.14
376.52	1990.22
376.73	1968.30
376.94	1812.66
377.15	1792.38
377.37	1912.80
377.58	1877.37
377.79	1709.44
378.00	1749.37
378.21	1962.16
378.42	1983.25
378.63	1820.23
378.84	1874.51
379.05	2020.94
379.27	1913.01
379.48	1885.36
379.69	1735.04
379.90	2045.92
380.11	1669.50
380.32	1802.42
380.53	1909.53
380.74	2054.93
380.95	1928.98
381.16	1813.07
381.37	1799.75
381.59	2074.80
381.80	2012.33
382.01	1754.29
382.22	1713.33
382.43	1972.40
382.64	1908.71
382.85	1753.06
383.06	1858.33
383.27	2032.20
383.48	1912.19
383.69	1861.19
383.91	1745.48
384.12	1970.97
384.33	1963.39
384.54	1801.19
384.75	1687.94
384.96	2284.51
385.17	2015.61
385.38	1750.19
385.59	1749.58
385.80	2002.91
386.01	2086.06
386.22	1875.12
386.43	1796.27
386.64	2190.51
386.86	1891.71
387.07	1921.81
387.28	1716.40
387.49	1841.33
387.70	2086.06
387.91	1873.69
388.12	1715.38
388.33	1968.30
388.54	1867.13
388.75	1773.54
388.96	1848.70
389.17	1851.36
389.38	1896.01
389.59	1882.70
389.80	1833.34
390.01	1891.50
390.22	1858.12
390.43	1893.76
390.64	1687.73
390.86	1952.94
391.07	2019.91
391.28	1797.50
391.49	1853.82
391.70	1740.36
391.91	1815.32
392.12	1817.16
392.33	1776.20
392.54	1911.57
392.75	1868.77
392.96	1871.64
393.17	1730.74
393.38	2193.99
393.59	2037.93
393.80	1742.00
394.01	1885.16
394.22	2006.80
394.43	2290.04
394.64	1888.23
394.85	2042.85
395.06	2010.90
395.27	2013.56
395.48	1844.61
395.69	1759.21
395.90	1880.24
396.11	1913.01
396.32	1743.03
396.53	1908.71
396.74	1871.02
396.95	2072.34
397.16	1772.11
397.37	1706.98
397.58	2008.03
397.79	1908.50
398.00	1853.00
398.21	1809.59
398.42	1940.25
398.63	2170.44
398.84	1810.61
399.05	1760.02
399.26	2067.01
399.47	1940.25
399.68	1635.30
399.89	1748.76
400.10	1759.21
400.31	1852.18
400.52	1839.49
400.73	1800.37
400.94	1734.42
401.15	1924.48
401.36	1792.38
401.57	1851.36
401.78	2055.14
401.99	2024.42
402.20	1703.91
402.41	1922.63
402.62	2082.78
402.83	1898.88
403.04	1770.88
403.25	1932.46
403.46	1994.31
403.67	2207.92
403.88	1965.23
404.09	1979.16
404.30	2044.49
404.51	2028.92
404.72	1864.68
404.93	1996.36
405.14	1887.82
405.35	1926.73
405.56	1809.38
405.77	1821.05
405.98	1947.21
406.19	1892.32
406.40	1756.95
406.61	1782.14
406.82	1824.74
407.03	2212.22
407.24	1706.57
407.45	1820.64
407.66	1933.69
407.87	2029.54
408.08	1852.80
408.29	1883.11
408.49	1983.25
408.70	1899.90
408.91	1800.16
409.12	1893.35
409.33	1786.65
409.54	2096.92
409.75	1783.17
409.96	1812.66
410.17	2019.50
410.38	1895.60
410.59	1766.78
410.80	1914.44
411.01	1901.33
411.22	1876.76
411.43	1884.13
411.64	1742.41
411.85	1805.08
412.06	1808.36
412.27	1618.30
412.47	1807.54
412.68	1888.23
412.89	1981.20
413.10	1797.09
413.31	1700.22
413.52	2152.82
413.73	2167.57
413.94	1783.58
414.15	1920.99
414.36	1841.53
414.57	1864.06
414.78	1847.88
414.99	2325.26
415.19	2907.30
415.40	3072.57
415.61	3251.76
415.82	3116.60
416.03	2960.95
416.24	2635.53
416.45	2330.79
416.66	2029.54
416.87	1850.13
417.08	2060.87
417.29	1877.17
417.50	2009.67
417.70	2174.74
417.91	2176.38
418.12	2153.64
418.33	2297.82
418.54	2483.16
418.75	2634.10
418.96	2737.32
419.17	3091.41
419.38	3733.65
419.59	3828.68
419.79	3634.73
420.00	3471.10
420.21	3410.89
420.42	2638.60
420.63	2270.38
420.84	2159.17
421.05	1988.17
421.26	1955.20
421.47	1760.84
421.67	2070.70
421.88	1793.41
422.09	1750.19
422.30	1940.04
422.51	1822.90
422.72	2121.70
422.93	1978.54
423.14	1811.63
423.35	1689.78
423.55	1706.57
423.76	1820.64
423.97	1815.93
424.18	1735.65
424.39	1949.67
424.60	2119.85
424.81	1915.67
425.02	2145.86
425.22	2261.78
425.43	2298.84
425.64	2490.53
425.85	2530.06
426.06	2814.52
426.27	2674.03
426.48	2677.92
426.68	2669.53
426.89	2742.23
427.10	2782.37
427.31	2335.30
427.52	2014.18
427.73	2173.10
427.94	2083.19
428.14	1942.50
428.35	1830.06
428.56	2091.59
428.77	2010.90
428.98	1932.87
429.19	2126.41
429.40	2217.34
429.60	2328.54
429.81	2375.03
430.02	2283.49
430.23	2180.88
430.44	2196.04
430.65	1925.09
430.85	1923.45
431.06	2001.07
431.27	1718.04
431.48	1836.21
431.69	1842.56
431.90	1922.43
432.10	1938.40
432.31	1900.11
432.52	1990.63
432.73	2645.36
432.94	2652.73
433.15	2519.00
433.35	2410.46
433.56	2553.00
433.77	2284.92
433.98	2235.97
434.19	2087.08
434.40	2106.54
434.60	2025.65
434.81	1898.67
435.02	1893.55
435.23	1946.18
435.44	1859.97
435.64	1702.68
435.85	1752.24
436.06	1871.64
436.27	1886.38
436.48	1761.66
436.68	1789.11
436.89	2103.47
437.10	1984.28
437.31	1827.40
437.52	1914.44
437.73	1929.60
437.93	1909.12
438.14	1864.88
438.35	1683.23
438.56	1860.37
438.77	1862.01
438.97	1929.60
439.18	1765.14
439.39	2010.49
439.60	1752.45
439.80	1720.70
440.01	1814.30
440.22	1825.35
440.43	1991.44
440.64	1728.08
440.84	1871.23
441.05	1785.83
441.26	2265.67
441.47	1849.93
441.68	1777.43
441.88	1908.91
442.09	1867.34
442.30	1934.10
442.51	1856.69
442.71	1852.39
442.92	1952.12
443.13	1743.23
443.34	1752.24
443.55	1815.73
443.75	1968.71
443.96	1775.59
444.17	1747.94
444.38	2041.21
444.58	1817.78
444.79	1882.08
445.00	1830.06
445.21	1912.80
445.41	1897.85
445.62	1605.61
445.83	1884.75
446.04	1890.28
446.24	1760.64
446.45	1657.83
446.66	1792.18
446.87	1964.41
447.07	1850.95
447.28	1999.43
447.49	1844.40
447.70	2012.13
447.90	2049.81
448.11	1829.86
448.32	1884.95
448.53	2086.27
448.73	2054.93
448.94	1805.69
449.15	1932.26
449.36	1905.02
449.56	1955.40
449.77	1797.09
449.98	1717.63
450.19	1924.68
450.39	2076.03
450.60	2068.65
450.81	2066.81
451.02	2120.47
451.22	2227.58
451.43	1862.22
451.64	1910.96
451.84	1998.82
452.05	2171.87
452.26	1946.18
452.47	1867.13
452.67	1884.13
452.88	2111.66
453.09	1780.50
453.30	1761.46
453.50	2030.36
453.71	2113.09
453.92	1840.92
454.12	1928.57
454.33	1837.85
454.54	1883.52
454.75	1754.49
454.95	1756.54
455.16	1962.36
455.37	1951.51
455.57	1847.88
455.78	1832.93
455.99	1883.52
456.19	1906.86
456.40	1760.23
456.61	1840.10
456.82	1927.34
457.02	2014.18
457.23	1868.16
457.44	2007.62
457.64	1830.68
457.85	1991.85
458.06	1862.42
458.26	2000.25
458.47	1942.29
458.68	2038.55
458.89	1810.81
459.09	2015.61
459.30	2289.01
459.51	2021.75
459.71	1758.18
459.92	1815.32
460.13	2035.27
460.33	2217.34
460.54	1819.42
460.75	1814.50
460.95	1803.44
461.16	1954.58
461.37	1793.61
461.57	1873.89
461.78	1963.59
461.99	1811.84
462.19	2043.46
462.40	1828.02
462.61	2249.69
462.81	2106.13
463.02	1807.33
463.23	1838.26
463.43	2038.75
463.64	1894.37
463.85	2795.68
464.05	1831.91
464.26	2377.69
464.47	2157.54
464.67	2013.56
464.88	1908.09
465.09	1836.82
465.29	1957.45
465.50	1968.92
465.71	1843.58
465.91	1865.90
466.12	1901.95
466.33	1884.34
466.53	1792.79
466.74	2095.69
466.94	1890.07
467.15	1810.81
467.36	2006.60
467.56	1809.79
467.77	1950.28
467.98	1886.59
468.18	1814.09
468.39	1849.11
468.60	2187.23
468.80	1841.33
469.01	1794.64
469.21	1999.43
469.42	2096.71
469.63	1968.51
469.83	1893.55
470.04	2137.87
470.25	2234.54
470.45	1967.48
470.66	1861.60
470.86	2000.46
471.07	1916.49
471.28	1968.10
471.48	2009.06
471.69	1960.52
471.90	2370.11
472.10	1824.13
472.31	1846.45
472.51	1817.78
472.72	1807.33
472.93	1777.43
473.13	1951.30
473.34	1942.09
473.54	1900.31
473.75	1845.83
473.96	2045.51
474.16	1923.04
474.37	2022.37
474.57	1932.67
474.78	1892.12
474.99	2035.89
475.19	2046.94
475.40	1853.21
475.60	1778.87
475.81	2130.71
476.02	1942.50
476.22	1981.61
476.43	2081.56
476.63	2000.66
476.84	2188.05
477.05	1762.89
477.25	1828.84
477.46	2328.75
477.66	1931.85
477.87	1714.56
478.08	1839.08
478.28	2065.99
478.49	1918.95
478.69	1781.94
478.90	1838.67
479.10	2015.61
479.31	2138.08
479.52	1902.36
479.72	1960.73
479.93	2007.42
480.13	1874.10
480.34	1822.90
480.54	1907.89
480.75	1816.14
480.96	2056.78
481.16	1803.44
481.37	1961.13
481.57	2035.68
481.78	1964.62
481.98	2005.58
482.19	1877.37
482.40	2170.64
482.60	2031.59
482.81	1976.29
483.01	1872.87
483.22	2128.25
483.42	2126.82
483.63	1999.02
483.83	1956.63
484.04	1889.66
484.24	2046.13
484.45	1934.92
484.66	1748.35
484.86	1991.24
485.07	1840.71
485.27	1923.86
485.48	1824.74
485.68	2110.84
485.89	1840.10
486.09	1928.16
486.30	1857.51
486.50	1961.34
486.71	2000.05
486.91	2029.13
487.12	2106.54
487.33	2356.39
487.53	2353.53
487.74	2094.87
487.94	2085.65
488.15	2193.78
488.35	2290.04
488.56	2177.40
488.76	2141.15
488.97	2161.22
489.17	2158.35
489.38	1997.38
489.58	1922.02
489.79	2074.80
489.99	1994.93
490.20	1919.15
490.40	1973.42
490.61	2010.49
490.81	1892.73
491.02	1895.80
491.22	1967.69
491.43	2075.00
491.63	1964.00
491.84	2045.10
492.04	1761.05
492.25	2024.01
492.45	1893.14
492.66	1800.78
492.86	1749.58
493.07	1925.09
493.27	2195.42
493.48	1740.98
493.68	1892.32
493.89	1942.70
494.09	2044.08
494.30	1838.67
494.50	2095.07
494.71	2045.10
494.91	1861.60
495.12	1979.36
495.32	2086.68
495.53	2065.17
495.73	1830.27
495.94	1917.92
496.14	1746.51
496.35	2171.87
496.55	1894.99
496.76	1868.57
496.96	1921.20
497.17	1950.28
497.37	2006.60
497.58	1839.69
497.78	1807.33
497.98	1946.59
498.19	1952.33
498.39	1956.42
498.60	1998.20
498.80	1805.28
499.01	2083.19
499.21	1789.31
499.42	1906.25
499.62	1915.06
499.83	2229.42
500.03	1764.94
500.24	1943.52
500.44	2097.94
500.64	2064.76
500.85	1841.74
501.05	1987.14
501.26	1743.85
501.46	2110.43
501.67	1822.28
501.87	1799.14
502.08	1831.50
502.28	1894.78
502.48	1978.34
502.69	2037.32
502.89	1827.40
503.10	1910.75
503.30	1960.11
503.51	1954.58
503.71	1818.60
503.92	2054.32
504.12	2030.36
504.32	1990.83
504.53	2197.06
504.73	2215.90
504.94	2180.88
505.14	2325.06
505.35	2330.79
505.55	2365.81
505.75	2258.50
505.96	2327.11
506.16	2398.38
506.37	2068.04
506.57	1961.75
506.78	2041.62
506.98	2209.55
507.18	1902.77
507.39	1880.85
507.59	1961.54
507.80	1961.54
508.00	2061.28
508.20	2114.12
508.41	1987.14
508.61	2196.45
508.82	2083.40
509.02	2012.74
509.22	1820.03
509.43	1818.19
509.63	1850.75
509.84	1893.14
510.04	1801.60
510.24	2144.02
510.45	2042.64
510.65	1798.53
510.86	1919.77
511.06	1861.60
511.26	2102.44
511.47	2072.13
511.67	1918.33
511.88	2060.05
512.08	2141.97
512.28	1819.42
512.49	1983.25
512.69	1966.87
512.90	2002.50
513.10	1829.25
513.30	1911.78
513.51	1989.40
513.71	2162.65
513.91	1936.97
514.12	1960.11
514.32	2145.45
514.53	2024.83
514.73	2132.35
514.93	2087.90
515.14	2217.75
515.34	2478.86
515.54	2374.21
515.75	2499.75
515.95	2610.55
516.15	2660.93
516.36	2305.81
516.56	2200.95
516.77	1881.47
516.97	2164.09
517.17	2032.20
517.38	2103.26
517.58	2297.00
517.78	2168.39
517.99	2385.27
518.19	2515.72
518.39	2764.35
518.60	2647.82
518.80	2424.59
519.00	2388.55
519.21	2193.99
519.41	2345.33
519.61	1979.16
519.82	2067.63
520.02	2047.76
520.22	2051.25
520.43	2051.86
520.63	2018.27
520.83	1972.60
521.04	1908.09
521.24	2313.59
521.44	2369.30
521.65	2470.87
521.85	2719.91
522.05	2452.85
522.26	2278.98
522.46	2454.70
522.66	2237.61
522.87	2000.87
523.07	2145.25
523.27	2021.35
523.48	2262.19
523.68	2071.73
523.88	2060.46
524.09	2201.57
524.29	2137.26
524.49	2031.58
524.70	2324.44
524.90	2505.89
525.10	2414.96
525.31	2107.16
525.51	2001.28
525.71	2185.80
525.91	2074.39
526.12	1899.70
526.32	1805.69
526.52	1894.78
526.73	1894.17
526.93	1966.87
527.13	1793.41
527.34	1974.24
527.54	1994.52
527.74	1960.52
527.94	1876.76
528.15	1884.95
528.35	2009.47
528.55	2026.67
528.76	1987.35
528.96	1746.30
529.16	2075.41
529.36	2033.84
529.57	1810.81
529.77	2095.89
529.97	1818.39
530.18	1971.17
530.38	1881.67
530.58	2025.85
530.78	1961.34
530.99	1887.00
531.19	2035.48
531.39	1901.95
531.60	1970.76
531.80	1912.60
532.00	2027.69
532.20	1989.60
532.41	1892.73
532.61	1854.44
532.81	1902.36
533.01	1901.54
533.22	1998.20
533.42	2006.60
533.62	1727.05
533.82	2113.09
534.03	1912.60
534.23	1989.40
534.43	1820.64
534.63	1917.92
534.84	1984.28
535.04	1944.34
535.24	1906.86
535.44	2238.23
535.65	1888.02
535.85	1837.85
536.05	1836.62
536.25	1911.37
536.46	1879.22
536.66	2123.74
536.86	2044.08
537.06	2128.04
537.27	2196.04
537.47	2026.87
537.67	1900.11
537.87	2166.34
538.08	1941.06
538.28	1853.00
538.48	1864.88
538.68	2022.78
538.88	2107.56
539.09	1841.12
539.29	1949.05
539.49	2128.25
539.69	2022.16
539.90	1958.06
540.10	1882.08
540.30	2190.71
540.50	1980.39
540.70	1914.44
540.91	2021.96
541.11	2198.90
541.31	2363.56
541.51	2201.16
541.72	2301.71
541.92	2328.95
542.12	2144.84
542.32	2073.98
542.52	1997.38
542.73	1957.86
542.93	2083.40
543.13	1957.86
543.33	2120.26
543.53	2251.13
543.74	2269.35
543.94	2149.96
544.14	2335.71
544.34	2505.89
544.54	2407.80
544.75	2528.83
544.95	2721.34
545.15	2577.98
545.35	2590.27
545.55	2353.53
545.75	2145.25
545.96	2456.74
546.16	2041.82
546.36	2039.78
546.56	2085.04
546.76	2204.02
546.97	2261.98
547.17	2003.94
547.37	2020.12
547.57	1929.19
547.77	2059.23
547.97	1996.36
548.18	2002.71
548.38	2074.59
548.58	2650.28
548.78	2788.72
548.98	3228.42
549.18	3632.89
549.39	3839.12
549.59	3410.28
549.79	3021.98
549.99	3029.15
550.19	2836.85
550.39	2651.30
550.60	2400.42
550.80	2353.32
551.00	2323.83
551.20	2128.45
551.40	2031.58
551.60	2127.84
551.80	2123.13
552.01	2135.62
552.21	2060.67
552.41	2121.70
552.61	2286.35
552.81	2044.28
553.01	1905.63
553.21	2070.91
553.42	1896.21
553.62	1892.94
553.82	1877.58
554.02	2182.11
554.22	2074.80
554.42	1837.64
554.62	1991.04
554.83	2409.44
555.03	2758.82
555.23	2799.16
555.43	3224.32
555.63	3204.46
555.83	3041.03
556.03	2703.93
556.23	2491.35
556.44	2619.56
556.64	2692.05
556.84	2301.71
557.04	2483.16
557.24	2473.54
557.44	2332.64
557.64	2177.61
557.84	2016.84
558.04	2054.32
558.25	2162.86
558.45	1965.03
558.65	2073.98
558.85	2131.32
559.05	1936.15
559.25	2082.99
559.45	2263.21
559.65	2717.04
559.85	3291.50
560.05	2767.42
560.26	2921.63
560.46	2965.05
560.66	2689.60
560.86	2441.18
561.06	2280.00
561.26	2488.90
561.46	2355.57
561.66	2124.15
561.86	2211.60
562.06	2047.15
562.26	2076.03
562.47	2060.87
562.67	1873.89
562.87	2123.74
563.07	1872.87
563.27	2019.30
563.47	2039.16
563.67	2010.70
563.87	2165.93
564.07	2115.76
564.27	2259.52
564.47	2366.02
564.67	2466.16
564.87	2355.78
565.08	2399.60
565.28	2232.29
565.48	2314.61
565.68	2209.76
565.88	2182.93
566.08	2307.24
566.28	2055.34
566.48	1875.32
566.68	1945.78
566.88	1906.45
567.08	2075.62
567.28	1954.38
567.48	2011.31
567.68	2091.39
567.88	1964.41
568.08	2162.45
568.28	2251.74
568.48	2126.82
568.68	2284.92
568.89	2094.05
569.09	1884.34
569.29	2168.59
569.49	2128.25
569.69	1874.71
569.89	1890.48
570.09	1760.23
570.29	1883.72
570.49	1780.71
570.69	1845.83
570.89	2056.37
571.09	2197.88
571.29	1781.32
571.49	2050.63
571.69	1966.66
571.89	1996.56
572.09	1856.69
572.29	1854.44
572.49	1986.94
572.69	2031.38
572.89	2001.89
573.09	1811.63
573.29	2140.13
573.49	2209.14
573.69	2172.49
573.89	2242.32
574.09	2056.98
574.29	2240.27
574.49	1974.65
574.69	1901.13
574.89	1850.54
575.09	1810.20
575.29	1845.02
575.49	1939.63
575.69	1999.43
575.89	1763.30
576.09	1933.69
576.29	1986.32
576.49	1843.79
576.69	2021.96
576.89	1972.60
577.09	2056.57
577.29	1876.55
577.49	2273.86
577.69	1902.97
577.89	2049.81
578.09	1977.31
578.29	1816.75
578.49	1926.32
578.69	1837.44
578.89	2052.88
579.09	1978.34
579.29	1896.01
579.49	2085.45
579.69	1971.78
579.89	2244.16
580.09	1822.90
580.29	1790.33
580.49	1912.80
580.69	1842.97
580.89	1909.53
581.09	1876.14
581.29	1870.82
581.49	1917.51
581.69	1795.45
581.89	1823.51
582.09	1816.55
582.28	1823.31
582.48	2092.20
582.68	2204.84
582.88	2279.80
583.08	2103.67
583.28	2067.83
583.48	2034.86
583.68	1935.94
583.88	2005.17
584.08	1969.33
584.28	1950.69
584.48	2219.18
584.68	2020.12
584.88	1910.35
585.08	2081.76
585.28	2090.98
585.48	2148.93
585.68	2055.96
585.87	2076.23
586.07	2071.93
586.27	1980.39
586.47	2020.94
586.67	1962.77
586.87	1959.70
587.07	1914.85
587.27	1873.07
587.47	2066.61
587.67	2349.84
587.87	2790.36
588.07	2687.75
588.27	2691.44
588.46	3003.96
588.66	2961.36
588.86	2615.26
589.06	2507.74
589.26	2490.53
589.46	2336.12
589.66	2031.38
589.86	1982.23
590.06	2117.80
590.26	2323.42
590.46	2274.27
590.66	2443.64
590.85	2375.23
591.05	2454.08
591.25	2191.53
591.45	2171.67
591.65	2299.25
591.85	2298.03
592.05	2276.93
592.25	2464.12
592.45	2536.41
592.64	2386.91
592.84	2323.22
593.04	2110.43
593.24	2563.03
593.44	2151.60
593.64	2221.43
593.84	2269.97
594.04	2153.64
594.24	2356.19
594.43	2020.53
594.63	2079.10
594.83	2153.85
595.03	2117.19
595.23	1881.67
595.43	1816.55
595.63	1865.90
595.83	2091.80
596.02	1768.42
596.22	1977.93
596.42	2057.80
596.62	2032.20
596.82	1950.08
597.02	2067.63
597.22	2193.78
597.41	2014.79
597.61	1931.03
597.81	2109.20
598.01	2178.63
598.21	2070.09
598.41	2051.45
598.61	2030.36
598.80	2128.45
599.00	2167.57
599.20	2251.74
599.40	2080.53
599.60	2116.58
599.80	2243.34
599.99	2244.16
600.19	2062.10
600.39	2119.65
600.59	2129.48
600.79	2059.85
600.99	2108.79
601.19	2262.80
601.38	2327.93
601.58	2128.66
601.78	1917.10
601.98	2458.59
602.18	3454.31
602.37	4262.23
602.57	4630.25
602.77	5158.63
602.97	5353.39
603.17	4943.18
603.37	4702.14
603.56	4676.33
603.76	4559.80
603.96	4356.03
604.16	4080.17
604.36	3727.71
604.56	3391.85
604.75	2944.36
604.95	2832.34
605.15	2880.06
605.35	2681.41
605.55	2448.76
605.74	2344.92
605.94	2447.94
606.14	2245.19
606.34	2155.08
606.54	2083.40
606.73	1985.30
606.93	2090.57
607.13	1906.66
607.33	1996.56
607.53	2166.34
607.72	2104.08
607.92	2045.10
608.12	2087.49
608.32	2009.06
608.51	2107.77
608.71	1960.11
608.91	2145.25
609.11	2245.80
609.31	2203.82
609.50	2372.57
609.70	2620.79
609.90	2582.69
610.10	2580.85
610.29	2425.82
610.49	2274.88
610.69	2370.11
610.89	2215.08
611.09	2199.93
611.28	2262.60
611.48	2206.07
611.68	2055.75
611.88	2014.18
612.07	1965.85
612.27	2155.90
612.47	1964.62
612.67	2022.16
612.86	2093.02
613.06	1979.57
613.26	1797.50
613.46	1986.94
613.65	2152.42
613.85	2538.87
614.05	2332.43
614.25	2336.73
614.44	2228.60
614.64	2235.15
614.84	2195.22
615.04	2117.39
615.23	2150.57
615.43	2228.39
615.63	2189.89
615.83	2057.18
616.02	2065.58
616.22	2453.26
616.42	2334.07
616.62	2389.98
616.81	2513.47
617.01	2538.66
617.21	2445.07
617.41	2182.32
617.60	2226.96
617.80	2280.82
618.00	2212.22
618.19	2094.46
618.39	2067.22
618.59	2082.99
618.79	1970.97
618.98	1770.26
619.18	1897.85
619.38	2196.04
619.57	1910.55
619.77	1877.58
619.97	1894.58
620.17	1936.97
620.36	1979.57
620.56	2308.68
620.76	2174.12
620.95	2281.03
621.15	2301.92
621.35	2201.98
621.54	2179.65
621.74	2168.18
621.94	2043.67
622.14	1981.61
622.33	1897.24
622.53	2010.29
622.73	1983.66
622.92	1811.43
623.12	1940.04
623.32	2172.69
623.51	2007.01
623.71	1786.44
623.91	2046.33
624.10	1845.83
624.30	1974.86
624.50	1821.26
624.69	1817.98
624.89	2427.25
625.09	1894.58
625.29	1722.34
625.48	1800.16
625.68	1960.73
625.88	2037.52
626.07	1944.34
626.27	1785.62
626.47	1831.91
626.66	1739.95
626.86	1864.68
627.06	1896.01
627.25	1927.55
627.45	2129.48
627.64	1882.29
627.84	2072.13
628.04	1828.84
628.23	2187.64
628.43	1786.65
628.63	1897.65
628.82	2012.74
629.02	2360.90
629.22	2212.22
629.41	2329.36
629.61	2194.19
629.81	2515.72
630.00	2182.32
630.20	2175.76
630.40	2358.03
630.59	2365.61
630.79	2195.01
630.98	2138.08
631.18	2118.62
631.38	2073.57
631.57	2160.20
631.77	1844.81
631.97	1999.02
632.16	1997.18
632.36	1955.81
632.56	1934.72
632.75	1957.45
632.95	2027.08
633.14	1746.51
633.34	2039.16
633.54	1706.16
633.73	1859.56
633.93	1858.33
634.12	1713.13
634.32	2266.28
634.52	1897.85
634.71	1760.84
634.91	1905.02
635.11	1752.24
635.30	1824.33
635.50	1960.93
635.69	1829.66
635.89	2220.20
636.09	2140.13
636.28	1933.69
636.48	1965.44
636.67	2143.81
636.87	2098.14
637.07	2037.93
637.26	1949.87
637.46	2090.57
637.65	2207.71
637.85	2096.92
638.04	2034.25
638.24	2051.25
638.44	2098.35
638.63	2040.39
638.83	1948.44
639.02	2044.49
639.22	2048.99
639.42	1916.49
639.61	1918.95
639.81	1955.61
640.00	1912.19
640.20	1994.52
640.39	2049.20
640.59	2568.97
640.79	2599.49
640.98	2694.51
641.18	2762.30
641.37	2814.11
641.57	2524.74
641.76	2498.73
641.96	2219.59
642.15	2326.49
642.35	2230.65
642.55	2222.87
642.74	2013.97
642.94	2209.76
643.13	2197.27
643.33	1910.96
643.52	1883.11
643.72	1888.43
643.91	1921.20
644.11	1838.67
644.31	1805.90
644.50	1851.16
644.70	2072.34
644.89	1885.36
645.09	1952.74
645.28	1908.91
645.48	1979.98
645.67	1806.92
645.87	1718.45
646.06	1894.58
646.26	2002.71
646.45	1729.51
646.65	1692.03
646.84	2172.89
647.04	1910.14
647.24	1783.37
647.43	1910.96
647.63	1951.30
647.82	2136.03
648.02	1787.26
648.21	1838.26
648.41	2096.92
648.60	1860.78
648.80	2014.59
648.99	1930.21
649.19	1848.70
649.38	1719.06
649.58	1921.20
649.77	1928.37
649.97	2045.92
650.16	1999.84
650.36	1684.04
650.55	2000.05
650.75	1954.38
650.94	2114.53
651.14	1904.20
651.33	1928.78
651.53	2126.20
651.72	1820.03
651.92	1884.34
652.11	1717.63
652.31	1982.84
652.50	1971.99
652.70	1920.59
652.89	1803.85
653.09	2140.33
653.28	1944.75
653.48	1760.02
653.67	1798.73
653.87	2365.81
654.06	1971.17
654.25	2073.98
654.45	1846.86
654.64	1906.86
654.84	1911.37
655.03	1708.21
655.23	1991.85
655.42	2014.59
655.62	2125.59
655.81	1957.24
656.01	1794.02
656.20	2009.06
656.40	2132.35
656.59	1916.28
656.79	2039.37
656.98	1945.78
657.17	2014.79
657.37	1902.97
657.56	1822.08
657.76	1976.90
657.95	2042.03
658.15	1598.23
658.34	1912.39
658.54	1928.16
658.73	1814.30
658.92	1851.36
659.12	1937.99
659.31	2031.18
659.51	1903.79
659.70	2070.50
659.90	2012.33
660.09	2192.35
660.29	2063.33
660.48	1913.62
660.67	2126.00
660.87	1939.84
661.06	2035.07
661.26	2032.40
661.45	2033.02
661.65	1990.63
661.84	1864.68
662.03	1863.86
662.23	1865.70
662.42	2168.59
662.62	1779.68
662.81	1802.62
663.00	1834.16
663.20	1907.68
663.39	1932.46
663.59	1978.34
663.78	1827.20
663.97	1840.71
664.17	2050.43
664.36	1752.65
664.56	1795.04
664.75	2045.10
664.94	2003.94
665.14	1955.40
665.33	1952.12
665.53	2028.92
665.72	2020.73
665.91	2116.78
666.11	1997.38
666.30	2011.92
666.50	1948.85
666.69	1987.35
666.88	1931.64
667.08	1986.12
667.27	1928.57
667.47	1956.01
667.66	1904.82
667.85	2042.64
668.05	1936.76
668.24	1856.07
668.43	2044.28
668.63	1886.79
668.82	2062.92
669.02	2016.23
669.21	1939.22
669.40	1812.04
669.60	2175.15
669.79	1798.12
669.98	2400.22
670.18	1828.84
670.37	1812.25
670.56	1901.54
670.76	1948.64
670.95	1928.37
671.15	2099.99
671.34	2002.30
671.53	1979.98
671.73	1943.11
671.92	1888.23
672.11	1811.43
672.31	1882.08
672.50	1982.23
672.69	1814.09
672.89	1694.69
673.08	1867.54
673.27	2026.06
673.47	1956.42
673.66	1942.09
673.85	1802.42
674.05	2117.19
674.24	2526.17
674.43	2654.58
674.63	3133.19
674.82	3568.18
675.01	3098.78
675.21	3123.97
675.40	2840.12
675.59	2749.19
675.79	2924.50
675.98	2545.22
676.17	2619.15
676.37	2512.24
676.56	2355.78
676.75	2276.11
676.95	2164.09
677.14	2070.70
677.33	2174.94
677.52	1858.74
677.72	1925.30
677.91	1987.35
678.10	1775.18
678.30	1815.73
678.49	1764.33
678.68	2176.99
678.88	1712.51
679.07	2023.80
679.26	1851.57
679.45	2140.13
679.65	2075.00
679.84	1715.79
680.03	1745.89
680.23	1888.84
680.42	2223.68
680.61	1782.14
680.81	1871.84
681.00	1938.20
681.19	1972.40
681.38	2001.48
681.58	1985.92
681.77	1901.13
681.96	2071.11
682.15	1928.98
682.35	1994.52
682.54	2009.26
682.73	1840.71
682.93	1853.21
683.12	1835.39
683.31	2020.12
683.50	2256.45
683.70	1860.17
683.89	1955.81
684.08	1811.84
684.27	2040.39
684.47	1768.63
684.66	1945.37
684.85	2166.14
685.04	2061.49
685.24	1837.03
685.43	1910.14
685.62	1746.10
685.81	2004.55
686.01	2226.14
686.20	2362.54
686.39	2453.06
686.58	3015.63
686.78	2841.15
686.97	2782.37
687.16	2641.67
687.35	2560.58
687.55	2410.05
687.74	2417.83
687.93	2305.81
688.12	2375.64
688.32	2341.24
688.51	2138.69
688.70	2235.77
688.89	1975.06
689.08	1910.96
689.28	1945.78
689.47	2027.49
689.66	1992.26
689.85	2028.31
690.05	1891.71
690.24	1874.10
690.43	1967.48
690.62	1917.51
690.81	1805.49
691.01	1925.30
691.20	1865.70
691.39	1785.21
691.58	1943.32
691.77	2183.34
691.97	1927.14
692.16	1956.83
692.35	1903.38
692.54	1913.62
692.73	2146.68
692.93	2150.57
693.12	2234.13
693.31	2362.13
693.50	2303.35
693.69	2264.44
693.89	2113.09
694.08	2317.89
694.27	2306.83
694.46	2031.99
694.65	2105.52
694.85	2194.60
695.04	2210.17
695.23	2169.41
695.42	2817.39
695.61	3403.11
695.80	3775.02
696.00	4167.00
696.19	4345.38
696.38	3804.10
696.57	3404.54
696.76	3312.79
696.95	3092.64
697.15	3119.06
697.34	3005.19
697.53	2611.36
697.72	2582.28
697.91	2420.29
698.10	2505.69
698.30	2147.91
698.49	2092.61
698.68	2096.30
698.87	1979.98
699.06	1882.70
699.25	1962.16
699.45	2097.12
699.64	1981.41
699.83	2029.95
700.02	1836.21
700.21	1991.85
700.40	1855.87
700.59	1874.10
700.79	1875.32
700.98	2003.32
701.17	1820.03
701.36	1837.23
701.55	1842.97
701.74	2194.81
701.93	2260.14
702.12	2688.78
702.32	2813.09
702.51	3205.89
702.70	3225.96
702.89	2943.96
703.08	2602.56
703.27	2810.02
703.46	2635.94
703.65	2452.65
703.85	2283.69
704.04	2289.63
704.23	2420.29
704.42	2101.83
704.61	2059.03
704.80	2271.81
704.99	1925.91
705.18	2002.71
705.37	1991.24
705.57	2556.27
705.76	3393.07
705.95	3597.87
706.14	4301.14
706.33	4614.69
706.52	4667.94
706.71	3808.81
706.90	3420.31
707.09	3387.14
707.28	3246.24
707.47	2900.33
707.67	2940.27
707.86	2665.02
708.05	2770.49
708.24	2414.96
708.43	2306.22
708.62	2142.18
708.81	1978.13
709.00	1875.12
709.19	1884.75
709.38	2078.07
709.57	1882.90
709.76	2034.66
709.96	1984.69
710.15	2302.94
710.34	2130.50
710.53	2196.45
710.72	2063.12
710.91	2161.43
711.10	2111.87
711.29	2078.28
711.48	1966.05
711.67	1935.13
711.86	2142.99
712.05	1930.62
712.24	1957.24
712.43	2095.89
712.62	2185.59
712.81	1975.47
713.00	2095.07
713.19	1832.52
713.39	2028.31
713.58	1844.40
713.77	2004.55
713.96	2114.32
714.15	2058.62
714.34	2048.99
714.53	1945.37
714.72	2304.99
714.91	1995.95
715.10	2077.66
715.29	1970.97
715.48	2494.22
715.67	2213.44
715.86	2074.80
716.05	2053.29
716.24	2013.15
716.43	1965.03
716.62	1879.01
716.81	1849.52
717.00	1945.78
717.19	2188.05
717.38	1968.71
717.57	1934.10
717.76	1773.75
717.95	2046.74
718.14	1920.59
718.33	1875.32
718.52	1750.60
718.71	1743.64
718.90	1764.73
719.09	1848.50
719.28	1925.50
719.47	2071.52
719.66	2144.22
719.85	2195.01
720.04	2187.03
720.23	2242.73
720.42	2163.27
720.61	2220.20
720.80	1985.51
720.99	2106.13
721.18	1989.60
721.37	1933.28
721.56	2001.48
721.75	2119.65
721.94	1918.74
722.13	1955.40
722.32	1950.90
722.51	2082.78
722.70	1912.19
722.89	1939.63
723.08	1915.67
723.27	2049.61
723.46	1934.92
723.65	1847.68
723.84	1845.63
724.03	2077.66
724.22	1790.33
724.41	1932.87
724.60	1875.94
724.79	2029.74
724.98	1933.69
725.16	1856.28
725.35	2002.91
725.54	1811.22
725.73	1917.92
725.92	1975.06
726.11	2079.92
726.30	2345.95
726.49	2221.84
726.68	2425.82
726.87	2541.94
727.06	2618.33
727.25	2215.70
727.44	2305.81
727.63	2246.62
727.82	2195.01
728.01	2186.62
728.20	2218.36
728.38	2286.97
728.57	2068.65
728.76	2040.60
728.95	2150.57
729.14	1838.87
729.33	1842.76
729.52	1732.79
729.71	1816.75
729.90	1842.97
730.09	1965.44
730.28	2059.85
730.47	2072.34
730.66	2352.30
730.84	2266.28
731.03	2192.56
731.22	2222.25
731.41	2180.06
731.60	2177.40
731.79	1916.69
731.98	1972.81
732.17	2135.21
732.36	2079.10
732.55	1924.07
732.73	1869.80
732.92	2130.09
733.11	2049.20
733.30	1876.14
733.49	1778.46
733.68	2049.61
733.87	2022.16
734.06	1920.38
734.25	2125.79
734.43	2321.58
734.62	2521.87
734.81	2572.04
735.00	2557.30
735.19	2483.16
735.38	2379.53
735.57	2178.22
735.76	2345.13
735.94	2522.48
736.13	3183.77
736.32	3292.31
736.51	3430.76
736.70	3880.29
736.89	3946.44
737.08	3736.31
737.27	4240.52
737.45	5319.19
737.64	5538.32
737.83	6196.33
738.02	6336.62
738.21	6054.21
738.40	5212.69
738.59	4710.94
738.77	4488.74
738.96	4082.63
739.15	3843.22
739.34	3631.46
739.53	3342.49
739.72	3248.08
739.90	3024.24
740.09	2585.36
740.28	2527.81
740.47	2433.19
740.66	2319.32
740.85	2063.74
741.03	2098.96
741.22	1965.64
741.41	2055.14
741.60	1929.19
741.79	2112.48
741.98	2254.40
742.16	2344.11
742.35	2207.10
742.54	2240.89
742.73	2609.11
742.92	2317.69
743.10	2272.02
743.29	2310.52
743.48	2608.50
743.67	2166.55
743.86	2030.56
744.05	2054.52
744.23	2028.51
744.42	2009.47
744.61	2060.67
744.80	1913.42
744.99	1957.86
745.17	1789.11
745.36	1819.62
745.55	1977.11
745.74	1944.55
745.93	1857.71
746.11	1830.88
746.30	1804.87
746.49	2062.92
746.68	1823.92
746.86	1904.82
747.05	1904.61
747.24	2030.56
747.43	2093.43
747.62	1887.00
747.80	1999.84
747.99	2227.37
748.18	2210.78
748.37	2109.20
748.56	2071.73
748.74	2181.70
748.93	2118.01
749.12	2364.79
749.31	3192.17
749.49	3785.26
749.68	4286.81
749.87	4751.70
750.06	4843.45
750.24	4992.74
750.43	5458.04
750.62	6038.64
750.81	6485.10
750.99	6835.51
751.18	6816.46
751.37	5811.11
751.56	5084.08
751.74	5141.84
751.93	4940.11
752.12	4054.16
752.31	3747.58
752.49	3519.64
752.68	3469.46
752.87	3041.85
753.06	2773.97
753.24	2589.86
753.43	2566.92
753.62	2231.06
753.81	2115.55
753.99	2309.49
754.18	2095.89
754.37	1895.40
754.55	1999.43
754.74	2203.82
754.93	1793.00
755.12	1901.74
755.30	1842.35
755.49	2088.52
755.68	1979.77
755.86	1964.62
756.05	1811.22
756.24	2132.35
756.43	1776.20
756.61	1801.80
756.80	1942.91
756.99	2100.40
757.17	1903.18
757.36	1826.17
757.55	1920.18
757.74	2015.00
757.92	1962.57
758.11	1783.99
758.30	1744.25
758.48	1914.03
758.67	1776.82
758.86	1931.64
759.04	1801.80
759.23	1878.19
759.42	1945.98
759.60	1839.28
759.79	1902.77
759.98	1885.16
760.16	1789.92
760.35	1807.54
760.54	1754.29
760.73	1957.45
760.91	1789.72
761.10	1937.17
761.29	1951.51
761.47	1960.32
761.66	2260.34
761.85	1997.38
762.03	2195.42
762.22	3091.61
762.41	5955.29
762.59	9232.65
762.78	10930.21
762.97	13150.83
763.15	13980.25
763.34	12797.14
763.52	9661.70
763.71	9058.37
763.90	8403.43
764.08	7783.31
764.27	7318.21
764.46	6870.94
764.64	6054.00
764.83	5497.77
765.02	4996.22
765.20	4410.10
765.39	3875.58
765.58	3058.44
765.76	2781.35
765.95	2500.98
766.13	2306.42
766.32	2153.23
766.51	2105.11
766.69	2629.59
766.88	2068.24
767.07	1878.81
767.25	1758.39
767.44	2114.73
767.62	2135.01
767.81	1880.04
768.00	1935.33
768.18	1996.36
768.37	1924.89
768.56	1812.45
768.74	1874.51
768.93	1813.48
769.11	2019.30
769.30	1931.44
769.49	1864.27
769.67	1891.30
769.86	1896.83
770.04	1891.91
770.23	1880.85
770.42	2122.31
770.60	1956.83
770.79	1812.66
770.97	1905.43
771.16	2484.60
771.35	3284.94
771.53	4113.55
771.72	4638.03
771.90	5236.45
772.09	5597.10
772.27	5068.72
772.46	4029.79
772.65	4106.79
772.83	3810.45
773.02	3689.42
773.20	3395.12
773.39	3390.82
773.58	3223.71
773.76	2814.93
773.95	2697.17
774.13	2624.06
774.32	2372.57
774.50	2134.19
774.69	2153.64
774.87	1998.82
775.06	2268.74
775.25	1874.71
775.43	1911.98
775.62	1991.85
775.80	1987.35
775.99	1944.55
776.17	1831.09
776.36	1919.77
776.54	2105.52
776.73	1863.45
776.92	1973.63
777.10	2072.95
777.29	1961.95
777.47	1853.82
777.66	1849.11
777.84	1947.82
778.03	1907.68
778.21	1831.09
778.40	1953.76
778.58	1954.38
778.77	2051.86
778.95	1788.70
779.14	1831.09
779.32	2136.65
779.51	2025.24
779.70	1868.57
779.88	1756.75
780.07	1865.90
780.25	2244.16
780.44	1850.13
780.62	2009.47
780.81	2026.87
780.99	1946.18
781.18	1825.15
781.36	1847.27
781.55	1903.79
781.73	2123.13
781.92	1777.84
782.10	1769.65
782.29	1969.74
782.47	2114.73
782.66	1906.86
782.84	1755.52
783.03	1814.09
783.21	2067.42
783.40	1884.54
783.58	1839.69
783.77	1839.90
783.95	1897.24
784.14	1776.82
784.32	1913.21
784.51	2077.87
784.69	1865.90
784.88	1802.21
785.06	1955.61
785.24	1807.74
785.43	2065.17
785.61	2012.13
785.80	1853.41
785.98	2043.05
786.17	2000.87
786.35	1836.21
786.54	1994.31
786.72	2058.82
786.91	2065.17
787.09	1904.41
787.28	1790.95
787.46	1947.62
787.65	2037.11
787.83	1791.97
788.01	1942.29
788.20	1857.51
788.38	1993.29
788.57	1959.29
788.75	1995.13
788.94	2246.01
789.12	2158.35
789.31	1968.30
789.49	2034.86
789.67	1920.18
789.86	2008.65
790.04	1889.05
790.23	1824.94
790.41	2292.91
790.60	1996.77
790.78	1977.93
790.96	1952.74
791.15	2062.51
791.33	1927.75
791.52	1918.13
791.70	1854.85
791.89	1936.76
792.07	2076.85
792.25	1944.55
792.44	1775.79
792.62	2080.33
792.81	1880.04
792.99	1925.91
793.17	1821.87
793.36	1868.77
793.54	2384.65
793.73	2846.27
793.91	3504.89
794.10	4029.79
794.28	4567.79
794.46	4564.92
794.65	4496.32
794.83	3713.17
795.01	3530.08
795.20	3550.77
795.38	3334.09
795.57	3255.66
795.75	3148.55
795.93	2903.41
796.12	2790.97
796.30	2765.99
796.49	2629.59
796.67	2315.23
796.85	2403.70
797.04	2227.37
797.22	2210.17
797.40	1905.84
797.59	2000.87
797.77	1990.42
797.96	1880.65
798.14	1857.10
798.32	1874.51
798.51	2042.44
798.69	2185.39
798.87	1933.08
799.06	1890.89
799.24	1802.01
799.42	2255.84
799.61	2589.04
799.79	2928.80
799.98	3422.57
800.16	3591.52
800.34	4334.32
800.53	5254.47
800.71	5584.81
800.89	6472.61
801.08	6643.82
801.26	6600.60
801.44	5641.13
801.63	4774.43
801.81	4700.09
801.99	4368.73
802.18	4148.78
802.36	3982.68
802.54	3744.92
802.73	3295.18
802.91	3177.01
803.09	3001.50
803.28	2821.69
803.46	2636.55
803.64	2653.96
803.83	2189.28
804.01	2068.65
804.19	1984.07
804.38	2195.63
804.56	2162.65
804.74	2012.54
804.92	2070.29
805.11	1911.37
805.29	2137.87
805.47	1917.92
805.66	1867.34
805.84	1856.48
806.02	2110.23
806.21	1943.73
806.39	2101.01
806.57	2112.07
806.76	2087.29
806.94	1971.58
807.12	1932.87
807.30	1970.15
807.49	2050.63
807.67	2058.00
807.85	2140.74
808.04	2140.74
808.22	2304.78
808.40	1847.88
808.58	1868.77
808.77	2086.47
808.95	2263.62
809.13	2427.66
809.31	3816.39
809.50	5281.30
809.68	6046.22
809.86	6662.25
810.05	7159.29
810.23	7947.55
810.41	9958.04
810.59	15467.28
810.78	18987.13
810.96	21785.88
811.14	23610.83
811.32	23070.57
811.51	18875.72
811.69	15151.90
811.87	14970.24
812.05	13172.33
812.24	12370.14
812.42	11465.76
812.60	10294.52
812.78	8729.26
812.97	7562.74
813.15	6932.78
813.33	6017.55
813.51	5244.85
813.70	4324.08
813.88	3616.71
814.06	3202.82
814.24	2750.01
814.42	2322.81
814.61	2307.24
814.79	2395.30
814.97	1925.09
815.15	1971.58
815.34	2034.66
815.52	2105.11
815.70	1869.39
815.88	1900.52
816.06	1842.15
816.25	1901.95
816.43	1846.04
816.61	1984.07
816.79	2143.61
816.98	1801.39
817.16	1928.57
817.34	1848.29
817.52	2058.62
817.70	2217.95
817.89	1926.93
818.07	1835.80
818.25	1952.12
818.43	1970.15
818.61	1934.10
818.80	1884.13
818.98	2153.03
819.16	1943.52
819.34	1820.23
819.52	2100.81
819.70	1827.20
819.89	1927.55
820.07	1751.22
820.25	1724.59
820.43	1966.05
820.61	2009.47
820.80	1885.77
820.98	1802.42
821.16	1693.26
821.34	1769.45
821.52	1866.72
821.70	1903.38
821.89	1935.94
822.07	1860.58
822.25	1891.30
822.43	1817.78
822.61	2094.05
822.79	1933.08
822.98	1834.37
823.16	1688.76
823.34	1951.71
823.52	2033.63
823.70	1986.94
823.88	1714.15
824.06	1970.97
824.25	1901.13
824.43	1982.43
824.61	1858.74
824.79	2010.08
824.97	2037.52
825.15	2188.46
825.33	2509.38
825.52	3050.24
825.70	3263.85
825.88	3440.18
826.06	3720.95
826.24	3793.86
826.42	3524.96
826.60	3040.62
826.78	3112.09
826.97	2835.41
827.15	2936.17
827.33	2594.37
827.51	2647.00
827.69	2443.64
827.87	2453.26
828.05	2388.75
828.23	2154.67
828.41	2316.25
828.60	2258.70
828.78	1910.55
828.96	2070.50
829.14	1935.33
829.32	1931.85
829.50	1888.43
829.68	1877.58
829.86	1859.97
830.04	2011.51
830.22	1930.62
830.41	1779.07
830.59	1887.00
830.77	1986.73
830.95	1847.47
831.13	1834.16
831.31	1821.87
831.49	2036.50
831.67	1971.37
831.85	1982.43
832.03	1883.93
832.21	1998.41
832.39	1781.94
832.57	1821.87
832.76	2042.85
832.94	1919.36
833.12	1734.63
833.30	1878.81
833.48	2049.20
833.66	1946.59
833.84	1829.66
834.02	1883.52
834.20	2005.58
834.38	2025.44
834.56	1706.98
834.74	1798.12
834.92	1769.04
835.10	2136.85
835.28	1923.66
835.46	1881.47
835.64	1880.04
835.82	1805.49
836.01	2103.67
836.19	1978.54
836.37	1824.54
836.55	1788.90
836.73	1804.06
836.91	1760.43
837.09	1981.61
837.27	2083.19
837.45	1751.42
837.63	1802.62
837.81	1776.61
837.99	1932.05
838.17	1910.35
838.35	1881.67
838.53	2312.98
838.71	2106.54
838.89	1976.90
839.07	1939.63
839.25	2054.52
839.43	2154.46
839.61	2248.46
839.79	3252.38
839.97	4298.48
840.15	4869.86
840.33	5289.90
840.51	5708.51
840.69	5487.74
840.87	4692.31
841.05	4239.50
841.23	4472.56
841.41	5457.02
841.59	7401.77
841.77	8275.02
841.95	8931.60
842.13	9656.17
842.31	9096.87
842.49	7519.53
842.67	6498.82
842.85	6321.67
843.03	5588.70
843.21	5322.06
843.39	5081.42
843.57	4596.67
843.75	4275.54
843.93	3792.22
844.11	3436.08
844.29	3247.46
844.47	3026.28
844.65	2944.57
844.83	2578.60
845.01	2447.73
845.19	2422.13
845.36	2145.86
845.54	2124.15
845.72	2026.06
845.90	2069.06
846.08	1824.33
846.26	1909.53
846.44	1994.31
846.62	1995.54
846.80	1907.68
846.98	1805.49
847.16	1890.89
847.34	1915.87
847.52	1746.30
847.70	1786.65
847.88	1876.96
848.06	2077.05
848.24	1941.27
848.41	1747.94
848.59	2041.82
848.77	1973.42
848.95	1853.21
849.13	1798.94
849.31	1970.76
849.49	1955.20
849.67	1768.22
849.85	1760.02
850.03	1950.69
850.21	1926.93
850.39	1817.57
850.57	1919.56
850.74	2088.11
850.92	2149.34
851.10	2259.11
851.28	2575.32
851.46	2895.21
851.64	3333.48
851.82	3121.10
852.00	3190.33
852.18	3094.89
852.36	2798.14
852.53	2613.00
852.71	2636.15
852.89	2580.03
853.07	2513.47
853.25	2277.34
853.43	2146.07
853.61	2232.90
853.79	2210.58
853.97	2015.00
854.14	1977.11
854.32	2221.02
854.50	2124.15
854.68	1924.68
854.86	1870.82
855.04	1857.10
855.22	2026.47
855.40	1755.31
855.57	1833.96
855.75	2007.83
855.93	1950.90
856.11	1695.31
856.29	1773.13
856.47	1801.80
856.65	1930.62
856.82	1802.83
857.00	1738.11
857.18	1883.11
857.36	1837.85
857.54	1899.49
857.72	1969.94
857.89	1969.33
858.07	1895.40
858.25	1977.72
858.43	1745.48
858.61	1849.32
858.79	1908.30
858.97	1749.58
859.14	1909.12
859.32	1846.86
859.50	1861.60
859.68	1929.39
859.86	1842.15
860.03	1972.81
860.21	2010.90
860.39	1880.44
860.57	1971.78
860.75	1986.94
860.93	2192.15
861.10	2044.90
861.28	1859.56
861.46	2024.42
861.64	2007.83
861.82	1891.30
861.99	1974.65
862.17	2069.88
862.35	2056.78
862.53	1897.24
862.71	1888.02
862.88	1956.22
863.06	2013.77
863.24	1868.77
863.42	1779.68
863.60	1900.72
863.77	1960.52
863.95	1675.03
864.13	1859.97
864.31	1848.70
864.49	1952.33
864.66	1730.94
864.84	1792.59
865.02	1930.62
865.20	2237.82
865.37	1866.11
865.55	1809.99
865.73	1785.01
865.91	2074.18
866.09	2065.17
866.26	2076.44
866.44	2196.24
866.62	2102.85
866.80	1964.21
866.97	2014.38
867.15	2014.18
867.33	2046.74
867.51	2050.43
867.68	1988.99
867.86	1927.55
868.04	1892.32
868.22	1739.95
868.39	1891.30
868.57	1986.53
868.75	2126.20
868.93	1756.54
869.10	1812.25
869.28	2139.51
869.46	2096.51
869.64	1858.53
869.81	1835.18
869.99	1942.09
870.17	1935.33
870.35	1766.17
870.52	1772.72
870.70	1993.29
870.88	1833.55
871.05	1766.37
871.23	1666.23
871.41	1896.01
871.59	1885.36
871.76	1808.36
871.94	1794.02
872.12	1877.78
872.29	1686.30
872.47	1798.12
872.65	1739.54
872.83	1935.13
873.00	2091.39
873.18	1837.64
873.36	1802.21
873.53	1959.70
873.71	1749.37
873.89	1794.84
874.06	1866.11
874.24	1927.14
874.42	2075.41
874.60	1964.41
874.77	1896.21
874.95	1831.50
875.13	2020.73
875.30	1816.75
875.48	1871.02
875.66	2134.60
875.83	1836.21
876.01	1847.88
876.19	1993.70
876.36	1769.44
876.54	1919.36
876.72	1771.90
876.89	1906.04
877.07	1996.16
877.25	1690.19
877.42	1884.34
877.60	1846.86
877.78	2112.89
877.95	1860.17
878.13	1791.77
878.31	1932.26
878.48	1981.82
878.66	1984.07
878.84	1806.31
879.01	1857.10
879.19	1928.57
879.37	1956.01
879.54	1812.66
879.72	1736.68
879.90	1704.73
880.07	1981.00
880.25	1596.19
880.42	1920.59
880.60	1922.43
880.78	1954.99
880.95	1836.21
881.13	1832.32
881.31	1869.80
881.48	1811.43
881.66	1786.44
881.83	1861.81
882.01	1785.21
882.19	1743.03
882.36	1857.30
882.54	1819.62
882.72	1972.40
882.89	1900.31
883.07	1763.71
883.24	1841.33
883.42	1981.61
883.60	1877.17
883.77	1757.98
883.95	1867.34
884.12	2079.30
884.30	2012.33
884.48	2050.02
884.65	1971.78
884.83	2031.79
885.00	2049.81
885.18	1817.37
885.36	1853.21
885.53	2041.62
885.71	2092.20
885.88	1775.59
886.06	1823.31
886.23	1971.17
886.41	1849.52
886.59	1790.74
886.76	1813.89
886.94	1952.74
887.11	2262.60
887.29	1820.03
887.47	1746.92
887.64	2024.83
887.82	2072.54
887.99	1685.89
888.17	1869.39
888.34	1822.28
888.52	1763.92
888.69	1860.78
888.87	1759.41
889.05	1834.98
889.22	1834.16
889.40	1774.56
889.57	1954.58
889.75	2080.74
889.92	1827.61
890.10	1740.36
890.27	1840.30
890.45	1830.27
890.62	1682.41
890.80	1743.44
890.98	1698.18
891.15	2050.84
891.33	1963.59
891.50	1773.75
891.68	1719.27
891.85	1950.28
892.03	1966.05
892.20	1793.61
892.38	1751.83
892.55	1973.01
892.73	1950.08
892.90	1740.16
893.08	1776.82
893.25	1805.69
893.43	1813.27
893.60	1905.84
893.78	1656.19
893.95	1917.51
894.13	1857.51
894.30	1753.06
894.48	1858.53
894.65	1992.06
894.83	1894.58
895.00	1675.24
895.18	1657.01
895.35	2006.39
895.53	1986.73
895.70	1736.88
895.88	1924.27
896.05	1966.87
896.23	1755.52
896.40	1787.88
896.58	1891.30
896.75	1996.16
896.93	2070.29
897.10	1806.92
897.28	1711.49
897.45	1909.12
897.63	1941.68
897.80	1939.43
897.98	1824.13
898.15	1936.56
898.33	1782.76
898.50	1893.76
898.67	1880.65
898.85	1855.46
899.02	1949.67
899.20	1982.23
899.37	1842.35
899.55	1892.94
899.72	2075.21
899.90	1784.60
900.07	1749.99
900.25	1951.30
900.42	2029.54
900.59	1793.41
900.77	1904.82
900.94	1967.89
901.12	1928.16
901.29	1778.66
901.47	1927.34
901.64	1938.40
901.82	1888.84
901.99	1614.62
902.16	1783.99
902.34	2008.65
902.51	1922.22
902.69	1799.96
902.86	1850.75
903.03	2319.53
903.21	1887.00
903.38	1831.50
903.56	1777.02
903.73	2002.91
903.91	1847.68
904.08	1739.54
904.25	1670.12
904.43	1787.06
904.60	1995.95
904.78	1815.52
904.95	1767.81
905.12	1863.65
905.30	2099.99
905.47	1953.97
905.65	1982.23
905.82	1918.95
905.99	2026.47
906.17	1908.71
906.34	1849.93
906.52	1894.37
906.69	2086.88
906.86	2032.81
907.04	1938.40
907.21	2091.18
907.38	2081.35
907.56	1857.30
907.73	1828.02
907.91	2117.19
908.08	2058.00
908.25	1784.19
908.43	1799.55
908.60	1949.67
908.77	1917.51
908.95	1816.34
909.12	1769.04
909.30	1981.00
909.47	1735.04
909.64	1852.18
909.82	1943.11
909.99	1863.86
910.16	1916.28
910.34	1772.72
910.51	1806.31
910.68	1906.86
910.86	1881.47
911.03	1784.80
911.20	2048.38
911.38	2821.28
911.55	3883.36
911.72	4314.66
911.90	4488.33
912.07	4874.78
912.24	4915.33
912.42	3938.86
912.59	3136.46
912.76	3156.53
912.94	2823.94
913.11	2577.16
913.28	2386.70
913.46	2295.16
913.63	2381.38
913.80	2517.77
913.98	2155.49
914.15	2336.53
914.32	2348.41
914.49	2179.86
914.67	2021.55
914.84	2165.52
915.01	2209.35
915.19	2104.49
915.36	1988.17
915.53	2148.73
915.71	2058.00
915.88	1965.03
916.05	1827.40
916.22	2029.95
916.40	1921.81
916.57	1787.88
916.74	1903.79
916.92	2107.36
917.09	1780.30
917.26	1779.89
917.43	1724.39
917.61	1842.76
917.78	1735.24
917.95	1679.54
918.13	1751.83
918.30	2179.04
918.47	1906.45
918.64	1799.14
918.82	1783.17
918.99	1962.36
919.16	2205.46
919.33	1975.27
919.51	1915.67
919.68	2019.50
919.85	2138.69
920.02	1770.67
920.20	1896.21
920.37	2110.23
920.54	2014.38
920.71	1785.42
920.89	1823.51
921.06	2143.61
921.23	1812.86
921.40	1831.09
921.58	2158.76
921.75	2703.32
921.92	2366.43
922.09	2431.14
922.27	2492.17
922.44	2440.15
922.61	2305.60
922.78	2076.64
922.96	2015.41
923.13	2003.53
923.30	2148.32
923.47	1814.09
923.64	1885.77
923.82	2050.84
923.99	2002.71
924.16	1950.28
924.33	1808.36
924.50	1966.46
924.68	2127.63
924.85	1786.03
925.02	1855.46
925.19	2035.48
925.36	1950.69
925.54	1894.99
925.71	1882.49
925.88	2306.22
926.05	1868.77
926.22	1772.11
926.40	1879.22
926.57	1950.90
926.74	1963.80
926.91	1767.19
927.08	2000.25
927.26	2010.08
927.43	1882.90
927.60	1758.80
927.77	1853.41
927.94	2111.05
928.11	2015.20
928.29	1694.49
928.46	1870.21
928.63	1809.18
928.80	1874.92
928.97	1926.52
929.14	1756.54
929.32	2162.25
929.49	1919.77
929.66	1777.23
929.83	1696.13
930.00	1831.70
930.17	1934.72
930.35	1706.37
930.52	1804.47
930.69	2098.55
930.86	1737.09
931.03	1865.49
931.20	1634.69
931.37	2003.53
931.55	1860.78
931.72	1840.92
931.89	1696.13
932.06	1771.90
932.23	2086.27
932.40	1914.65
932.57	1902.15
932.74	2044.69
932.92	2050.84
933.09	1928.57
933.26	1568.54
933.43	1827.40
933.60	1919.36
933.77	1857.10
933.94	1868.57
934.11	1836.82
934.29	1883.93
934.46	1730.12
934.63	1896.83
934.80	1760.64
934.97	1886.38
935.14	1851.77
935.31	1721.52
935.48	1804.26
935.65	1925.91
935.82	1890.89
936.00	1748.97
936.17	2083.40
936.34	1887.00
936.51	1919.77
936.68	1713.74
936.85	1922.02
937.02	1912.80
937.19	1907.68
937.36	1829.86
937.53	1936.15
937.70	2020.53
937.87	1821.05
938.05	1897.44
938.22	1909.12
938.39	1773.54
938.56	1811.63
938.73	1746.10
938.90	1871.43
939.07	1809.18
939.24	1836.41
939.41	1663.16
939.58	1911.57
939.75	1967.07
939.92	1766.58
940.09	1966.25
940.26	1850.75
940.43	1974.86
940.60	1787.88
940.77	1796.48
940.95	1924.07
941.12	1981.61
941.29	1793.82
941.46	1848.29
941.63	2045.51
941.80	2057.18
941.97	1698.18
942.14	1715.79
942.31	1934.31
942.48	1872.05
942.65	1880.44
942.82	1826.79
942.99	1961.13
943.16	1882.70
943.33	1719.06
943.50	1741.18
943.67	1957.86
943.84	2029.74
944.01	1814.50
944.18	1744.46
944.35	2040.39
944.52	1770.26
944.69	1826.99
944.86	1717.43
945.03	1988.78
945.20	2217.75
945.37	1690.19
945.54	1857.51
945.71	2079.10
945.88	2104.29
946.05	1777.84
946.22	1726.44
946.39	2060.26
946.56	1871.43
946.73	1724.80
946.90	1771.90
947.07	1832.32
947.24	1854.85
947.41	1675.65
947.58	1913.62
947.75	1988.78
947.92	1952.33
948.09	1598.23
948.26	1698.99
948.43	1909.73
948.60	2146.68
948.77	1747.12
948.94	1779.48
949.11	2004.76
949.27	1957.04
949.44	1740.36
949.61	1735.24
949.78	1917.51
949.95	2022.78
950.12	1719.47
950.29	1718.86
950.46	1839.49
950.63	2011.92
950.80	1782.76
950.97	1824.54
951.14	2002.09
951.31	1838.26
951.48	1751.01
951.65	1709.85
951.82	2114.73
951.99	1883.11
952.15	1687.94
952.32	1794.43
952.49	1813.48
952.66	1804.26
952.83	1731.76
953.00	1747.74
953.17	1872.46
953.34	1995.13
953.51	1831.91
953.68	1813.27
953.85	2013.77
954.02	2010.90
954.18	1833.55
954.35	1786.03
954.52	1782.76
954.69	1902.36
954.86	1641.45
955.03	1806.51
955.20	1949.46
955.37	1849.32
955.54	1780.09
955.71	1750.81
955.87	1926.73
956.04	2104.90
956.21	1765.76
956.38	1748.97
956.55	1890.07
956.72	2186.00
956.89	1801.60
957.06	1750.81
957.23	1785.62
957.39	2051.45
957.56	1780.09
957.73	1742.82
957.90	1629.98
958.07	2139.92
958.24	1830.88
958.41	1771.49
958.57	1962.36
958.74	1852.59
958.91	1735.86
959.08	1765.35
959.25	1965.64
959.42	1859.56
959.59	1835.39
959.75	1794.43
959.92	2014.38
960.09	1987.35
960.26	1767.60
960.43	1849.52
960.60	1909.32
960.76	1848.70
960.93	1683.64
961.10	1845.63
961.27	1996.36
961.44	1860.37
961.61	1690.80
961.77	1711.90
961.94	1922.43
962.11	1987.96
962.28	1783.78
962.45	1705.96
962.62	1881.47
962.78	2003.32
962.95	1703.71
963.12	1785.62
963.29	1954.79
963.46	2233.11
963.62	1855.05
963.79	1784.60
963.96	2195.63
964.13	1820.03
964.30	1856.48
964.46	1790.54
964.63	1734.42
964.80	2236.79
964.97	1702.89
965.14	1940.86
965.30	2072.75
965.47	2177.40
965.64	2061.89
965.81	2036.09
965.98	2210.58
966.14	1999.64
966.31	1870.41
966.48	1856.69
966.65	2089.13
966.81	2010.70
966.98	1872.25
967.15	1855.66
967.32	1925.91
967.49	1862.63
967.65	1673.80
967.82	1693.87
967.99	1865.70
968.16	1731.35
968.32	1947.62
968.49	1828.84
968.66	1897.85
968.83	2119.03
968.99	1857.51
969.16	1721.73
969.33	2065.99
969.50	1949.87
969.66	1887.00
969.83	2024.21
970.00	1983.05
970.17	1927.14
970.33	1787.26
970.50	1720.09
970.67	2049.20
970.84	2065.99
971.00	1732.99
971.17	1737.09
971.34	1953.76
971.50	1870.00
971.67	1899.90
971.84	1815.32
972.01	1732.99
972.17	1686.50
972.34	1735.04
972.51	1897.03
972.67	1997.38
972.84	1924.27
973.01	1725.41
973.18	1762.48
973.34	1975.68
973.51	1775.79
973.68	1786.24
973.84	1815.73
974.01	1855.66
974.18	2087.08
974.34	1858.74
974.51	1855.46
974.68	1784.60
974.85	2111.66
975.01	1924.07
975.18	1800.78
975.35	1881.47
975.51	1767.19
975.68	1683.64
975.85	1911.37
976.01	1830.06
976.18	2051.86
976.35	1790.33
976.51	1762.69
976.68	2072.34
976.85	2028.10
977.01	1839.08
977.18	1866.93
977.35	1976.70
977.51	1735.45
977.68	1638.38
977.85	1701.86
978.01	2014.59
978.18	1971.99
978.35	1836.62
978.51	1866.31
978.68	2004.55
978.85	2098.14
979.01	1746.92
979.18	1857.30
979.34	1868.98
979.51	1902.36
979.68	1744.87
979.84	1828.02
980.01	2206.89
980.18	1914.65
980.34	1743.64
980.51	1873.28
980.67	1972.40
980.84	1997.38
981.01	1809.18
981.17	1876.35
981.34	1697.97
981.51	1977.93
981.67	1754.70
981.84	1891.09
982.00	1945.57
982.17	1856.69
982.34	1694.08
982.50	1573.66
982.67	2078.07
982.83	1825.35
983.00	1704.32
983.17	1629.77
983.33	2006.19
983.50	1699.61
983.66	1698.18
983.83	1587.99
984.00	1821.67
984.16	1875.32
984.33	1633.87
984.49	1611.55
984.66	1751.63
984.83	1990.01
984.99	1665.82
985.16	1622.20
985.32	1958.27
985.49	1976.09
985.65	1738.11
985.82	1609.50
985.99	2064.76
986.15	1902.56
986.32	1690.39
986.48	1675.24
986.65	1809.59
986.81	1967.69
986.98	1630.80
987.14	1692.24
987.31	1897.65
987.48	1683.84
987.64	1565.88
987.81	1620.56
987.97	2133.78
988.14	1779.89
988.30	1622.20
988.47	1520.82
988.63	1920.79
988.80	1734.42
988.96	1701.04
989.13	1727.26
989.30	1846.45
989.46	2010.08
989.63	1578.98
989.79	1577.55
989.96	1843.79
990.12	2074.59
990.29	1648.21
990.45	1669.71
990.62	1898.67
990.78	2032.61
990.95	1727.87
991.11	1642.06
991.28	1806.92
991.44	1915.06
991.61	1549.49
991.77	1689.57
991.94	1888.23
992.10	2022.78
992.27	1664.38
992.43	1685.89
992.60	1953.15
992.76	1834.98
992.93	1796.68
993.09	1608.88
993.26	1973.42
993.42	2101.01
993.59	1641.45
993.75	1573.45
993.92	1794.84
994.08	1787.88
994.25	1728.69
994.41	1601.92
994.58	1947.21
994.74	2054.73
994.91	1631.21
995.07	1712.92
995.24	1839.69
995.40	1865.49
995.56	1772.72
995.73	1731.15
995.89	2070.70
996.06	1852.18
996.22	1652.71
996.39	1560.55
996.55	1840.71
996.72	1919.56
996.88	1589.63
997.05	1643.49
997.21	2127.02
997.37	1931.44
997.54	1730.33
997.70	1678.31
997.87	1918.95
998.03	1875.53
998.20	1587.38
998.36	1563.01
998.52	1950.28
998.69	1979.98
998.85	1582.67
999.02	1660.90
999.18	1998.20
999.35	1992.67
999.51	1679.13
999.67	1659.26
999.84	1747.12
1000.00	1966.25
1000.17	1741.80
1000.33	1599.46
1000.49	1814.09
1000.66	1861.19
1000.82	1648.21
1000.99	1723.37
1001.15	2021.96
1001.31	1835.59
1001.48	1660.29
1001.64	1716.40
1001.81	1813.27
1001.97	2123.95
1002.13	1628.54
1002.30	1663.57
1002.46	2034.86
1002.63	1852.59
1002.79	1711.49
1002.95	1618.51
1003.12	2003.32
1003.28	1944.34
1003.45	1639.40
1003.61	1609.29
1003.77	1898.47
1003.94	1705.96
1004.10	1670.32
1004.26	1705.75
1004.43	1954.99
1004.59	2080.53
1004.75	1656.19
1004.92	1613.39
1005.08	1823.51
1005.25	1931.23
1005.41	1659.47
1005.57	1741.59
1005.74	2027.90
1005.90	1841.94
1006.06	1747.12
1006.23	1655.99
1006.39	1968.30
1006.55	2218.36
1006.72	1808.15
1006.88	1622.20
1007.04	1802.83
1007.21	1868.77
1007.37	1662.75
1007.53	1646.57
1007.70	2051.66
1007.86	1939.84
1008.02	1722.55
1008.19	1601.31
1008.35	1915.47
1008.51	1776.41
1008.68	1655.58
1008.84	1583.28
1009.00	1772.11
1009.17	2018.68
1009.33	1790.54
1009.49	1726.03
1009.65	1794.02
1009.82	1933.28
1009.98	1737.91
1010.14	1590.25
1010.31	1966.66
1010.47	1937.17
1010.63	1713.54
1010.80	1702.07
1010.96	1939.02
1011.12	1873.28
1011.28	1655.99
1011.45	1635.51
1011.61	2180.27
1011.77	1772.72
1011.94	1608.88
1012.10	1593.32
1012.26	1745.48
1012.42	1797.30
1012.59	1707.60
1012.75	1682.20
1012.91	1859.15
1013.07	1978.75
1013.24	1610.73
1013.40	1635.92
1013.56	1903.18
1013.72	1854.03
1013.89	1726.44
1014.05	1716.81
1014.21	2128.25
1014.37	2188.25
1014.54	1693.47
1014.70	1610.93
1014.86	1819.01
1015.02	1752.24
1015.19	1663.36
1015.35	1616.26
1015.51	1859.97
1015.67	1804.47
1015.84	1632.64
1016.00	1641.86
1016.16	2013.15
1016.32	1980.59
1016.49	1641.04
1016.65	1611.96
1016.81	1864.06
1016.97	1933.69
1017.14	1744.87
1017.30	1650.87
1017.46	1801.80
1017.62	1922.22
1017.78	1725.82
1017.95	1607.04
1018.11	1973.83
1018.27	2167.57
1018.43	1773.95
1018.59	1687.94
1018.76	1948.23
1018.92	2222.05
1019.08	1642.47
1019.24	1644.72
1019.40	2026.87
1019.57	1902.77
1019.73	1745.69
1019.89	1650.66
1020.05	1918.13
1020.21	2142.18
1020.38	1628.54
1020.54	1799.96
1020.70	1919.15
1020.86	1965.64
1021.02	1665.20
1021.18	1641.65
1021.35	1831.70
1021.51	1936.15
1021.67	1797.30
1021.83	1663.77
1021.99	1879.22
1022.15	1913.83
1022.32	1708.62
1022.48	1705.55
1022.64	2039.98
1022.80	2075.00
1022.96	1696.13
1023.12	1624.86
1023.29	2003.32
1023.45	1934.72
1023.61	1624.45
1023.77	1808.15
1023.93	1890.28
1024.09	1786.65
1024.25	1626.50
1024.42	1596.39
1024.58	1824.13
1024.74	1897.44
1024.90	1636.94
1025.06	1726.44
1025.22	1794.84
1025.38	2094.87
1025.54	1618.71
1025.71	1718.66
1025.87	1951.30
1026.03	1935.74
1026.19	1625.88
1026.35	1815.11
1026.51	1935.33
1026.67	1867.75
1026.83	1703.71
1026.99	1780.91
1027.16	1920.79
1027.32	1862.83
1027.48	1680.15
1027.64	1631.62
1027.80	1950.08
1027.96	1905.02
1028.12	1685.27
1028.28	1634.48
1028.44	1925.50
1028.60	2067.42
1028.77	1768.22
1028.93	1698.99
1029.09	1813.89
1029.25	1743.23
1029.41	1683.23
1029.57	1760.84
1029.73	1918.33
1029.89	2057.39
1030.05	1762.69
1030.21	1764.94
1030.37	2175.35
1030.53	1980.80
1030.69	1689.37
1030.85	1603.56
1031.02	1753.68
1031.18	1888.84
1031.34	1697.36
1031.50	1748.15
1031.66	1798.12
1031.82	2055.55
1031.98	1713.95
1032.14	1638.38
1032.30	1761.25
1032.46	1969.33
1032.62	1775.18
1032.78	1614.82
1032.94	1779.68
1033.10	1820.85
1033.26	1728.49
1033.42	1774.16
1033.58	2162.04
1033.74	1797.09
1033.90	1641.45
1034.06	1821.05
1034.22	2152.82
1034.38	2016.23
1034.54	1679.74
1034.70	1700.22
1034.86	2122.11
>>>>>End Processed Spectral Data<<<<<
