SpectraSuite Data File
++++++++++++++++++++++++++++++++++++
Date: Thu Mar 30 16:00:33 PDT 2017
User: UCSD _CER
Dark Spectrum Present: No
Reference Spectrum Present: No
Number of Sampled Component Spectra: 1
Spectrometers: USB4C00073
Integration Time (usec): 250000 (USB4C00073)
Spectra Averaged: 10 (USB4C00073)
Boxcar Smoothing: 0 (USB4C00073)
Correct for Electrical Dark: No (USB4C00073)
Strobe/Lamp Enabled: No (USB4C00073)
Correct for Detector Non-linearity: No (USB4C00073)
Correct for Stray Light: No (USB4C00073)
Number of Pixels in Processed Spectrum: 3648
>>>>>Begin Processed Spectral Data<<<<<
345.37	1255.00
345.58	1255.00
345.80	1255.00
346.01	1272.20
346.22	1279.37
346.43	1975.27
346.65	1785.83
346.86	2133.37
347.07	2078.07
347.28	1772.72
347.50	1776.61
347.71	1930.01
347.92	1735.24
348.13	1792.79
348.35	1689.78
348.56	1896.62
348.77	1743.44
348.98	1801.60
349.20	1679.95
349.41	1922.84
349.62	1983.46
349.83	1865.70
350.05	1753.27
350.26	1950.90
350.47	2085.45
350.68	1777.02
350.90	1742.00
351.11	2109.61
351.32	2081.97
351.53	1839.08
351.75	1727.26
351.96	1962.77
352.17	1908.50
352.38	1883.31
352.60	1895.80
352.81	1949.87
353.02	2179.86
353.23	1798.94
353.44	1822.49
353.66	1885.36
353.87	1907.48
354.08	1910.14
354.29	1824.13
354.51	1862.63
354.72	1889.05
354.93	1775.38
355.14	1746.10
355.35	1781.53
355.57	2044.08
355.78	1822.28
355.99	1898.67
356.20	1926.93
356.42	1884.34
356.63	1899.29
356.84	1843.17
357.05	2008.65
357.26	2224.91
357.48	1930.82
357.69	1893.55
357.90	1993.29
358.11	1877.99
358.32	1834.16
358.54	1899.49
358.75	1874.10
358.96	2038.14
359.17	1832.73
359.38	1816.55
359.60	1977.93
359.81	1914.85
360.02	1813.68
360.23	1771.70
360.44	1844.81
360.66	2029.13
360.87	1767.60
361.08	1763.71
361.29	1961.34
361.50	1915.26
361.72	1781.94
361.93	1843.17
362.14	1921.20
362.35	1744.46
362.56	1909.32
362.77	1714.76
362.99	1990.83
363.20	1922.22
363.41	1863.24
363.62	1714.97
363.83	1981.41
364.05	2032.20
364.26	1687.53
364.47	1774.97
364.68	2034.86
364.89	1831.29
365.10	1735.86
365.32	1807.13
365.53	1803.24
365.74	1865.29
365.95	1786.85
366.16	1710.05
366.37	1903.79
366.59	1885.16
366.80	1795.66
367.01	1689.57
367.22	2173.10
367.43	2274.88
367.64	1778.05
367.86	1796.07
368.07	1979.16
368.28	2045.72
368.49	1718.66
368.70	1862.83
368.91	1876.76
369.12	1892.32
369.34	1734.42
369.55	1720.91
369.76	1907.68
369.97	1848.29
370.18	1744.25
370.39	1727.67
370.60	1751.83
370.82	1780.09
371.03	1800.78
371.24	1754.09
371.45	2012.74
371.66	1967.07
371.87	1813.48
372.08	1794.84
372.30	1808.56
372.51	2064.56
372.72	1939.22
372.93	1800.78
373.14	2106.95
373.35	1835.59
373.56	1764.73
373.78	1814.30
373.99	2036.50
374.20	2282.67
374.41	1835.39
374.62	1816.75
374.83	2107.77
375.04	1863.86
375.25	1803.44
375.47	1766.78
375.68	1892.32
375.89	2004.14
376.10	1841.74
376.31	1891.91
376.52	1986.53
376.73	1963.39
376.94	1823.10
377.15	1791.56
377.37	1935.54
377.58	1916.90
377.79	1700.22
378.00	1741.80
378.21	1963.80
378.42	2008.24
378.63	1834.78
378.84	1886.38
379.05	2063.33
379.27	1944.96
379.48	1915.87
379.69	1790.54
379.90	2078.69
380.11	1677.70
380.32	1809.18
380.53	1938.61
380.74	2098.14
380.95	1937.17
381.16	1803.03
381.37	1812.66
381.59	2133.78
381.80	2031.38
382.01	1789.31
382.22	1738.73
382.43	1989.81
382.64	1961.75
382.85	1785.01
383.06	1914.03
383.27	2029.54
383.48	1903.18
383.69	1900.31
383.91	1792.79
384.12	2053.29
384.33	2046.94
384.54	1924.89
384.75	1809.79
384.96	2394.69
385.17	2124.77
385.38	1878.60
385.59	1841.74
385.80	2078.89
386.01	2166.14
386.22	1940.25
386.43	1876.96
386.64	2247.65
386.86	1965.85
387.07	1993.08
387.28	1780.91
387.49	1920.59
387.70	2136.24
387.91	1937.99
388.12	1820.64
388.33	2036.30
388.54	1917.10
388.75	1837.03
388.96	1882.90
389.17	1872.46
389.38	1915.06
389.59	1911.37
389.80	1850.75
390.01	1907.48
390.22	1889.87
390.43	1947.62
390.64	1735.86
390.86	1991.65
391.07	2047.35
391.28	1835.39
391.49	1866.72
391.70	1794.64
391.91	1834.98
392.12	1841.33
392.33	1844.40
392.54	1970.97
392.75	1942.50
392.96	1928.98
393.17	1786.44
393.38	2206.28
393.59	2065.79
393.80	1727.05
394.01	1851.57
394.22	1938.61
394.43	2198.70
394.64	1774.56
394.85	1964.41
395.06	1936.76
395.27	1928.16
395.48	1852.59
395.69	1737.29
395.90	1902.56
396.11	1910.75
396.32	1788.08
396.53	1928.37
396.74	1901.95
396.95	2064.15
397.16	1783.99
397.37	1728.69
397.58	2015.82
397.79	1923.45
398.00	1873.69
398.21	1805.08
398.42	1965.64
398.63	2181.09
398.84	1805.28
399.05	1787.67
399.26	2073.57
399.47	1977.52
399.68	1657.63
399.89	1763.51
400.10	1772.72
400.31	1879.22
400.52	1876.76
400.73	1814.50
400.94	1793.41
401.15	2025.24
401.36	1842.97
401.57	1914.24
401.78	2081.56
401.99	2053.09
402.20	1782.96
402.41	1937.99
402.62	2095.07
402.83	1893.55
403.04	1803.85
403.25	1953.56
403.46	1985.10
403.67	2132.96
403.88	1867.34
404.09	1881.88
404.30	1923.66
404.51	1881.88
404.72	1786.03
404.93	1957.04
405.14	1834.16
405.35	1938.81
405.56	1823.51
405.77	1822.90
405.98	1954.38
406.19	1947.41
406.40	1819.42
406.61	1872.25
406.82	1905.43
407.03	2281.44
407.24	1788.29
407.45	1920.59
407.66	2016.84
407.87	2058.82
408.08	1881.47
408.29	1917.92
408.49	1987.96
408.70	1930.82
408.91	1842.76
409.12	1914.65
409.33	1798.94
409.54	2092.61
409.75	1787.47
409.96	1828.63
410.17	2034.66
410.38	1951.51
410.59	1817.78
410.80	1925.71
411.01	1926.73
411.22	1916.28
411.43	1866.93
411.64	1768.42
411.85	1822.90
412.06	1806.10
412.27	1657.01
412.47	1791.56
412.68	1936.97
412.89	1997.18
413.10	1807.54
413.31	1739.95
413.52	2164.09
413.73	2169.82
413.94	1768.42
414.15	1936.15
414.36	1852.39
414.57	1805.49
414.78	1766.17
414.99	1919.36
415.19	2250.10
415.40	2230.85
415.61	2300.69
415.82	2158.56
416.03	2267.31
416.24	2172.28
416.45	1953.56
416.66	1844.81
416.87	1798.94
417.08	2013.97
417.29	1799.14
417.50	1915.67
417.70	2053.50
417.91	2058.00
418.12	1925.30
418.33	1969.33
418.54	2133.16
418.75	2246.42
418.96	2233.31
419.17	2307.65
419.38	2648.23
419.59	2597.23
419.79	2439.54
420.00	2365.40
420.21	2647.00
420.42	2166.55
420.63	2000.25
420.84	1984.69
421.05	1968.30
421.26	1930.21
421.47	1779.89
421.67	2081.76
421.88	1858.74
422.09	1824.13
422.30	2024.62
422.51	1880.65
422.72	2210.78
422.93	2071.32
423.14	1883.93
423.35	1750.40
423.55	1763.51
423.76	1853.82
423.97	1838.46
424.18	1744.66
424.39	1886.79
424.60	2041.01
424.81	1867.95
425.02	2023.39
425.22	2091.80
425.43	2101.42
425.64	2226.35
425.85	2182.52
426.06	2472.72
426.27	2336.73
426.48	2244.37
426.68	2188.87
426.89	2332.43
427.10	2377.90
427.31	2038.96
427.52	1910.55
427.73	2103.67
427.94	2034.25
428.14	1982.43
428.35	1863.45
428.56	2142.38
428.77	2032.20
428.98	1909.73
429.19	1927.96
429.40	1996.77
429.60	2028.72
429.81	2041.01
430.02	1993.70
430.23	2001.48
430.44	2068.04
430.65	1853.62
430.85	1898.88
431.06	2005.78
431.27	1755.93
431.48	1844.81
431.69	1873.07
431.90	1941.27
432.10	1932.87
432.31	1950.28
432.52	1962.77
432.73	2445.07
432.94	2378.92
433.15	2210.99
433.35	2066.81
433.56	2278.57
433.77	2147.30
433.98	2423.98
434.19	2488.28
434.40	2711.10
434.60	2717.24
434.81	2631.44
435.02	2383.43
435.23	2240.48
435.44	2136.44
435.64	1884.95
435.85	1858.94
436.06	1928.78
436.27	1944.75
436.48	1844.81
436.68	1896.62
436.89	2291.27
437.10	2163.47
437.31	2004.35
437.52	2093.43
437.73	2097.32
437.93	2084.63
438.14	1957.45
438.35	1783.58
438.56	1928.98
438.77	1943.93
438.97	1975.27
439.18	1853.62
439.39	2206.07
439.60	1963.59
439.80	1929.39
440.01	2009.06
440.22	2003.12
440.43	2093.02
440.64	1790.74
440.84	1899.29
441.05	1823.72
441.26	2310.31
441.47	1871.84
441.68	1903.59
441.88	2193.78
442.09	2264.85
442.30	2449.99
442.51	2409.84
442.71	2349.84
442.92	2272.02
443.13	2042.03
443.34	1949.26
443.55	1945.16
443.75	2068.65
443.96	1828.84
444.17	1769.65
444.38	2058.00
444.58	1816.34
444.79	1921.20
445.00	1851.36
445.21	1924.27
445.41	1903.79
445.62	1645.13
445.83	1917.51
446.04	1949.87
446.24	1775.18
446.45	1674.83
446.66	1819.83
446.87	1958.47
447.07	1906.66
447.28	2007.01
447.49	1901.13
447.70	2059.44
447.90	2099.78
448.11	1873.28
448.32	1954.79
448.53	2118.21
448.73	2093.23
448.94	1834.57
449.15	1971.78
449.36	1922.22
449.56	1951.51
449.77	1799.75
449.98	1726.64
450.19	1882.49
450.39	1934.92
450.60	2015.41
450.81	1971.17
451.02	2020.73
451.22	2182.73
451.43	1849.11
451.64	1873.69
451.84	1913.01
452.05	2103.26
452.26	1874.92
452.47	1864.47
452.67	1876.35
452.88	2092.61
453.09	1790.74
453.30	1738.52
453.50	2040.60
453.71	2226.14
453.92	1935.13
454.12	2096.71
454.33	2000.87
454.54	2078.07
454.75	1871.02
454.95	1812.45
455.16	1992.06
455.37	2028.51
455.57	1895.40
455.78	1848.70
455.99	1934.31
456.19	1944.34
456.40	1772.52
456.61	1888.84
456.82	1933.69
457.02	2079.92
457.23	2039.37
457.44	2171.46
457.64	2039.78
457.85	2145.66
458.06	1994.52
458.26	1988.37
458.47	2037.11
458.68	2148.93
458.89	1905.02
459.09	2108.18
459.30	2243.14
459.51	2023.60
459.71	1764.53
459.92	1852.39
460.13	2144.02
460.33	2357.83
460.54	1962.36
460.75	2024.01
460.95	1954.58
461.16	2090.77
461.37	1883.52
461.57	1921.61
461.78	1977.31
461.99	1845.22
462.19	2058.21
462.40	1818.60
462.61	2194.60
462.81	2058.62
463.02	1802.42
463.23	1809.59
463.43	2024.62
463.64	1915.26
463.85	2697.58
464.05	1823.72
464.26	2304.58
464.47	2102.04
464.67	2000.25
464.88	1950.69
465.09	1972.40
465.29	2115.76
465.50	2165.32
465.71	2043.26
465.91	1999.84
466.12	1973.63
466.33	1930.42
466.53	1871.84
466.74	2149.96
466.94	1927.14
467.15	1870.61
467.36	2057.59
467.56	1858.53
467.77	1972.60
467.98	1898.26
468.18	1811.02
468.39	1866.93
468.60	2165.52
468.80	1874.30
469.01	1792.59
469.21	2001.07
469.42	2058.00
469.63	1868.77
469.83	1812.25
470.04	2041.62
470.25	2163.68
470.45	1899.49
470.66	1813.89
470.86	2002.30
471.07	1883.72
471.28	1930.01
471.48	1978.54
471.69	1967.07
471.90	2521.87
472.10	2016.43
472.31	2097.32
472.51	2103.47
472.72	2158.56
472.93	2064.56
473.13	2237.41
473.34	2275.70
473.54	2224.09
473.75	2043.87
473.96	2132.96
474.16	1967.07
474.37	2041.42
474.57	1895.60
474.78	1823.10
474.99	2054.73
475.19	1963.18
475.40	1826.58
475.60	1857.10
475.81	2336.12
476.02	2125.18
476.22	2133.37
476.43	2245.19
476.63	2045.10
476.84	2139.92
477.05	1768.63
477.25	1868.16
477.46	2354.75
477.66	1969.74
477.87	1793.61
478.08	1863.65
478.28	2065.79
478.49	1903.59
478.69	1798.12
478.90	1853.00
479.10	2010.29
479.31	2107.16
479.52	1890.07
479.72	2173.92
479.93	2401.24
480.13	2402.88
480.34	2357.42
480.54	2473.33
480.75	2193.99
480.96	2267.92
481.16	1952.12
481.37	2045.10
481.57	2118.62
481.78	2102.65
481.98	2138.08
482.19	1966.87
482.40	2226.96
482.60	2012.74
482.81	1936.76
483.01	1791.97
483.22	2040.80
483.42	2012.13
483.63	1933.28
483.83	1947.41
484.04	1970.76
484.24	2161.63
484.45	2064.76
484.66	1883.52
484.86	2132.35
485.07	1901.33
485.27	1938.61
485.48	1857.10
485.68	2125.59
485.89	1851.36
486.09	1936.76
486.30	1848.29
486.50	1970.15
486.71	1966.25
486.91	1914.65
487.12	2263.42
487.33	2758.82
487.53	2892.35
487.74	2789.74
487.94	2672.19
488.15	2451.42
488.35	2317.69
488.56	2092.61
488.76	2045.31
488.97	2065.38
489.17	2145.86
489.38	1992.06
489.58	1964.21
489.79	2078.89
489.99	2023.60
490.20	1929.39
490.40	1999.02
490.61	2045.92
490.81	1901.33
491.02	1894.99
491.22	1961.75
491.43	2008.44
491.63	1939.22
491.84	1998.20
492.04	1748.97
492.25	2007.83
492.45	1928.37
492.66	1897.85
492.86	1805.08
493.07	1958.68
493.27	2252.15
493.48	1785.01
493.68	1876.96
493.89	1930.62
494.09	2033.02
494.30	1838.46
494.50	2087.29
494.71	1997.38
494.91	1752.24
495.12	1848.29
495.32	1954.17
495.53	1956.63
495.73	1845.22
495.94	2029.74
496.14	1934.72
496.35	2386.09
496.55	2076.03
496.76	1976.70
496.96	1986.94
497.17	1967.48
497.37	2033.22
497.58	1853.41
497.78	1794.02
497.98	1939.43
498.19	1900.92
498.39	1884.75
498.60	1943.93
498.80	1739.54
499.01	2004.96
499.21	1795.66
499.42	1897.24
499.62	1877.78
499.83	2209.96
500.03	1791.15
500.24	2027.49
500.44	2234.54
500.64	2191.74
500.85	1992.06
501.05	2093.23
501.26	1840.92
501.46	2159.79
501.67	1874.10
501.87	1833.96
502.08	1857.51
502.28	1948.64
502.48	1942.91
502.69	1985.51
502.89	1766.17
503.10	1856.89
503.30	1913.62
503.51	1909.94
503.71	1801.39
503.92	2027.69
504.12	1954.58
504.32	1870.82
504.53	2010.70
504.73	2049.81
504.94	2003.73
505.14	2054.52
505.35	2075.82
505.55	2074.59
505.75	1996.36
505.96	2077.66
506.16	2309.08
506.37	1949.87
506.57	1880.44
506.78	1933.69
506.98	2119.85
507.18	1827.81
507.39	1832.11
507.59	1924.27
507.80	1866.11
508.00	1969.94
508.20	2041.21
508.41	1928.57
508.61	2095.69
508.82	2059.64
509.02	1991.65
509.22	1808.77
509.43	1827.81
509.63	1883.93
509.84	1882.70
510.04	1759.41
510.24	2111.66
510.45	2013.15
510.65	1807.13
510.86	1881.67
511.06	1820.44
511.26	2011.72
511.47	1952.53
511.67	1804.47
511.88	2013.36
512.08	2062.71
512.28	1766.58
512.49	1945.57
512.69	1962.98
512.90	1973.42
513.10	1842.76
513.30	1910.96
513.51	2006.19
513.71	2182.73
513.91	2000.66
514.12	2039.37
514.32	2089.54
514.53	1948.03
514.73	1965.44
514.93	1884.95
515.14	1969.12
515.34	2122.92
515.54	1905.02
515.75	1969.74
515.95	2045.10
516.15	2117.60
516.36	1960.52
516.56	1961.34
516.77	1698.38
516.97	2018.27
517.17	1882.90
517.38	1950.90
517.58	2123.13
517.78	1890.07
517.99	1913.21
518.19	1932.05
518.39	2114.94
518.60	1919.56
518.80	1839.28
519.00	1984.28
519.21	1909.12
519.41	2141.15
519.61	1825.97
519.82	1942.70
520.02	1945.57
520.22	1916.90
520.43	1884.95
520.63	1872.46
520.83	1838.05
521.04	1737.91
521.24	1925.91
521.44	1872.25
521.65	1848.50
521.85	1998.41
522.05	1816.34
522.26	1848.91
522.46	2167.57
522.66	2037.52
522.87	1837.64
523.07	2012.33
523.27	1879.01
523.48	2091.39
523.68	1913.21
523.88	1897.44
524.09	2076.03
524.29	1959.70
524.49	1711.69
524.70	1984.69
524.90	2090.36
525.10	2009.26
525.31	1765.14
525.51	1789.72
525.71	2029.33
525.91	1988.78
526.12	1857.92
526.32	1768.22
526.52	1878.40
526.73	1848.29
526.93	1923.25
527.13	1755.52
527.34	1907.89
527.54	1943.32
527.74	1852.80
527.94	1780.09
528.15	1824.94
528.35	1943.32
528.55	1966.46
528.76	1947.00
528.96	1749.17
529.16	2033.22
529.36	2008.44
529.57	1769.04
529.77	2071.93
529.97	1823.10
530.18	1954.17
530.38	1873.07
530.58	1969.12
530.78	1928.78
530.99	1850.13
531.19	1964.82
531.39	1839.49
531.60	1931.23
531.80	1880.24
532.00	1995.95
532.20	1954.17
532.41	1862.01
532.61	1859.76
532.81	1888.02
533.01	1891.50
533.22	1977.11
533.42	2030.56
533.62	1721.93
533.82	2098.76
534.03	1908.91
534.23	1940.86
534.43	1811.43
534.63	1880.44
534.84	1983.66
535.04	1926.73
535.24	1935.54
535.44	2255.43
535.65	1887.82
535.85	1891.91
536.05	1851.36
536.25	1947.41
536.46	1845.02
536.66	2057.80
536.86	1921.40
537.06	2028.31
537.27	2105.11
537.47	1954.58
537.67	1889.66
537.87	2120.26
538.08	1897.24
538.28	1812.66
538.48	1800.57
538.68	1902.77
538.88	2005.17
539.09	1760.23
539.29	1856.69
539.49	2063.53
539.69	1959.09
539.90	1962.57
540.10	1851.77
540.30	2102.24
540.50	1882.29
540.70	1775.79
540.91	1898.06
541.11	2054.32
541.31	2135.01
541.51	1961.34
541.72	1973.42
541.92	1989.19
542.12	1872.46
542.32	1882.08
542.52	1865.90
542.73	1848.70
542.93	2002.50
543.13	1887.20
543.33	1981.61
543.53	2057.80
543.74	2003.12
543.94	1871.02
544.14	2015.41
544.34	2111.25
544.54	1936.35
544.75	1986.53
544.95	2125.79
545.15	2044.28
545.35	2187.64
545.55	2013.56
545.75	1882.29
545.96	2230.24
546.16	1779.89
546.36	1904.41
546.56	1905.43
546.76	2111.46
546.97	2176.99
547.17	1920.18
547.37	1980.59
547.57	1883.11
547.77	2038.96
547.97	1961.13
548.18	1957.24
548.38	1943.93
548.58	2088.72
548.78	1856.07
548.98	1940.45
549.18	2078.69
549.39	2169.41
549.59	1989.19
549.79	1939.84
549.99	2149.75
550.19	2054.73
550.39	2020.53
550.60	1922.02
550.80	1987.96
551.00	2031.79
551.20	1872.66
551.40	1860.78
551.60	1992.47
551.80	1990.22
552.01	2007.42
552.21	1930.62
552.41	1972.81
552.61	2173.92
552.81	1944.34
553.01	1821.67
553.21	1994.52
553.42	1817.78
553.62	1851.77
553.82	1842.35
554.02	2139.92
554.22	2044.90
554.42	1840.10
554.62	1966.25
554.83	2140.74
555.03	2145.86
555.23	1957.45
555.43	2180.27
555.63	2037.93
555.83	2027.08
556.03	1964.62
556.23	1816.34
556.44	1991.24
556.64	2099.99
556.84	1705.96
557.04	1873.89
557.24	1991.44
557.44	1949.05
557.64	1911.57
557.84	1817.37
558.04	1918.33
558.25	2034.66
558.45	1842.56
558.65	1955.81
558.85	1961.34
559.05	1745.48
559.25	1865.70
559.45	1969.94
559.65	2239.04
559.85	2608.91
560.05	2010.08
560.26	2005.37
560.46	2015.00
560.66	1949.26
560.86	1905.02
561.06	1840.10
561.26	2124.15
561.46	2036.09
561.66	1850.75
561.86	1979.77
562.06	1855.46
562.26	1908.30
562.47	1941.06
562.67	1789.52
562.87	2017.45
563.07	1762.07
563.27	1909.53
563.47	1924.07
563.67	1882.29
563.87	2016.02
564.07	1871.64
564.27	1901.74
564.47	1969.74
564.67	2013.77
564.87	1873.48
565.08	1969.12
565.28	1899.08
565.48	2008.24
565.68	1955.20
565.88	1983.46
566.08	2190.92
566.28	1970.76
566.48	1798.12
566.68	1916.08
566.88	1926.32
567.08	2052.88
567.28	1927.14
567.48	1889.87
567.68	2010.29
567.88	1778.25
568.08	1964.82
568.28	2060.67
568.48	1927.14
568.68	2075.41
568.89	1937.79
569.09	1754.29
569.29	2029.54
569.49	2062.71
569.69	1834.16
569.89	1807.13
570.09	1734.83
570.29	1862.83
570.49	1763.71
570.69	1881.88
570.89	2043.05
571.09	2203.41
571.29	1765.96
571.49	2047.15
571.69	1988.58
571.89	1991.24
572.09	1844.81
572.29	1860.37
572.49	2009.88
572.69	2018.27
572.89	1939.02
573.09	1687.94
573.29	1941.47
573.49	1995.75
573.69	1931.23
573.89	2004.35
574.09	1891.30
574.29	2091.59
574.49	1872.05
574.69	1842.76
574.89	1830.68
575.09	1855.25
575.29	1853.41
575.49	1914.65
575.69	1981.41
575.89	1799.75
576.09	1949.26
576.29	1963.39
576.49	1823.72
576.69	1918.54
576.89	1873.28
577.09	1937.38
577.29	1776.61
577.49	2190.92
577.69	1857.71
577.89	1987.76
578.09	1958.06
578.29	1756.13
578.49	1926.32
578.69	1838.26
578.89	2076.03
579.09	1953.56
579.29	1842.76
579.49	2025.44
579.69	1877.58
579.89	2159.17
580.09	1729.71
580.29	1737.91
580.49	1866.52
580.69	1834.37
580.89	1899.70
581.09	1879.63
581.29	1884.34
581.49	1932.05
581.69	1830.47
581.89	1823.92
582.09	1805.08
582.28	1851.98
582.48	1988.17
582.68	2075.21
582.88	2100.19
583.08	1923.66
583.28	1895.80
583.48	1904.61
583.68	1859.97
583.88	1925.09
584.08	1927.34
584.28	1900.72
584.48	2202.18
584.68	2014.59
584.88	1899.08
585.08	2063.33
585.28	2063.94
585.48	2094.66
585.68	1988.58
585.87	2026.26
586.07	2020.32
586.27	1922.22
586.47	2018.89
586.67	1939.22
586.87	1967.48
587.07	1895.19
587.27	1798.94
587.47	1947.00
587.67	2177.20
587.87	2318.10
588.07	2045.72
588.27	1968.30
588.46	2122.51
588.66	2143.61
588.86	1988.37
589.06	2023.60
589.26	2094.05
589.46	2079.51
589.66	1858.33
589.86	1855.66
590.06	1935.54
590.26	2064.15
590.46	1904.00
590.66	2034.66
590.85	1961.75
591.05	2078.69
591.25	1891.30
591.45	1933.49
591.65	2047.15
591.85	1962.98
592.05	1910.75
592.25	2061.49
592.45	2103.67
592.64	1925.50
592.84	1940.45
593.04	1865.70
593.24	2265.67
593.44	1896.42
593.64	1998.20
593.84	2025.44
594.04	1885.77
594.24	2168.18
594.43	1879.42
594.63	1912.39
594.83	2077.87
595.03	2053.09
595.23	1823.10
595.43	1746.51
595.63	1865.70
595.83	2060.26
596.02	1730.94
596.22	1886.59
596.42	1961.95
596.62	1935.94
596.82	1843.79
597.02	2013.15
597.22	2122.11
597.41	1963.39
597.61	1868.36
597.81	1997.18
598.01	2022.37
598.21	1887.00
598.41	1890.48
598.61	1854.23
598.80	1941.88
599.00	1980.39
599.20	2060.46
599.40	1918.74
599.60	1929.19
599.80	2057.59
599.99	2104.70
600.19	1928.16
600.39	1948.23
600.59	2045.51
600.79	2008.24
600.99	1960.73
601.19	2163.06
601.38	2212.01
601.58	1983.87
601.78	1729.51
601.98	2052.47
602.18	2121.70
602.37	2324.65
602.57	2147.30
602.77	2300.28
602.97	2277.14
603.17	2323.01
603.37	2207.92
603.56	2290.45
603.76	2264.44
603.96	2158.15
604.16	2169.82
604.36	2225.53
604.56	2182.93
604.75	1957.04
604.95	2042.23
605.15	2219.79
605.35	2157.94
605.55	1961.13
605.74	1888.84
605.94	2148.93
606.14	1992.47
606.34	1993.49
606.54	1949.67
606.73	1918.95
606.93	2056.37
607.13	1879.83
607.33	1935.94
607.53	2137.26
607.72	2063.94
607.92	2008.65
608.12	2026.67
608.32	1909.53
608.51	2014.18
608.71	1846.65
608.91	1967.48
609.11	2009.26
609.31	1922.02
609.50	1960.52
609.70	2107.56
609.90	2095.69
610.10	2101.42
610.29	1937.79
610.49	1880.65
610.69	2058.62
610.89	1987.14
611.09	2010.08
611.28	2094.87
611.48	2086.88
611.68	1950.08
611.88	1900.72
612.07	1868.36
612.27	2035.48
612.47	1849.11
612.67	1975.68
612.86	2033.43
613.06	1950.08
613.26	1773.95
613.46	1884.95
613.65	1949.05
613.85	2308.88
614.05	2051.86
614.25	2004.35
614.44	1902.97
614.64	1936.35
614.84	1872.46
615.04	1843.38
615.23	1879.83
615.43	2012.74
615.63	2018.07
615.83	1849.93
616.02	1760.43
616.22	2031.18
616.42	1823.72
616.62	1828.22
616.81	1930.42
617.01	2002.09
617.21	1954.99
617.41	1842.15
617.60	1919.97
617.80	2011.72
618.00	2002.71
618.19	1969.53
618.39	2001.89
618.59	1990.22
618.79	1902.15
618.98	1742.62
619.18	1890.68
619.38	2200.13
619.57	1888.43
619.77	1889.05
619.97	1899.08
620.17	1863.65
620.36	1786.85
620.56	2042.23
620.76	1764.53
620.95	1796.07
621.15	1900.51
621.35	1819.01
621.54	1894.58
621.74	1943.32
621.94	1869.18
622.14	1797.09
622.33	1778.25
622.53	1913.83
622.73	1894.17
622.92	1753.27
623.12	1952.12
623.32	2186.00
623.51	2032.61
623.71	1780.50
623.91	2051.25
624.10	1830.68
624.30	1939.63
624.50	1801.39
624.69	1771.90
624.89	2440.77
625.09	1915.06
625.29	1736.47
625.48	1791.56
625.68	1958.27
625.88	2065.79
626.07	1939.63
626.27	1821.46
626.47	1875.53
626.66	1712.10
626.86	1889.05
627.06	1890.28
627.25	1952.53
627.45	2102.24
627.64	1890.89
627.84	2070.29
628.04	1860.17
628.23	2211.60
628.43	1791.36
628.63	1856.28
628.82	1882.49
629.02	2176.99
629.22	2017.25
629.41	2097.53
629.61	1945.57
629.81	2187.03
630.00	1857.10
630.20	1813.89
630.40	1986.73
630.59	1987.76
630.79	1933.49
630.98	1923.86
631.18	1942.09
631.38	1926.73
631.57	2054.52
631.77	1788.70
631.97	1939.84
632.16	1968.92
632.36	1940.86
632.56	1933.49
632.75	1958.27
632.95	2052.27
633.14	1797.09
633.34	2082.17
633.54	1752.04
633.73	1856.48
633.93	1881.06
634.12	1740.57
634.32	2269.56
634.52	1931.85
634.71	1799.75
634.91	1954.79
635.11	1800.98
635.30	1834.37
635.50	1920.18
635.69	1825.56
635.89	2169.82
636.09	2038.14
636.28	1823.92
636.48	1848.09
636.67	2013.77
636.87	2041.21
637.07	1995.95
637.26	1852.39
637.46	1982.43
637.65	2082.17
637.85	1960.52
638.04	1877.37
638.24	1905.43
638.44	2023.19
638.63	1910.14
638.83	1888.02
639.02	2004.35
639.22	2019.09
639.42	1895.19
639.61	1898.88
639.81	1951.30
640.00	1920.38
640.20	2045.72
640.39	2003.94
640.59	2231.67
640.79	2145.86
640.98	2098.14
641.18	2028.31
641.37	2081.35
641.57	1989.19
641.76	2003.53
641.96	1830.06
642.15	2017.45
642.35	1956.83
642.55	1985.30
642.74	1853.00
642.94	2069.47
643.13	2119.03
643.33	1924.48
643.52	1879.83
643.72	1911.37
643.91	1957.04
644.11	1892.12
644.31	1830.88
644.50	1875.73
644.70	2115.96
644.89	1928.98
645.09	1971.37
645.28	1942.09
645.48	2008.03
645.67	1827.81
645.87	1745.69
646.06	1920.99
646.26	1989.81
646.45	1736.27
646.65	1711.28
646.84	2201.36
647.04	1890.28
647.24	1811.22
647.43	1946.80
647.63	1970.97
647.82	2124.56
648.02	1806.10
648.21	1889.25
648.41	2118.21
648.60	1929.60
648.80	2018.07
648.99	1946.59
649.19	1874.51
649.38	1746.30
649.58	1952.74
649.77	1980.39
649.97	2095.69
650.16	2003.73
650.36	1720.91
650.55	2020.94
650.75	1994.31
650.94	2156.31
651.14	1940.66
651.33	1961.13
651.53	2143.20
651.72	1858.94
651.92	1939.63
652.11	1739.54
652.31	2013.77
652.50	2023.19
652.70	2001.07
652.89	1810.61
653.09	2162.04
653.28	1916.49
653.48	1732.17
653.67	1753.47
653.87	2311.75
654.06	1970.35
654.25	2084.63
654.45	1837.64
654.64	1914.44
654.84	1923.66
655.03	1710.67
655.23	2036.70
655.42	2048.38
655.62	2170.23
655.81	1959.50
656.01	1841.53
656.20	2066.61
656.40	2149.14
656.59	1958.68
656.79	2072.34
656.98	1979.57
657.17	2070.09
657.37	1954.17
657.56	1881.06
657.76	1987.35
657.95	2102.44
658.15	1646.98
658.34	1920.18
658.54	1952.33
658.73	1788.49
658.92	1896.42
659.12	1949.46
659.31	2031.59
659.51	1832.52
659.70	1988.58
659.90	1908.09
660.09	2108.79
660.29	1995.13
660.48	1855.66
660.67	2086.06
660.87	1879.63
661.06	1986.94
661.26	1988.99
661.45	2005.17
661.65	1998.41
661.84	1897.24
662.03	1856.69
662.23	1866.31
662.42	2188.87
662.62	1807.13
662.81	1842.15
663.00	1898.47
663.20	2022.57
663.39	2069.27
663.59	2107.56
663.78	2006.39
663.97	1977.93
664.17	2137.67
664.36	1828.02
664.56	1882.70
664.75	2085.04
664.94	2047.76
665.14	1982.43
665.33	1924.27
665.53	2001.48
665.72	1947.00
665.91	2068.65
666.11	1933.08
666.30	1970.76
666.50	1930.01
666.69	2011.92
666.88	2008.44
667.08	2085.45
667.27	2027.28
667.47	2096.71
667.66	2009.88
667.85	2134.60
668.05	2046.33
668.24	1946.80
668.43	2101.01
668.63	1958.06
668.82	2135.83
669.02	2037.73
669.21	1931.85
669.40	1840.71
669.60	2201.57
669.79	1791.56
669.98	2388.75
670.18	1812.86
670.37	1805.49
670.56	1877.58
670.76	1959.50
670.95	1928.98
671.15	2059.85
671.34	1959.09
671.53	1910.55
671.73	1871.43
671.92	1846.24
672.11	1787.47
672.31	1852.39
672.50	1980.18
672.69	1787.06
672.89	1682.20
673.08	1858.53
673.27	2007.83
673.47	1943.11
673.66	1946.59
673.85	1843.38
674.05	2010.29
674.24	2068.45
674.43	2018.07
674.63	2283.08
674.82	2539.89
675.01	2056.57
675.21	2279.18
675.40	2115.55
675.59	2075.41
675.79	2324.85
675.98	2007.62
676.17	2152.21
676.37	2101.42
676.56	1975.68
676.75	2008.03
676.95	1970.35
677.14	1928.78
677.33	2103.06
677.52	1825.76
677.72	1893.55
677.91	1943.32
678.10	1772.31
678.30	1822.90
678.49	1788.29
678.68	2190.92
678.88	1725.00
679.07	2017.04
679.26	1870.82
679.45	2149.55
679.65	2065.58
679.84	1710.67
680.03	1730.74
680.23	1914.65
680.42	2252.56
680.61	1771.29
680.81	1808.36
681.00	1926.73
681.19	1969.12
681.38	1978.95
681.58	1958.68
681.77	1870.41
681.96	2024.21
682.15	1863.65
682.35	1932.87
682.54	1993.70
682.73	1809.99
682.93	1801.39
683.12	1837.85
683.31	2012.33
683.50	2249.49
683.70	1813.07
683.89	1930.21
684.08	1775.18
684.27	2045.10
684.47	1730.74
684.66	1941.88
684.85	2176.99
685.04	2091.39
685.24	1857.92
685.43	1913.62
685.62	1749.78
685.81	2000.46
686.01	1995.34
686.20	2002.71
686.39	1996.16
686.58	2450.19
686.78	2223.48
686.97	2199.31
687.16	2270.17
687.35	2136.85
687.55	2024.01
687.74	2043.46
687.93	1912.80
688.12	2017.66
688.32	1999.02
688.51	1832.73
688.70	2050.02
688.89	1824.94
689.08	1798.53
689.28	1834.37
689.47	1956.42
689.66	1937.38
689.85	1988.99
690.05	1869.39
690.24	1840.71
690.43	1953.76
690.62	1966.46
690.81	1850.75
691.01	1934.31
691.20	1909.73
691.39	1797.50
691.58	1963.18
691.77	2140.33
691.97	1946.59
692.16	1962.16
692.35	1884.95
692.54	1889.46
692.73	2029.74
692.93	1994.52
693.12	2008.44
693.31	2072.34
693.50	2061.49
693.69	2079.10
693.89	1947.21
694.08	2135.42
694.27	2119.03
694.46	1868.77
694.65	1950.08
694.85	2033.02
695.04	2033.84
695.23	2149.34
695.42	3236.41
695.61	4209.60
695.80	4833.82
696.00	5463.16
696.19	5772.81
696.38	5116.24
696.57	4338.42
696.76	4172.53
696.95	3836.05
697.15	3826.42
697.34	3567.56
697.53	3120.49
697.72	3016.86
697.91	2748.37
698.10	2752.47
698.30	2280.82
698.49	2152.82
698.68	2128.04
698.87	1983.05
699.06	1865.90
699.25	1944.14
699.45	2071.93
699.64	1940.25
699.83	2016.02
700.02	1809.59
700.21	1994.52
700.40	1860.58
700.59	1869.18
700.79	1866.11
700.98	1994.31
701.17	1824.94
701.36	1836.41
701.55	1835.59
701.74	2063.33
701.93	1897.24
702.12	2046.74
702.32	2003.32
702.51	2253.79
702.70	2252.15
702.89	2108.59
703.08	1993.29
703.27	2199.31
703.46	2119.24
703.65	1962.16
703.85	1876.14
704.04	1922.02
704.23	2101.42
704.42	1852.80
704.61	1863.86
704.80	2144.43
704.99	1851.36
705.18	1960.93
705.37	2022.57
705.57	2846.06
705.76	3900.15
705.95	4209.39
706.14	4988.24
706.33	5394.96
706.52	5263.28
706.71	4196.70
706.90	3840.97
707.09	3785.67
707.28	3506.33
707.47	3198.31
707.67	3185.21
707.86	2884.97
708.05	2898.90
708.24	2552.59
708.43	2353.73
708.62	2170.64
708.81	2014.38
709.00	1867.95
709.19	1903.79
709.38	2062.30
709.57	1853.62
709.76	1969.12
709.96	1867.34
710.15	2126.82
710.34	1928.78
710.53	2004.55
710.72	1919.97
710.91	2067.42
711.10	2010.29
711.29	1992.67
711.48	1848.29
711.67	1789.31
711.86	2005.99
712.05	1810.81
712.24	1840.51
712.43	2014.79
712.62	2119.24
712.81	1921.61
713.00	2049.40
713.19	1799.55
713.39	1981.41
713.58	1884.34
713.77	2114.32
713.96	2206.89
714.15	2199.93
714.34	2203.41
714.53	2075.41
714.72	2355.98
714.91	1999.43
715.10	2086.47
715.29	1959.91
715.48	2467.60
715.67	2132.35
715.86	2039.78
716.05	1968.51
716.24	1953.35
716.43	1909.12
716.62	1812.04
716.81	1803.44
717.00	1886.79
717.19	2130.09
717.38	1938.61
717.57	1871.84
717.76	1757.36
717.95	2042.64
718.14	1910.55
718.33	1851.36
718.52	1717.02
718.71	1727.46
718.90	1796.68
719.09	1850.54
719.28	1899.49
719.47	2015.82
719.66	1969.12
719.85	1982.84
720.04	1923.45
720.23	1998.82
720.42	1865.29
720.61	1988.37
720.80	1789.31
720.99	1959.70
721.18	1899.49
721.37	1831.09
721.56	1889.66
721.75	2054.73
721.94	1838.46
722.13	1891.50
722.32	1898.67
722.51	2007.62
722.70	1921.40
722.89	1943.93
723.08	1914.24
723.27	2060.46
723.46	1961.13
723.65	1900.31
723.84	1863.86
724.03	2088.52
724.22	1775.38
724.41	1971.37
724.60	1862.42
724.79	2049.20
724.98	1945.57
725.16	1869.18
725.35	2015.41
725.54	1836.62
725.73	1918.33
725.92	1951.30
726.11	2097.12
726.30	2479.48
726.49	2405.75
726.68	2658.67
726.87	2785.03
727.06	2870.43
727.25	2410.25
727.44	2477.02
727.63	2363.77
727.82	2301.30
728.01	2308.47
728.20	2315.43
728.38	2397.35
728.57	2165.73
728.76	2116.78
728.95	2170.64
729.14	1865.29
729.33	1910.55
729.52	1774.77
729.71	1859.35
729.90	1864.27
730.09	1903.38
730.28	1911.16
730.47	1921.61
730.66	2121.90
730.84	2038.96
731.03	1994.52
731.22	2003.94
731.41	2001.07
731.60	2034.66
731.79	1769.04
731.98	1874.51
732.17	2052.47
732.36	2047.56
732.55	1880.24
732.73	1846.65
732.92	2097.94
733.11	2013.77
733.30	1883.31
733.49	1800.16
733.68	2025.24
733.87	1985.71
734.06	1848.29
734.25	1873.07
734.43	1937.38
734.62	2082.99
734.81	2044.28
735.00	2017.66
735.19	2012.33
735.38	2065.99
735.57	1843.79
735.76	2003.12
735.94	2110.23
736.13	2403.91
736.32	2247.65
736.51	2245.19
736.70	2534.98
736.89	2607.88
737.08	2802.85
737.27	4084.26
737.45	5867.23
737.64	6603.68
737.83	7664.93
738.02	8102.79
738.21	7654.90
738.40	6161.52
738.59	5529.93
738.77	5228.67
738.96	4806.79
739.15	4591.96
739.34	4395.96
739.53	4013.81
739.72	3828.88
739.90	3485.03
740.09	2952.76
740.28	2730.35
740.47	2522.28
740.66	2355.37
740.85	2029.13
741.03	2065.99
741.22	1926.32
741.41	2015.61
741.60	1854.44
741.79	2004.96
741.98	2150.16
742.16	2246.01
742.35	2028.92
742.54	1983.66
742.73	2262.80
742.92	1989.81
743.10	1920.38
743.29	1978.95
743.48	2369.70
743.67	1987.96
743.86	1856.48
744.05	1885.16
744.23	1913.42
744.42	1908.50
744.61	1977.11
744.80	1877.78
744.99	1911.98
745.17	1795.66
745.36	1822.69
745.55	2055.55
745.74	1976.29
745.93	1940.86
746.11	1938.81
746.30	1873.89
746.49	2127.84
746.68	1899.08
746.86	1980.80
747.05	1943.32
747.24	2084.83
747.43	2101.83
747.62	1848.29
747.80	1940.66
747.99	2181.91
748.18	2126.82
748.37	2063.33
748.56	2106.95
748.74	2185.18
748.93	2215.70
749.12	3239.27
749.31	6373.69
749.49	9168.14
749.68	10964.42
749.87	12724.85
750.06	13486.49
750.24	12787.52
750.43	12195.45
750.62	13346.00
750.81	13653.81
750.99	14263.69
751.18	13847.75
751.37	11717.86
751.56	9904.59
751.74	9546.61
751.93	8621.74
752.12	7115.67
752.31	6219.89
752.49	5458.25
752.68	5002.16
752.87	4247.90
753.06	3735.50
753.24	3258.93
753.43	3075.03
753.62	2507.53
753.81	2285.12
753.99	2377.49
754.18	2173.51
754.37	1999.02
754.55	2062.30
754.74	2247.24
754.93	1835.18
755.12	1940.25
755.30	1890.28
755.49	2124.77
755.68	2022.16
755.86	2025.44
756.05	1850.13
756.24	2147.91
756.43	1860.37
756.61	1858.12
756.80	1994.72
756.99	2135.83
757.17	1954.58
757.36	1854.64
757.55	1933.49
757.74	2053.29
757.92	1953.56
758.11	1819.62
758.30	1785.42
758.48	1952.53
758.67	1856.28
758.86	1999.23
759.04	1899.49
759.23	1972.60
759.42	2044.28
759.60	1935.33
759.79	1989.40
759.98	1941.88
760.16	1904.61
760.35	1890.28
760.54	1834.57
760.73	1998.41
760.91	1816.14
761.10	1966.05
761.29	2012.13
761.47	1978.75
761.66	2240.07
761.85	2036.91
762.03	2339.60
762.22	3991.29
762.41	9549.88
762.59	15929.72
762.78	19146.26
762.97	23126.28
763.15	24776.74
763.34	22357.67
763.52	16480.00
763.71	15293.62
763.90	13892.81
764.08	13068.09
764.27	11938.84
764.46	11056.37
764.64	9644.50
764.83	8675.81
765.02	7628.68
765.20	6567.84
765.39	5423.84
765.58	4124.81
765.76	3458.61
765.95	2937.20
766.13	2515.52
766.32	2267.92
766.51	2200.95
766.69	2672.19
766.88	2078.89
767.07	1911.78
767.25	1783.99
767.44	2120.06
767.62	2113.50
767.81	1895.40
768.00	1952.33
768.18	1991.04
768.37	1896.42
768.56	1798.32
768.74	1847.68
768.93	1777.02
769.11	1972.40
769.30	1928.16
769.49	1847.47
769.67	1927.34
769.86	1885.16
770.04	1884.13
770.23	1892.32
770.42	2095.89
770.60	1958.27
770.79	1837.23
770.97	1969.33
771.16	2765.99
771.35	4156.35
771.53	5461.93
771.72	6252.04
771.90	7282.78
772.09	7821.40
772.27	6888.96
772.46	5369.77
772.65	5358.31
772.83	4912.05
773.02	4746.99
773.20	4304.83
773.39	4195.47
773.58	3917.76
773.76	3377.92
773.95	3283.92
774.13	3137.28
774.32	2742.84
774.50	2404.93
774.69	2299.25
774.87	2115.96
775.06	2354.96
775.25	1917.10
775.43	1962.57
775.62	1997.18
775.80	2048.38
775.99	1984.28
776.17	1875.53
776.36	1967.89
776.54	2092.82
776.73	1877.58
776.92	2001.89
777.10	2073.36
777.29	2008.24
777.47	1843.79
777.66	1904.61
777.84	1969.53
778.03	1920.18
778.21	1805.69
778.40	1939.02
778.58	1990.22
778.77	2042.44
778.95	1764.94
779.14	1835.18
779.32	2170.64
779.51	2037.11
779.70	1873.28
779.88	1754.90
780.07	1871.23
780.25	2258.91
780.44	1885.77
780.62	2011.72
780.81	1991.65
780.99	1992.88
781.18	1861.81
781.36	1860.17
781.55	1924.89
781.73	2124.56
781.92	1799.55
782.10	1800.98
782.29	1974.04
782.47	2130.09
782.66	1934.10
782.84	1771.70
783.03	1834.16
783.21	2094.66
783.40	1910.96
783.58	1900.31
783.77	1866.31
783.95	1902.15
784.14	1814.50
784.32	1900.31
784.51	2082.99
784.69	1864.68
784.88	1716.81
785.06	1908.91
785.24	1763.30
785.43	2048.38
785.61	1977.31
785.80	1823.31
785.98	1988.99
786.17	1949.05
786.35	1824.13
786.54	1977.72
786.72	2029.95
786.91	2054.73
787.09	1907.07
787.28	1814.71
787.46	1921.40
787.65	2042.23
787.83	1826.38
788.01	1940.04
788.20	1806.72
788.38	1954.79
788.57	1893.14
788.75	1900.31
788.94	2199.72
789.12	2120.47
789.31	1937.38
789.49	2018.89
789.67	1887.00
789.86	1988.17
790.04	1848.29
790.23	1768.42
790.41	2256.66
790.60	1908.71
790.78	1884.13
790.96	1928.16
791.15	2055.75
791.33	1933.28
791.52	1928.37
791.70	1826.17
791.89	1941.27
792.07	2057.39
792.25	1939.43
792.44	1832.32
792.62	2093.23
792.81	1889.25
792.99	1949.67
793.17	1919.15
793.36	1987.14
793.54	2628.57
793.73	3634.53
793.91	4899.56
794.10	5840.40
794.28	6758.71
794.46	6956.75
794.65	6703.21
794.83	5345.20
795.01	4970.01
795.20	4880.10
795.38	4497.13
795.57	4334.12
795.75	4145.70
795.93	3771.33
796.12	3567.56
796.30	3400.24
796.49	3230.06
796.67	2786.88
796.85	2728.71
797.04	2521.87
797.22	2419.68
797.40	2073.77
797.59	2185.59
797.77	2118.21
797.96	1994.52
798.14	1965.85
798.32	1964.82
798.51	2148.32
798.69	2257.68
798.87	2003.32
799.06	1974.86
799.24	1914.65
799.42	2515.32
799.61	3244.39
799.79	3832.16
799.98	4569.43
800.16	4972.47
800.34	6137.15
800.53	7668.21
800.71	8119.99
800.89	9306.38
801.08	9642.86
801.26	9589.82
801.44	8007.56
801.63	6660.20
801.81	6503.12
801.99	5946.07
802.18	5538.12
802.36	5267.58
802.54	4905.91
802.73	4220.86
802.91	3961.18
803.09	3639.85
803.28	3372.39
803.46	3066.63
803.64	2948.05
803.83	2397.35
804.01	2235.36
804.19	2076.85
804.38	2244.98
804.56	2157.13
804.74	2034.04
804.92	2058.21
805.11	1885.56
805.29	2157.94
805.47	1956.83
805.66	1877.37
805.84	1873.07
806.02	2141.15
806.21	1939.22
806.39	2091.80
806.57	2112.89
806.76	2096.71
806.94	2003.12
807.12	1981.41
807.30	1997.38
807.49	2136.24
807.67	2081.97
807.85	2180.47
808.04	2184.36
808.22	2321.17
808.40	1907.27
808.58	1877.37
808.77	2066.61
808.95	2345.54
809.13	2758.61
809.31	4825.22
809.50	7015.73
809.68	8242.05
809.86	9321.94
810.05	10224.07
810.23	11632.46
810.41	17149.28
810.59	29348.83
810.78	36774.35
810.96	42922.15
811.14	46940.26
811.32	46351.27
811.51	37052.87
811.69	29036.72
811.87	28891.92
812.05	25161.55
812.24	23587.68
812.42	21677.95
812.60	19219.98
812.78	16369.82
812.97	13903.86
813.15	12345.97
813.33	10483.35
813.51	8950.65
813.70	7032.32
813.88	5620.65
814.06	4519.25
814.24	3600.74
814.42	2894.39
814.61	2647.61
814.79	2620.58
814.97	2137.26
815.15	2113.50
815.34	2190.10
815.52	2207.10
815.70	1941.06
815.88	1948.03
816.06	1916.28
816.25	1966.05
816.43	1897.03
816.61	2030.97
816.79	2155.49
816.98	1795.86
817.16	1869.59
817.34	1817.16
817.52	1957.86
817.70	2122.31
817.89	1891.71
818.07	1793.20
818.25	1913.83
818.43	1927.34
818.61	1872.87
818.80	1840.71
818.98	2109.82
819.16	1958.06
819.34	1792.79
819.52	2094.05
819.70	1820.85
819.89	1919.56
820.07	1760.43
820.25	1745.89
820.43	1943.11
820.61	2052.47
820.80	1898.26
820.98	1783.58
821.16	1713.95
821.34	1789.11
821.52	1862.42
821.70	1901.33
821.89	1916.08
822.07	1870.82
822.25	1839.08
822.43	1807.33
822.61	2121.29
822.79	1944.75
822.98	1849.32
823.16	1713.54
823.34	1929.60
823.52	2087.70
823.70	1983.25
823.88	1726.23
824.06	1984.07
824.25	1890.07
824.43	1969.74
824.61	1769.04
824.79	1866.93
824.97	1985.51
825.15	2132.96
825.33	2672.39
825.52	3592.14
825.70	4031.02
825.88	4406.41
826.06	4852.46
826.24	4936.42
826.42	4468.26
826.60	3712.56
826.78	3768.47
826.97	3416.83
827.15	3493.02
827.33	3101.65
827.51	3114.55
827.69	2866.13
827.87	2789.95
828.05	2649.25
828.23	2394.69
828.41	2525.15
828.60	2416.81
828.78	2029.95
828.96	2150.37
829.14	2008.44
829.32	1975.27
829.50	1925.50
829.68	1899.29
829.86	1876.14
830.04	1978.34
830.22	1955.61
830.41	1804.87
830.59	1899.08
830.77	1995.34
830.95	1861.19
831.13	1836.82
831.31	1817.37
831.49	2006.60
831.67	2018.48
831.85	1989.40
832.03	1866.72
832.21	1999.84
832.39	1748.15
832.57	1779.07
832.76	2010.49
832.94	1888.23
833.12	1731.76
833.30	1873.69
833.48	2075.82
833.66	1963.18
833.84	1794.84
834.02	1880.65
834.20	1999.02
834.38	2020.73
834.56	1710.05
834.74	1768.83
834.92	1778.66
835.10	2130.91
835.28	1916.69
835.46	1897.03
835.64	1891.09
835.82	1833.75
836.01	2116.58
836.19	1996.56
836.37	1861.19
836.55	1809.59
836.73	1806.92
836.91	1776.20
837.09	2030.97
837.27	2102.24
837.45	1752.86
837.63	1787.26
837.81	1803.65
837.99	1915.06
838.17	1860.99
838.35	1793.82
838.53	2213.04
838.71	2024.01
838.89	1848.09
839.07	1847.06
839.25	1954.79
839.43	2103.06
839.61	2350.66
839.79	3851.61
839.97	5504.53
840.15	6449.26
840.33	7271.93
840.51	7822.42
840.69	7509.29
840.87	6184.46
841.05	5536.48
841.23	5957.75
841.41	7566.22
841.59	10701.87
841.77	12110.46
841.95	13216.36
842.13	14131.39
842.31	13637.01
842.49	10866.52
842.67	9121.24
842.85	8918.29
843.03	7762.83
843.21	7347.50
843.39	6795.16
843.57	6137.35
843.75	5517.43
843.93	4767.26
844.11	4211.03
844.29	3934.76
844.47	3590.70
844.65	3489.53
844.83	3009.49
845.01	2721.55
845.19	2631.23
845.36	2296.59
845.54	2211.81
845.72	2084.63
845.90	2083.81
846.08	1849.93
846.26	1925.50
846.44	2033.63
846.62	1998.20
846.80	1913.62
846.98	1812.25
847.16	1863.45
847.34	1945.57
847.52	1766.37
847.70	1778.46
847.88	1882.49
848.06	2087.90
848.24	1951.51
848.41	1728.69
848.59	2005.37
848.77	1943.11
848.95	1839.08
849.13	1836.00
849.31	1999.84
849.49	1935.13
849.67	1787.88
849.85	1760.43
850.03	1960.93
850.21	1955.20
850.39	1806.10
850.57	1986.32
850.74	2105.52
850.92	2223.07
851.10	2516.75
851.28	3171.69
851.46	3721.57
851.64	4287.63
851.82	4187.69
852.00	4197.31
852.18	3910.19
852.36	3436.08
852.53	3216.13
852.71	3119.06
852.89	3068.27
853.07	2978.57
853.25	2680.79
853.43	2520.84
853.61	2556.07
853.79	2452.44
853.97	2238.43
854.14	2131.12
854.32	2340.42
854.50	2212.42
854.68	2025.65
854.86	1976.29
855.04	1893.96
855.22	2058.82
855.40	1775.79
855.57	1822.69
855.75	2004.96
855.93	1949.26
856.11	1676.67
856.29	1767.60
856.47	1838.87
856.65	1926.52
856.82	1792.38
857.00	1736.27
857.18	1850.54
857.36	1843.17
857.54	1879.83
857.72	1964.21
857.89	1951.51
858.07	1935.94
858.25	1975.27
858.43	1756.75
858.61	1837.23
858.79	1875.32
858.97	1765.96
859.14	1900.72
859.32	1865.29
859.50	1849.93
859.68	1922.22
859.86	1790.13
860.03	1915.87
860.21	1950.08
860.39	1810.40
860.57	1922.63
860.75	1938.20
860.93	2136.44
861.10	1990.83
861.28	1803.03
861.46	1923.86
861.64	1970.15
861.82	1820.44
861.99	1932.05
862.17	2032.20
862.35	2026.47
862.53	1868.16
862.71	1869.59
862.88	1941.06
863.06	1996.56
863.24	1820.85
863.42	1802.83
863.60	1865.90
863.77	1939.22
863.95	1676.26
864.13	1856.89
864.31	1843.79
864.49	1972.40
864.66	1728.08
864.84	1828.63
865.02	1911.78
865.20	2234.33
865.37	1907.48
865.55	1826.38
865.73	1832.52
865.91	2189.48
866.09	2176.99
866.26	2199.52
866.44	2366.63
866.62	2266.90
866.80	2073.98
866.97	2147.50
867.15	2074.80
867.33	2137.26
867.51	2112.07
867.68	2024.01
867.86	1989.19
868.04	1936.56
868.22	1800.57
868.39	1875.94
868.57	2021.75
868.75	2131.32
868.93	1785.21
869.10	1822.49
869.28	2166.14
869.46	2086.06
869.64	1863.24
869.81	1857.10
869.99	1920.38
870.17	1880.85
870.35	1778.25
870.52	1782.55
870.70	1996.16
870.88	1837.03
871.05	1737.50
871.23	1644.31
871.41	1871.43
871.59	1899.90
871.76	1832.73
871.94	1788.90
872.12	1883.31
872.29	1708.42
872.47	1819.62
872.65	1778.05
872.83	1896.83
873.00	2060.26
873.18	1830.68
873.36	1785.62
873.53	1961.95
873.71	1724.18
873.89	1775.59
874.06	1857.51
874.24	1932.67
874.42	2043.46
874.60	1966.66
874.77	1882.29
874.95	1796.07
875.13	2002.50
875.30	1776.82
875.48	1804.87
875.66	2084.63
875.83	1808.15
876.01	1834.98
876.19	1944.14
876.36	1743.44
876.54	1911.57
876.72	1734.22
876.89	1924.07
877.07	1975.06
877.25	1686.09
877.42	1879.42
877.60	1826.38
877.78	2124.15
877.95	1819.42
878.13	1805.69
878.31	1914.44
878.48	1958.27
878.66	1979.36
878.84	1791.15
879.01	1842.15
879.19	1923.25
879.37	1996.16
879.54	1827.81
879.72	1754.90
879.90	1664.79
880.07	1971.37
880.25	1605.20
880.42	1929.80
880.60	1927.75
880.78	1965.03
880.95	1800.78
881.13	1836.62
881.31	1876.76
881.48	1812.04
881.66	1783.17
881.83	1894.17
882.01	1791.97
882.19	1720.70
882.36	1866.52
882.54	1835.80
882.72	1952.74
882.89	1907.89
883.07	1739.34
883.24	1845.42
883.42	1973.01
883.60	1902.36
883.77	1764.53
883.95	1822.08
884.12	1995.34
884.30	1931.03
884.48	1942.70
884.65	1862.42
884.83	1869.59
885.00	1924.68
885.18	1745.69
885.36	1810.81
885.53	1966.87
885.71	2057.80
885.88	1736.06
886.06	1807.74
886.23	1959.09
886.41	1843.99
886.59	1810.20
886.76	1789.72
886.94	1964.21
887.11	2225.12
887.29	1850.54
887.47	1701.04
887.64	2012.33
887.82	2052.27
887.99	1723.98
888.17	1864.68
888.34	1859.97
888.52	1756.13
888.69	1850.75
888.87	1756.34
889.05	1840.30
889.22	1822.69
889.40	1807.95
889.57	1967.48
889.75	2067.22
889.92	1833.96
890.10	1743.23
890.27	1833.55
890.45	1822.08
890.62	1688.35
890.80	1760.64
890.98	1697.36
891.15	2070.09
891.33	1984.48
891.50	1797.71
891.68	1693.67
891.85	1983.25
892.03	1948.23
892.20	1812.45
892.38	1727.87
892.55	1987.76
892.73	1942.70
892.90	1724.59
893.08	1784.60
893.25	1814.50
893.43	1800.78
893.60	1924.27
893.78	1635.51
893.95	1926.52
894.13	1856.69
894.30	1755.72
894.48	1836.21
894.65	1980.18
894.83	1888.23
895.00	1664.79
895.18	1668.28
895.35	1998.41
895.53	1953.76
895.70	1712.72
895.88	1904.20
896.05	1930.82
896.23	1711.28
896.40	1783.78
896.58	1836.62
896.75	1949.67
896.93	2055.14
897.10	1798.53
897.28	1685.68
897.45	1904.00
897.63	1955.81
897.80	1918.74
897.98	1832.11
898.15	1930.01
898.33	1783.78
898.50	1869.59
898.67	1847.47
898.85	1834.37
899.02	1965.23
899.20	1992.47
899.37	1838.67
899.55	1929.39
899.72	2049.40
899.90	1774.16
900.07	1784.19
900.25	1924.27
900.42	2024.62
900.59	1774.56
900.77	1908.30
900.94	1958.27
901.12	1915.06
901.29	1788.49
901.47	1906.25
901.64	1961.34
901.82	1869.80
901.99	1623.42
902.16	1776.41
902.34	2022.98
902.51	1950.69
902.69	1814.71
902.86	1821.87
903.03	2308.47
903.21	1895.60
903.38	1841.33
903.56	1800.57
903.73	1989.19
903.91	1847.88
904.08	1739.14
904.25	1670.73
904.43	1788.90
904.60	1976.49
904.78	1843.79
904.95	1737.29
905.12	1830.88
905.30	2079.71
905.47	1931.03
905.65	1963.18
905.82	1887.20
905.99	1940.04
906.17	1823.92
906.34	1771.49
906.52	1773.34
906.69	1948.64
906.86	1926.52
907.04	1857.10
907.21	1999.84
907.38	2009.06
907.56	1775.79
907.73	1797.09
907.91	2081.76
908.08	2030.56
908.25	1761.87
908.43	1749.99
908.60	1959.29
908.77	1921.61
908.95	1809.59
909.12	1760.64
909.30	1977.72
909.47	1724.80
909.64	1835.59
909.82	1961.95
909.99	1868.57
910.16	1906.86
910.34	1808.97
910.51	1837.44
910.68	1930.21
910.86	1915.47
911.03	1886.79
911.20	2439.34
911.38	3974.29
911.55	6214.56
911.72	7304.49
911.90	8026.60
912.07	8741.96
912.24	8510.33
912.42	6625.18
912.59	4862.08
912.76	4640.90
912.94	3911.01
913.11	3552.82
913.28	3180.70
913.46	3011.33
913.63	2984.30
913.80	3067.65
913.98	2690.42
914.15	2792.20
914.32	2808.17
914.49	2600.72
914.67	2448.96
914.84	2574.50
915.01	2599.08
915.19	2432.58
915.36	2310.72
915.53	2355.78
915.71	2218.77
915.88	2096.51
916.05	1916.49
916.22	2120.26
916.40	1954.58
916.57	1804.67
916.74	1913.62
916.92	2128.66
917.09	1796.07
917.26	1760.23
917.43	1754.49
917.61	1824.74
917.78	1679.74
917.95	1662.13
918.13	1735.65
918.30	2176.99
918.47	1916.28
918.64	1757.77
918.82	1763.30
918.99	1876.14
919.16	2131.53
919.33	1860.17
919.51	1811.22
919.68	1882.49
919.85	2031.38
920.02	1719.68
920.20	1839.49
920.37	2057.80
920.54	1952.33
920.71	1764.12
920.89	1796.48
921.06	2094.87
921.23	1803.85
921.40	1881.88
921.58	2353.53
921.75	3065.60
921.92	2766.60
922.09	2915.08
922.27	2943.14
922.44	2883.34
922.61	2570.00
922.78	2240.07
922.96	2167.98
923.13	2149.14
923.30	2241.71
923.47	1903.18
923.64	1978.75
923.82	2115.96
923.99	2083.60
924.16	2011.92
924.33	1869.39
924.50	2013.97
924.68	2188.46
924.85	1829.45
925.02	1901.54
925.19	2071.32
925.36	2021.14
925.54	1933.90
925.71	1920.38
925.88	2331.61
926.05	1883.72
926.22	1781.73
926.40	1869.18
926.57	1925.30
926.74	1971.17
926.91	1756.34
927.08	1984.48
927.26	2024.01
927.43	1887.41
927.60	1763.71
927.77	1831.09
927.94	2068.45
928.11	2006.19
928.29	1697.15
928.46	1856.69
928.63	1813.07
928.80	1852.18
928.97	1905.23
929.14	1746.51
929.32	2129.68
929.49	1910.14
929.66	1782.14
929.83	1709.03
930.00	1819.62
930.17	1926.93
930.35	1700.84
930.52	1783.99
930.69	2078.48
930.86	1755.52
931.03	1866.31
931.20	1651.48
931.37	2012.74
931.55	1883.93
931.72	1886.59
931.89	1702.07
932.06	1759.82
932.23	2085.24
932.40	1901.33
932.57	1869.39
932.74	2013.15
932.92	2021.55
933.09	1922.22
933.26	1565.06
933.43	1815.32
933.60	1900.92
933.77	1849.73
933.94	1867.54
934.11	1828.02
934.29	1909.12
934.46	1744.66
934.63	1895.80
934.80	1774.36
934.97	1907.68
935.14	1868.98
935.31	1738.32
935.48	1818.19
935.65	1942.09
935.82	1887.41
936.00	1748.15
936.17	2066.61
936.34	1858.33
936.51	1896.21
936.68	1728.49
936.85	1919.77
937.02	1926.11
937.19	1852.59
937.36	1805.69
937.53	1925.50
937.70	1976.09
937.87	1832.52
938.05	1884.34
938.22	1909.32
938.39	1788.29
938.56	1813.89
938.73	1753.88
938.90	1860.58
939.07	1812.45
939.24	1850.34
939.41	1676.47
939.58	1927.55
939.75	1914.65
939.92	1738.93
940.09	1955.61
940.26	1846.24
940.43	1984.07
940.60	1780.50
940.77	1820.85
940.95	1921.61
941.12	1966.66
941.29	1780.09
941.46	1838.46
941.63	2042.23
941.80	2033.43
941.97	1698.18
942.14	1688.76
942.31	1954.79
942.48	1862.42
942.65	1893.76
942.82	1822.69
942.99	1972.40
943.16	1885.77
943.33	1724.39
943.50	1771.90
943.67	1962.77
943.84	2008.24
944.01	1773.13
944.18	1751.83
944.35	2052.88
944.52	1769.45
944.69	1851.98
944.86	1695.10
945.03	1966.05
945.20	2189.07
945.37	1649.84
945.54	1803.85
945.71	2031.59
945.88	2075.21
946.05	1766.37
946.22	1692.44
946.39	2039.57
946.56	1872.46
946.73	1695.31
946.90	1740.98
947.07	1801.19
947.24	1843.99
947.41	1654.55
947.58	1925.30
947.75	1956.01
947.92	1946.39
948.09	1618.30
948.26	1717.43
948.43	1894.37
948.60	2135.83
948.77	1748.35
948.94	1782.96
949.11	1985.71
949.27	1919.97
949.44	1749.99
949.61	1750.81
949.78	1925.09
949.95	2007.21
950.12	1731.97
950.29	1687.32
950.46	1797.71
950.63	1957.24
950.80	1755.31
950.97	1812.04
951.14	2014.18
951.31	1863.24
951.48	1757.77
951.65	1691.62
951.82	2122.92
951.99	1882.29
952.15	1681.59
952.32	1786.85
952.49	1795.86
952.66	1804.06
952.83	1749.37
953.00	1731.15
953.17	1863.86
953.34	1953.35
953.51	1827.40
953.68	1803.85
953.85	1986.73
954.02	2009.47
954.18	1789.11
954.35	1809.79
954.52	1780.09
954.69	1874.92
954.86	1638.99
955.03	1810.81
955.20	1994.72
955.37	1883.52
955.54	1786.24
955.71	1750.19
955.87	1935.33
956.04	2094.05
956.21	1791.36
956.38	1737.91
956.55	1892.73
956.72	2176.38
956.89	1823.72
957.06	1734.63
957.23	1793.82
957.39	2049.40
957.56	1780.91
957.73	1737.91
957.90	1641.24
958.07	2104.70
958.24	1813.89
958.41	1755.31
958.57	2012.33
958.74	1864.27
958.91	1726.23
959.08	1779.28
959.25	1968.10
959.42	1847.06
959.59	1835.80
959.75	1773.75
959.92	2025.03
960.09	1990.01
960.26	1737.50
960.43	1840.92
960.60	1901.74
960.76	1837.44
960.93	1695.72
961.10	1851.77
961.27	1967.48
961.44	1857.92
961.61	1692.03
961.77	1727.87
961.94	1886.79
962.11	1972.19
962.28	1818.80
962.45	1698.18
962.62	1847.27
962.78	1991.65
962.95	1716.20
963.12	1767.40
963.29	1944.55
963.46	2245.19
963.62	1838.87
963.79	1771.70
963.96	2197.88
964.13	1836.21
964.30	1859.76
964.46	1770.47
964.63	1803.65
964.80	2305.60
964.97	1807.54
965.14	2170.85
965.30	2317.07
965.47	2409.84
965.64	2349.43
965.81	2270.17
965.98	2428.69
966.14	2152.01
966.31	1981.82
966.48	1935.33
966.65	2185.39
966.81	2075.41
966.98	1923.66
967.15	1948.03
967.32	1994.93
967.49	1895.60
967.65	1758.18
967.82	1718.86
967.99	1941.27
968.16	1736.06
968.32	1993.29
968.49	1855.46
968.66	1926.11
968.83	2127.84
968.99	1905.63
969.16	1753.06
969.33	2074.18
969.50	1995.34
969.66	1918.95
969.83	2012.74
970.00	1993.49
970.17	1958.27
970.33	1759.41
970.50	1731.97
970.67	2074.59
970.84	2046.33
971.00	1723.57
971.17	1722.14
971.34	1966.25
971.50	1870.61
971.67	1874.51
971.84	1834.78
972.01	1747.12
972.17	1665.61
972.34	1724.80
972.51	1869.80
972.67	2005.78
972.84	1924.07
973.01	1745.07
973.18	1755.93
973.34	1986.53
973.51	1753.47
973.68	1783.99
973.84	1814.30
974.01	1818.80
974.18	2085.65
974.34	1840.92
974.51	1879.42
974.68	1758.59
974.85	2127.63
975.01	1874.51
975.18	1791.36
975.35	1880.65
975.51	1754.49
975.68	1666.43
975.85	1907.68
976.01	1786.44
976.18	2045.92
976.35	1782.96
976.51	1744.66
976.68	2109.00
976.85	2025.65
977.01	1799.96
977.18	1857.92
977.35	1942.09
977.51	1736.06
977.68	1637.56
977.85	1733.20
978.01	2033.84
978.18	1978.95
978.35	1873.69
978.51	1874.10
978.68	2055.14
978.85	2110.43
979.01	1794.43
979.18	1844.61
979.34	1864.27
979.51	1914.85
979.68	1749.58
979.84	1814.50
980.01	2208.32
980.18	1910.35
980.34	1750.60
980.51	1853.21
980.67	1969.33
980.84	1951.10
981.01	1813.68
981.17	1889.87
981.34	1671.76
981.51	1991.65
981.67	1744.66
981.84	1927.14
982.00	1947.00
982.17	1854.03
982.34	1653.53
982.50	1590.66
982.67	2077.66
982.83	1786.24
983.00	1708.62
983.17	1602.74
983.33	2004.55
983.50	1696.74
983.66	1701.86
983.83	1611.55
984.00	1852.18
984.16	1861.81
984.33	1605.20
984.49	1609.50
984.66	1773.54
984.83	1972.60
984.99	1653.73
985.16	1593.73
985.32	1952.33
985.49	1955.81
985.65	1757.57
985.82	1621.17
985.99	2046.33
986.15	1911.57
986.32	1724.18
986.48	1669.50
986.65	1820.85
986.81	1969.94
986.98	1592.50
987.14	1689.78
987.31	1896.83
987.48	1700.43
987.64	1575.91
987.81	1591.89
987.97	2129.27
988.14	1789.72
988.30	1632.23
988.47	1504.44
988.63	1897.03
988.80	1775.79
988.96	1700.43
989.13	1729.10
989.30	1834.98
989.46	1982.84
989.63	1571.41
989.79	1588.81
989.96	1846.65
990.12	2047.76
990.29	1651.48
990.45	1691.42
990.62	1863.65
990.78	2057.80
990.95	1725.00
991.11	1639.40
991.28	1811.43
991.44	1906.45
991.61	1547.85
991.77	1666.43
991.94	1899.29
992.10	2030.36
992.27	1708.21
992.43	1660.70
992.60	1951.10
992.76	1831.50
992.93	1802.83
993.09	1591.48
993.26	1992.26
993.42	2092.82
993.59	1650.25
993.75	1571.82
993.92	1764.53
994.08	1798.73
994.25	1721.11
994.41	1604.79
994.58	1933.49
994.74	2046.94
994.91	1606.63
995.07	1734.02
995.24	1863.86
995.40	1902.77
995.56	1786.03
995.73	1728.49
995.89	2053.70
996.06	1859.35
996.22	1617.90
996.39	1553.59
996.55	1827.61
996.72	1907.07
996.88	1564.44
997.05	1599.67
997.21	2093.02
997.37	1951.51
997.54	1744.87
997.70	1686.30
997.87	1934.72
998.03	1859.97
998.20	1578.37
998.36	1565.06
998.52	1939.43
998.69	1992.06
998.85	1572.43
999.02	1666.43
999.18	2010.08
999.35	1990.42
999.51	1692.03
999.67	1676.67
999.84	1736.47
1000.00	1938.81
1000.17	1717.63
1000.33	1594.55
1000.49	1796.89
1000.66	1864.47
1000.82	1621.79
1000.99	1725.00
1001.15	2015.20
1001.31	1833.34
1001.48	1661.31
1001.64	1709.03
1001.81	1853.21
1001.97	2127.63
1002.13	1660.70
1002.30	1654.55
1002.46	2035.07
1002.63	1808.56
1002.79	1725.82
1002.95	1629.36
1003.12	1952.74
1003.28	1903.38
1003.45	1639.40
1003.61	1596.19
1003.77	1900.51
1003.94	1725.82
1004.10	1657.63
1004.26	1695.51
1004.43	1958.88
1004.59	2080.33
1004.75	1639.19
1004.92	1639.40
1005.08	1811.22
1005.25	1907.48
1005.41	1653.53
1005.57	1713.95
1005.74	2000.46
1005.90	1839.49
1006.06	1751.01
1006.23	1637.97
1006.39	1966.25
1006.55	2203.41
1006.72	1770.67
1006.88	1591.48
1007.04	1746.10
1007.21	1859.97
1007.37	1665.41
1007.53	1655.78
1007.70	2050.22
1007.86	1973.63
1008.02	1705.96
1008.19	1600.69
1008.35	1883.11
1008.51	1762.48
1008.68	1669.91
1008.84	1569.56
1009.00	1754.29
1009.17	2029.54
1009.33	1765.76
1009.49	1722.14
1009.65	1780.91
1009.82	1926.73
1009.98	1704.52
1010.14	1567.31
1010.31	1971.58
1010.47	1934.72
1010.63	1703.30
1010.80	1700.02
1010.96	1932.05
1011.12	1850.95
1011.28	1659.26
1011.45	1641.04
1011.61	2199.52
1011.77	1774.77
1011.94	1612.98
1012.10	1595.98
1012.26	1722.55
1012.42	1804.67
1012.59	1688.14
1012.75	1721.93
1012.91	1851.36
1013.07	1995.95
1013.24	1615.64
1013.40	1635.10
1013.56	1875.32
1013.72	1859.97
1013.89	1723.37
1014.05	1704.93
1014.21	2087.70
1014.37	2182.73
1014.54	1695.92
1014.70	1620.15
1014.86	1833.34
1015.02	1729.92
1015.19	1661.52
1015.35	1588.40
1015.51	1845.42
1015.67	1806.72
1015.84	1655.78
1016.00	1638.58
1016.16	2028.51
1016.32	1970.15
1016.49	1637.15
1016.65	1616.26
1016.81	1836.82
1016.97	1927.14
1017.14	1760.02
1017.30	1664.79
1017.46	1787.88
1017.62	1902.36
1017.78	1733.81
1017.95	1595.37
1018.11	1974.24
1018.27	2158.97
1018.43	1776.41
1018.59	1721.52
1018.76	1980.18
1018.92	2205.66
1019.08	1643.29
1019.24	1649.23
1019.40	2060.87
1019.57	1890.68
1019.73	1737.50
1019.89	1683.23
1020.05	1920.38
1020.21	2105.72
1020.38	1637.15
1020.54	1804.87
1020.70	1935.94
1020.86	1947.82
1021.02	1682.82
1021.18	1662.13
1021.35	1814.30
1021.51	1930.62
1021.67	1787.06
1021.83	1663.36
1021.99	1879.83
1022.15	1933.90
1022.32	1748.76
1022.48	1694.49
1022.64	2038.34
1022.80	2079.30
1022.96	1694.08
1023.12	1585.95
1023.29	1999.23
1023.45	1929.60
1023.61	1628.95
1023.77	1815.11
1023.93	1900.72
1024.09	1788.49
1024.25	1628.34
1024.42	1582.06
1024.58	1810.20
1024.74	1906.86
1024.90	1626.29
1025.06	1700.43
1025.22	1826.79
1025.38	2049.61
1025.54	1604.58
1025.71	1701.66
1025.87	1939.22
1026.03	1902.15
1026.19	1631.82
1026.35	1778.66
1026.51	1943.73
1026.67	1864.68
1026.83	1679.95
1026.99	1770.47
1027.16	1925.09
1027.32	2033.84
1027.48	1677.49
1027.64	1640.83
1027.80	1964.41
1027.96	1899.90
1028.12	1653.53
1028.28	1653.53
1028.44	1914.03
1028.60	2047.56
1028.77	1776.61
1028.93	1702.07
1029.09	1800.37
1029.25	1752.86
1029.41	1713.74
1029.57	1755.52
1029.73	1907.07
1029.89	2065.17
1030.05	1763.92
1030.21	1742.62
1030.37	2149.55
1030.53	1942.70
1030.69	1697.77
1030.85	1605.61
1031.02	1753.88
1031.18	1892.73
1031.34	1686.71
1031.50	1760.43
1031.66	1775.38
1031.82	2076.85
1031.98	1700.63
1032.14	1636.12
1032.30	1764.12
1032.46	1946.18
1032.62	1774.36
1032.78	1587.79
1032.94	1807.13
1033.10	1821.26
1033.26	1715.17
1033.42	1760.23
1033.58	2139.92
1033.74	1795.04
1033.90	1650.05
1034.06	1829.25
1034.22	2132.14
1034.38	2011.51
1034.54	1668.28
1034.70	1694.49
1034.86	2094.05
>>>>>End Processed Spectral Data<<<<<
