SpectraSuite Data File
++++++++++++++++++++++++++++++++++++
Date: Thu Mar 30 14:19:15 PDT 2017
User: UCSD _CER
Dark Spectrum Present: No
Reference Spectrum Present: No
Number of Sampled Component Spectra: 1
Spectrometers: USB4C00073
Integration Time (usec): 380000 (USB4C00073)
Spectra Averaged: 10 (USB4C00073)
Boxcar Smoothing: 0 (USB4C00073)
Correct for Electrical Dark: No (USB4C00073)
Strobe/Lamp Enabled: No (USB4C00073)
Correct for Detector Non-linearity: No (USB4C00073)
Correct for Stray Light: No (USB4C00073)
Number of Pixels in Processed Spectrum: 3648
>>>>>Begin Processed Spectral Data<<<<<
345.37	1230.62
345.58	1230.62
345.80	1230.62
346.01	1217.11
346.22	1247.01
346.43	2022.98
346.65	1885.36
346.86	2378.72
347.07	2318.71
347.28	1813.07
347.50	1816.34
347.71	2109.41
347.92	1866.93
348.13	1800.16
348.35	1767.81
348.56	2131.94
348.77	1907.27
348.98	1794.02
349.20	1647.80
349.41	2130.50
349.62	2255.84
349.83	1908.30
350.05	1803.65
350.26	2178.83
350.47	2282.46
350.68	1808.36
350.90	1726.64
351.11	2359.46
351.32	2294.95
351.53	1866.11
351.75	1769.85
351.96	2162.04
352.17	2088.52
352.38	1871.84
352.60	1892.73
352.81	2106.34
353.02	2375.64
353.23	1792.79
353.44	1796.48
353.66	2000.66
353.87	2042.44
354.08	1876.55
354.29	1787.47
354.51	1986.53
354.72	2035.68
354.93	1759.41
355.14	1779.48
355.35	1805.90
355.57	2235.15
355.78	1836.21
355.99	1891.50
356.20	2074.80
356.42	2052.27
356.63	1894.17
356.84	1791.77
357.05	2196.65
357.26	2457.56
357.48	1933.90
357.69	1844.40
357.90	2179.04
358.11	2021.14
358.32	1835.39
358.54	1859.76
358.75	2043.26
358.96	2201.77
359.17	1802.42
359.38	1833.34
359.60	2181.91
359.81	2077.87
360.02	1838.67
360.23	1756.95
360.44	1960.52
360.66	2259.73
360.87	1781.12
361.08	1768.63
361.29	2151.19
361.50	2112.89
361.72	1767.40
361.93	1901.13
362.14	2104.70
362.35	1828.63
362.56	1962.36
362.77	1700.22
362.99	2176.99
363.20	2110.02
363.41	1884.34
363.62	1674.42
363.83	2188.46
364.05	2260.55
364.26	1744.46
364.47	1821.26
364.68	2291.47
364.89	1974.65
365.10	1725.82
365.32	1828.22
365.53	1960.52
365.74	2031.18
365.95	1830.27
366.16	1694.49
366.37	2094.25
366.59	2022.78
366.80	1810.81
367.01	1709.23
367.22	2428.69
367.43	2611.16
367.64	1890.28
367.86	1850.34
368.07	2158.15
368.28	2258.30
368.49	1740.16
368.70	1844.61
368.91	2044.08
369.12	2042.23
369.34	1742.62
369.55	1724.39
369.76	2069.06
369.97	1982.23
370.18	1712.10
370.39	1788.08
370.60	1887.00
370.82	1919.36
371.03	1840.10
371.24	1778.05
371.45	2214.88
371.66	2173.71
371.87	1830.88
372.08	1821.87
372.30	1935.54
372.51	2270.38
372.72	1960.93
372.93	1824.13
373.14	2375.23
373.35	1990.01
373.56	1762.69
373.78	1837.03
373.99	2214.47
374.20	2562.42
374.41	1813.27
374.62	1822.90
374.83	2350.86
375.04	2042.85
375.25	1848.09
375.47	1842.15
375.68	2024.62
375.89	2220.00
376.10	1865.70
376.31	1912.60
376.52	2167.98
376.73	2127.84
376.94	1863.04
377.15	1784.40
377.37	2108.18
377.58	2046.54
377.79	1726.23
378.00	1757.16
378.21	2144.63
378.42	2190.30
378.63	1861.19
378.84	1887.61
379.05	2233.11
379.27	2150.98
379.48	1917.51
379.69	1793.00
379.90	2274.68
380.11	1770.67
380.32	1824.13
380.53	1953.15
380.74	2330.38
380.95	2103.26
381.16	1875.12
381.37	1849.11
381.59	2326.90
381.80	2278.57
382.01	1789.11
382.22	1736.06
382.43	2155.08
382.64	2062.51
382.85	1734.63
383.06	1894.78
383.27	2190.30
383.48	2030.97
383.69	1826.17
383.91	1736.47
384.12	2202.39
384.33	2240.27
384.54	1877.99
384.75	1777.84
384.96	2632.46
385.17	2294.54
385.38	1846.45
385.59	1785.42
385.80	2210.99
386.01	2367.04
386.22	1930.42
386.43	1865.09
386.64	2466.98
386.86	2076.64
387.07	1918.95
387.28	1710.46
387.49	1986.32
387.70	2296.18
387.91	1928.57
388.12	1808.36
388.33	2157.74
388.54	1984.48
388.75	1754.49
388.96	1883.11
389.17	1993.70
389.38	2050.84
389.59	1889.05
389.80	1891.71
390.01	2044.08
390.22	2024.21
390.43	1910.55
390.64	1689.98
390.86	2154.67
391.07	2267.51
391.28	1833.75
391.49	1859.97
391.70	1866.93
391.91	1968.71
392.12	1847.68
392.33	1935.13
392.54	2132.35
392.75	2075.41
392.96	1937.17
393.17	1781.53
393.38	2486.85
393.59	2270.38
393.80	1735.86
394.01	1869.18
394.22	2068.04
394.43	2372.57
394.64	1747.53
394.85	1912.80
395.06	2075.62
395.27	2096.71
395.48	1836.00
395.69	1720.91
395.90	2028.72
396.11	2076.64
396.32	1840.30
396.53	1933.49
396.74	2049.81
396.95	2270.79
397.16	1794.43
397.37	1704.73
397.58	2231.88
397.79	2116.37
398.00	1887.20
398.21	1858.74
398.42	2118.42
398.63	2441.18
398.84	1827.40
399.05	1798.94
399.26	2323.01
399.47	2159.79
399.68	1728.90
399.89	1777.43
400.10	1912.60
400.31	2030.15
400.52	1881.88
400.73	1794.02
400.94	1825.76
401.15	2166.55
401.36	1850.13
401.57	1868.36
401.78	2310.11
401.99	2229.42
402.20	1786.03
402.41	1964.62
402.62	2366.22
402.83	2046.13
403.04	1810.20
403.25	2018.68
403.46	2121.70
403.67	2275.70
403.88	1817.16
404.09	1782.96
404.30	1953.15
404.51	1949.87
404.72	1745.28
404.93	1966.66
405.14	1956.22
405.35	2074.80
405.56	1883.72
405.77	1793.82
405.98	2123.74
406.19	2091.59
406.40	1755.11
406.61	1808.36
406.82	2015.61
407.03	2483.78
407.24	1762.69
407.45	1856.28
407.66	2153.23
407.87	2265.87
408.08	1898.67
408.29	1926.32
408.49	2194.40
408.70	2070.50
408.91	1802.83
409.12	1954.17
409.33	1939.43
409.54	2333.87
409.75	1764.73
409.96	1824.33
410.17	2255.43
410.38	2035.27
410.59	1795.66
410.80	1934.10
411.01	2083.40
411.22	2041.82
411.43	1917.72
411.64	1792.38
411.85	1970.56
412.06	1936.15
412.27	1642.68
412.47	1765.35
412.68	2075.62
412.89	2125.59
413.10	1814.09
413.31	1723.16
413.52	2399.81
413.73	2399.40
413.94	1798.53
414.15	1981.00
414.36	2004.76
414.57	1947.41
414.78	1747.53
414.99	1732.79
415.19	2155.49
415.40	2104.29
415.61	1986.94
415.82	1866.52
416.03	2190.71
416.24	2112.89
416.45	1811.22
416.66	1748.56
416.87	1838.67
417.08	2159.58
417.29	1759.00
417.50	1850.75
417.70	2165.93
417.91	2140.95
418.12	1852.80
418.33	1800.78
418.54	2137.06
418.75	2248.46
418.96	1936.35
419.17	1890.07
419.38	2280.00
419.59	2159.99
419.79	1906.25
420.00	1841.94
420.21	2572.86
420.42	2082.99
420.63	1805.28
420.84	1873.89
421.05	2093.23
421.26	2091.18
421.47	1755.52
421.67	2168.39
421.88	1933.90
422.09	1944.55
422.30	2087.49
422.51	1865.90
422.72	2401.04
422.93	2224.91
423.14	1865.09
423.35	1719.68
423.55	1846.86
423.76	1965.23
423.97	1831.70
424.18	1700.63
424.39	2035.27
424.60	2242.73
424.81	1825.35
425.02	1916.69
425.22	2030.36
425.43	2009.88
425.64	2025.44
425.85	1876.55
426.06	2429.51
426.27	2237.82
426.48	1939.43
426.68	1911.57
426.89	2220.20
427.10	2394.08
427.31	1838.46
427.52	1794.02
427.73	2221.64
427.94	2136.24
428.14	1981.20
428.35	1877.17
428.56	2364.18
428.77	2260.96
428.98	1877.99
429.19	1860.99
429.40	1995.13
429.60	2043.46
429.81	1958.06
430.02	1871.02
430.23	2043.87
430.44	2207.92
430.65	1778.66
430.85	1834.37
431.06	2197.27
431.27	1859.76
431.48	1817.57
431.69	1883.93
431.90	2110.43
432.10	2117.39
432.31	1930.62
432.52	1855.87
432.73	2518.59
432.94	2361.10
433.15	1997.79
433.35	1817.37
433.56	2286.97
433.77	2110.02
433.98	2101.01
434.19	2024.42
434.40	2308.06
434.60	2312.77
434.81	2133.16
435.02	2024.83
435.23	2179.86
435.44	2090.77
435.64	1813.89
435.85	1808.36
436.06	2058.41
436.27	2014.38
436.48	1763.92
436.68	1819.21
436.89	2426.64
437.10	2268.53
437.31	1950.08
437.52	2055.34
437.73	2206.07
437.93	2191.53
438.14	1971.58
438.35	1750.19
438.56	2057.39
438.77	2059.64
438.97	2027.69
439.18	1848.91
439.39	2280.21
439.60	1891.30
439.80	1837.44
440.01	1845.42
440.22	2022.78
440.43	2199.11
440.64	1802.01
440.84	1895.60
441.05	1891.30
441.26	2551.97
441.47	1934.51
441.68	1901.33
441.88	2230.24
442.09	2267.10
442.30	2218.97
442.51	2232.49
442.71	2251.54
442.92	2303.35
443.13	1975.27
443.34	1901.13
443.55	1977.72
443.75	2239.45
443.96	1862.83
444.17	1773.13
444.38	2284.30
444.58	1930.01
444.79	1964.41
445.00	1916.08
445.21	2087.29
445.41	2018.07
445.62	1692.44
445.83	1942.70
446.04	2090.98
446.24	1880.44
446.45	1674.21
446.66	1863.04
446.87	2153.44
447.07	1987.35
447.28	2069.88
447.49	1867.13
447.70	2248.06
447.90	2253.99
448.11	1885.56
448.32	1954.99
448.53	2316.66
448.73	2334.48
448.94	1834.57
449.15	1996.77
449.36	2106.34
449.56	2159.79
449.77	1882.90
449.98	1765.14
450.19	2011.51
450.39	2008.44
450.60	1918.54
450.81	1908.50
451.02	2080.12
451.22	2323.63
451.43	1816.34
451.64	1846.24
451.84	1987.14
452.05	2290.45
452.26	1859.15
452.47	1883.93
452.67	1997.79
452.88	2301.92
453.09	1763.10
453.30	1778.46
453.50	2231.47
453.71	2461.25
453.92	1977.93
454.12	2151.19
454.33	2140.74
454.54	2193.37
454.75	1896.42
454.95	1865.90
455.16	2175.97
455.37	2201.98
455.57	1980.59
455.78	1897.44
455.99	2073.16
456.19	2114.12
456.40	1795.25
456.61	1895.60
456.82	2105.52
457.02	2254.61
457.23	2045.31
457.44	2189.69
457.64	2163.06
457.85	2312.57
458.06	1991.44
458.26	2079.92
458.47	2090.16
458.68	2288.20
458.89	1887.20
459.09	2023.80
459.30	2417.42
459.51	2104.49
459.71	1751.22
459.92	1831.50
460.13	2218.56
460.33	2495.04
460.54	1911.98
460.75	1928.37
460.95	1960.11
461.16	2165.73
461.37	1884.34
461.57	1888.02
461.78	2096.10
461.99	1896.21
462.19	2101.01
462.40	1832.52
462.61	2456.33
462.81	2258.30
463.02	1813.07
463.23	1882.90
463.43	2229.01
463.64	2015.00
463.85	3128.07
464.05	1828.63
464.26	2627.13
464.47	2288.61
464.67	2034.66
464.88	2025.65
465.09	2093.64
465.29	2245.60
465.50	2163.88
465.71	2057.39
465.91	2117.39
466.12	2148.52
466.33	2008.44
466.53	1872.46
466.74	2377.49
466.94	2075.21
467.15	1944.14
467.36	2053.70
467.56	1940.25
467.77	2113.71
467.98	1903.18
468.18	1853.62
468.39	2010.49
468.60	2387.73
468.80	1871.23
469.01	1796.68
469.21	2157.33
469.42	2304.58
469.63	1878.19
469.83	1831.50
470.04	2186.62
470.25	2305.19
470.45	2004.35
470.66	1845.63
470.86	2146.68
471.07	2029.74
471.28	1951.10
471.48	1965.03
471.69	2128.25
471.90	2867.16
472.10	2109.20
472.31	2083.81
472.51	2230.44
472.72	2214.88
472.93	1991.65
473.13	2107.97
473.34	2265.87
473.54	2155.08
473.75	2002.71
473.96	2135.83
474.16	2113.30
474.37	2164.29
474.57	1983.25
474.78	1854.03
474.99	2153.44
475.19	2123.33
475.40	1900.51
475.60	1870.21
475.81	2524.53
476.02	2286.15
476.22	2181.29
476.43	2238.43
476.63	2180.27
476.84	2371.75
477.05	1814.50
477.25	1900.11
477.46	2650.07
477.66	2163.47
477.87	1831.50
478.08	1879.01
478.28	2261.78
478.49	2026.87
478.69	1873.69
478.90	1865.70
479.10	2183.95
479.31	2405.34
479.52	1944.14
479.72	2033.02
479.93	2263.21
480.13	2057.80
480.34	1938.40
480.54	2009.26
480.75	1996.16
480.96	2323.01
481.16	1871.43
481.37	1982.23
481.57	2256.66
481.78	2146.27
481.98	2098.96
482.19	1986.94
482.40	2446.50
482.60	2188.46
482.81	2015.20
483.01	1789.11
483.22	2259.32
483.42	2221.64
483.63	1969.33
483.83	1930.42
484.04	2034.66
484.24	2278.77
484.45	2056.37
484.66	1859.97
484.86	2199.72
485.07	1949.05
485.27	1968.30
485.48	1867.54
485.68	2340.62
485.89	1974.04
486.09	1995.34
486.30	1874.30
486.50	2113.30
486.71	2092.00
486.91	1985.10
487.12	2244.37
487.33	2840.74
487.53	2887.84
487.74	2520.84
487.94	2503.64
488.15	2472.51
488.35	2374.41
488.56	2084.22
488.76	1994.72
488.97	2136.65
489.17	2278.77
489.38	2033.84
489.58	1958.06
489.79	2218.36
489.99	2182.32
490.20	1928.78
490.40	2030.15
490.61	2178.01
490.81	2029.33
491.02	1966.66
491.22	1947.41
491.43	2186.21
491.63	2080.33
491.84	2054.73
492.04	1803.03
492.25	2184.36
492.45	2055.96
492.66	1897.65
492.86	1822.28
493.07	2070.29
493.27	2477.63
493.48	1779.68
493.68	1859.15
493.89	2073.77
494.09	2200.34
494.30	1906.45
494.50	2102.24
494.71	2187.85
494.91	1852.80
495.12	1918.54
495.32	1973.63
495.53	2126.82
495.73	1924.89
495.94	2119.65
496.14	1968.30
496.35	2613.21
496.55	2236.59
496.76	1967.89
496.96	2011.92
497.17	2101.22
497.37	2204.23
497.58	1927.34
497.78	1840.30
497.98	2052.06
498.19	2062.30
498.39	1904.61
498.60	1946.39
498.80	1815.93
499.01	2209.14
499.21	1811.63
499.42	1967.48
499.62	2028.31
499.83	2446.71
500.03	1814.71
500.24	1992.88
500.44	2359.87
500.64	2246.21
500.85	1895.60
501.05	2032.20
501.26	1850.95
501.46	2279.39
501.67	1853.62
501.87	1820.03
502.08	1956.83
502.28	2044.28
502.48	1983.87
502.69	2002.30
502.89	1851.36
503.10	1953.76
503.30	1975.88
503.51	1964.41
503.71	1856.28
503.92	2186.62
504.12	1975.47
504.32	1860.17
504.53	2181.29
504.73	2151.60
504.94	2033.84
505.14	2163.27
505.35	2209.55
505.55	2176.99
505.75	1941.68
505.96	2113.30
506.16	2434.42
506.37	1992.26
506.57	1840.92
506.78	1991.44
506.98	2269.76
507.18	1865.29
507.39	1819.01
507.59	1901.74
507.80	1964.62
508.00	2080.53
508.20	2114.12
508.41	1908.91
508.61	2279.59
508.82	2230.44
509.02	2055.55
509.22	1868.16
509.43	1920.18
509.63	1994.93
509.84	1937.79
510.04	1747.94
510.24	2338.58
510.45	2205.46
510.65	1797.71
510.86	1961.95
511.06	1914.24
511.26	2230.24
511.47	2095.07
511.67	1884.95
511.88	2187.44
512.08	2239.25
512.28	1831.70
512.49	1966.25
512.69	2108.38
512.90	2127.23
513.10	1924.68
513.30	1935.94
513.51	2168.59
513.71	2359.67
513.91	1994.11
514.12	1985.92
514.32	2243.14
514.53	1980.39
514.73	1998.00
514.93	1922.22
515.14	2062.92
515.34	2293.11
515.54	1878.81
515.75	1987.55
515.95	2193.58
516.15	2303.35
516.36	1958.47
516.56	1971.78
516.77	1756.13
516.97	2176.99
517.17	1910.55
517.38	2006.80
517.58	2315.84
517.78	2041.82
517.99	1993.08
518.19	1914.24
518.39	2280.82
518.60	1990.42
518.80	1828.84
519.00	1983.66
519.21	2041.01
519.41	2375.64
519.61	1847.47
519.82	2010.08
520.02	2089.13
520.22	2083.81
520.43	1873.89
520.63	1945.16
520.83	1995.13
521.04	1818.60
521.24	2007.83
521.44	1957.24
521.65	1980.18
521.85	2187.64
522.05	1890.68
522.26	1871.43
522.46	2441.59
522.66	2214.06
522.87	1920.59
523.07	2110.84
523.27	2002.09
523.48	2298.23
523.68	1950.90
523.88	2013.77
524.09	2281.44
524.29	2121.08
524.49	1789.31
524.70	2013.97
524.90	2324.65
525.10	2172.49
525.31	1814.09
525.51	1855.05
525.71	2226.35
525.91	2168.59
526.12	1898.67
526.32	1833.14
526.52	2020.94
526.73	1974.65
526.93	1982.02
527.13	1803.24
527.34	2067.22
527.54	2067.01
527.74	1931.85
527.94	1838.67
528.15	1911.16
528.35	2146.27
528.55	2039.98
528.76	1983.87
528.96	1820.23
529.16	2266.69
529.36	2044.49
529.57	1838.26
529.77	2284.71
529.97	1936.56
530.18	2012.13
530.38	1902.56
530.58	2183.13
530.78	2065.58
530.99	1892.53
531.19	1968.10
531.39	1993.49
531.60	2068.86
531.80	1953.35
532.00	2076.44
532.20	2119.65
532.41	1962.36
532.61	1909.12
532.81	1892.53
533.01	2017.25
533.22	2169.62
533.42	2089.13
533.62	1769.04
533.82	2273.25
534.03	2056.78
534.23	2022.57
534.43	1874.92
534.63	2018.07
534.84	2110.64
535.04	2035.68
535.24	1975.68
535.44	2532.31
535.65	2003.32
535.85	1895.19
536.05	1835.59
536.25	2075.82
536.46	1943.73
536.66	2078.07
536.86	1933.90
537.06	2190.71
537.27	2279.18
537.47	1977.72
537.67	1922.02
537.87	2318.51
538.08	2104.90
538.28	1838.46
538.48	1803.24
538.68	2037.93
538.88	2193.78
539.09	1785.01
539.29	1932.46
539.49	2213.44
539.69	2124.97
539.90	2004.55
540.10	1847.27
540.30	2310.31
540.50	2005.37
540.70	1792.59
540.91	1900.72
541.11	2187.64
541.31	2369.09
541.51	1977.72
541.72	1999.23
541.92	2113.71
542.12	1968.92
542.32	1928.57
542.52	1905.84
542.73	1966.87
542.93	2168.18
543.13	1903.79
543.33	2032.40
543.53	2204.23
543.74	2170.44
543.94	1904.00
544.14	1990.42
544.34	2263.82
544.54	2025.44
544.75	2002.30
544.95	2122.51
545.15	2219.38
545.35	2342.06
545.55	2074.59
545.75	1919.97
545.96	2465.55
546.16	1946.80
546.36	1931.85
546.56	1971.99
546.76	2272.22
546.97	2381.17
547.17	1976.49
547.37	2019.50
547.57	1993.08
547.77	2192.35
547.97	1984.48
548.18	2017.66
548.38	2052.06
548.58	2321.37
548.78	1891.50
548.98	1953.97
549.18	2215.08
549.39	2379.74
549.59	2027.90
549.79	1995.75
549.99	2329.15
550.19	2247.24
550.39	2117.80
550.60	1964.21
550.80	2155.69
551.00	2172.49
551.20	1918.13
551.40	1957.24
551.60	2167.16
551.80	2100.19
552.01	2024.62
552.21	1968.71
552.41	2109.61
552.61	2375.64
552.81	2055.14
553.01	1876.76
553.21	2179.86
553.42	1941.06
553.62	1937.17
553.82	1861.60
554.02	2370.93
554.22	2224.91
554.42	1821.26
554.62	2039.37
554.83	2343.08
555.03	2321.78
555.23	1957.65
555.43	2186.21
555.63	2103.26
555.83	2110.43
556.03	2031.38
556.23	1822.90
556.44	2093.02
556.64	2283.49
556.84	1682.61
557.04	1941.88
557.24	2115.14
557.44	2090.57
557.64	2024.01
557.84	1877.99
558.04	2016.63
558.25	2210.58
558.45	1857.71
558.65	1954.38
558.85	2088.11
559.05	1815.73
559.25	1950.08
559.45	1985.51
559.65	2429.51
559.85	2875.55
560.05	1991.24
560.26	2058.82
560.46	2062.51
560.66	1966.25
560.86	1917.92
561.06	1866.93
561.26	2316.05
561.46	2188.05
561.66	1921.40
561.86	2064.56
562.06	1925.30
562.26	2060.05
562.47	1992.67
562.67	1843.58
562.87	2185.39
563.07	1885.16
563.27	2014.79
563.47	1969.74
563.67	2027.49
563.87	2189.69
564.07	1891.09
564.27	1958.47
564.47	2092.41
564.67	2132.14
564.87	1899.70
565.08	1988.99
565.28	1987.14
565.48	2159.99
565.68	1976.09
565.88	2048.58
566.08	2426.64
566.28	2095.28
566.48	1844.81
566.68	1957.86
566.88	2028.92
567.08	2251.54
567.28	1953.56
567.48	1964.82
567.68	2152.42
567.88	1851.16
568.08	1977.11
568.28	2068.65
568.48	2037.32
568.68	2269.76
568.89	2015.82
569.09	1817.78
569.29	2217.13
569.49	2225.32
569.69	1880.24
569.89	1880.85
570.09	1774.77
570.29	1983.05
570.49	1843.58
570.69	1924.68
570.89	2228.19
571.09	2433.60
571.29	1815.32
571.49	2094.46
571.69	2164.29
571.89	2168.39
572.09	1940.66
572.29	1978.95
572.49	2200.95
572.69	2159.79
572.89	1994.52
573.09	1686.30
573.29	2063.94
573.49	2089.13
573.69	1937.99
573.89	1986.32
574.09	2021.96
574.29	2263.62
574.49	1946.80
574.69	1871.43
574.89	1897.44
575.09	1908.30
575.29	1824.33
575.49	1927.34
575.69	2135.42
575.89	1872.46
576.09	1963.39
576.29	1960.11
576.49	1899.29
576.69	2025.03
576.89	1909.12
577.09	1979.36
577.29	1865.09
577.49	2378.51
577.69	1897.65
577.89	2067.22
578.09	2062.51
578.29	1832.93
578.49	1958.27
578.69	1890.28
578.89	2235.15
579.09	2076.23
579.29	1874.10
579.49	2050.02
579.69	2031.38
579.89	2364.79
580.09	1738.11
580.29	1787.47
580.49	1978.95
580.69	1898.06
580.89	1907.89
581.09	1905.02
581.29	2006.39
581.49	2085.45
581.69	1858.33
581.89	1883.31
582.09	1965.03
582.28	1911.78
582.48	2016.23
582.68	2092.00
582.88	2312.98
583.08	2011.72
583.28	1932.26
583.48	1951.30
583.68	1944.34
583.88	2055.34
584.08	1984.69
584.28	1966.66
584.48	2402.47
584.68	2161.43
584.88	1928.78
585.08	2130.91
585.28	2244.78
585.48	2269.76
585.68	2020.94
585.87	2067.42
586.07	2133.98
586.27	2082.58
586.47	2011.92
586.67	1952.33
586.87	2056.78
587.07	1995.95
587.27	1847.06
587.47	2001.89
587.67	2359.26
587.87	2499.96
588.07	2010.90
588.27	1896.21
588.46	2217.75
588.66	2193.78
588.86	1924.68
589.06	1994.31
589.26	2216.11
589.46	2200.34
589.66	1865.29
589.86	1833.34
590.06	2022.57
590.26	2118.01
590.46	1902.77
590.66	1985.92
590.85	1929.60
591.05	2072.95
591.25	1854.85
591.45	1904.20
591.65	2139.10
591.85	2073.36
592.05	1890.68
592.25	1997.59
592.45	2208.12
592.64	2014.38
592.84	1967.69
593.04	1880.65
593.24	2498.32
593.44	1975.88
593.64	1981.82
593.84	2039.57
594.04	2000.46
594.24	2343.08
594.43	1917.92
594.63	1950.08
594.83	2256.66
595.03	2225.32
595.23	1865.70
595.43	1805.28
595.63	1983.66
595.83	2199.52
596.02	1730.94
596.22	1909.53
596.42	2147.09
596.62	2061.49
596.82	1911.37
597.02	1988.17
597.22	2305.81
597.41	2081.97
597.61	1908.91
597.81	2040.19
598.01	2207.92
598.21	1981.82
598.41	1847.47
598.61	1847.68
598.80	2078.28
599.00	2127.02
599.20	2069.47
599.40	1943.32
599.60	2011.92
599.80	2194.81
599.99	2055.75
600.19	1919.77
600.39	2061.89
600.59	2146.27
600.79	2005.78
600.99	1952.53
601.19	2334.48
601.38	2419.68
601.58	2008.44
601.78	1715.99
601.98	2122.72
602.18	2122.72
602.37	2179.24
602.57	1980.39
602.77	2215.70
602.97	2153.23
603.17	2148.52
603.37	2045.31
603.56	2271.61
603.76	2207.10
603.96	1984.28
604.16	2011.31
604.36	2321.58
604.56	2207.51
604.75	1889.05
604.95	1962.98
605.15	2282.67
605.35	2230.03
605.55	1891.30
605.74	1876.96
605.94	2253.18
606.14	2075.21
606.34	1958.27
606.54	2021.35
606.73	2010.70
606.93	2211.60
607.13	1874.51
607.33	2043.46
607.53	2346.36
607.72	2255.84
607.92	2063.33
608.12	2098.76
608.32	2065.17
608.51	2203.82
608.71	1850.13
608.91	2010.70
609.11	2174.12
609.31	2010.49
609.50	1944.34
609.70	2179.65
609.90	2240.07
610.10	2229.62
610.29	1945.16
610.49	1817.98
610.69	2181.91
610.89	2098.14
611.09	1945.57
611.28	2118.42
611.48	2227.17
611.68	2040.39
611.88	1926.93
612.07	1848.50
612.27	2199.72
612.47	1958.68
612.67	1993.49
612.86	2081.35
613.06	2072.54
613.26	1850.34
613.46	1892.73
613.65	2010.29
613.85	2589.45
614.05	2227.58
614.25	2044.08
614.44	1950.28
614.64	2084.63
614.84	1996.97
615.04	1869.59
615.23	1934.72
615.43	2186.41
615.63	2209.35
615.83	1882.70
616.02	1787.47
616.22	2174.53
616.42	1860.58
616.62	1855.05
616.81	1947.62
617.01	2095.89
617.21	2038.96
617.41	1828.63
617.60	1963.59
617.80	2152.82
618.00	2176.58
618.19	2054.52
618.39	1953.35
618.59	2171.87
618.79	2058.00
618.98	1807.74
619.18	1957.04
619.38	2480.50
619.57	2051.86
619.77	1926.11
619.97	1939.02
620.17	1980.18
620.36	1907.27
620.56	2104.29
620.76	1842.56
620.95	1874.30
621.15	1973.01
621.35	1863.65
621.54	1955.20
621.74	2112.48
621.94	1952.33
622.14	1828.02
622.33	1797.91
622.53	2060.67
622.73	2014.79
622.92	1799.55
623.12	1942.70
623.32	2404.32
623.51	2198.70
623.71	1825.56
623.91	2117.80
624.10	1923.04
624.30	2081.56
624.50	1815.93
624.69	1808.15
624.89	2724.21
625.09	2058.41
625.29	1738.32
625.48	1837.03
625.68	2112.48
625.88	2270.79
626.07	2005.99
626.27	1882.08
626.47	1987.55
626.66	1842.35
626.86	1982.43
627.06	1928.57
627.25	2082.58
627.45	2324.85
627.64	1935.94
627.84	2104.08
628.04	1935.13
628.23	2431.76
628.43	1813.07
628.63	1847.06
628.82	1961.13
629.02	2357.01
629.22	1990.22
629.41	2106.75
629.61	2077.25
629.81	2394.89
630.00	1888.84
630.20	1844.40
630.40	2081.15
630.59	2128.45
630.79	1926.73
630.98	1913.21
631.18	2048.58
631.38	2051.86
631.57	2072.13
631.77	1800.16
631.97	2107.36
632.16	2117.60
632.36	1965.85
632.56	1975.88
632.75	2128.66
632.95	2275.29
633.14	1849.93
633.34	2111.05
633.54	1796.27
633.73	2015.20
633.93	1892.73
634.12	1796.07
634.32	2524.12
634.52	2054.52
634.71	1789.11
634.91	1985.10
635.11	1879.63
635.30	1960.73
635.50	1968.30
635.69	1833.96
635.89	2375.23
636.09	2211.19
636.28	1838.46
636.48	1853.62
636.67	2146.68
636.87	2156.10
637.07	1988.78
637.26	1915.26
637.46	2071.11
637.65	2202.59
637.85	1981.20
638.04	1862.63
638.24	1969.53
638.44	2133.57
638.63	1974.86
638.83	1914.44
639.02	2136.03
639.22	2175.76
639.42	1916.08
639.61	1933.69
639.81	2077.87
640.00	2053.50
640.20	2053.70
640.39	1993.90
640.59	2401.86
640.79	2183.34
640.98	1993.08
641.18	1844.20
641.37	2025.65
641.57	1939.02
641.76	1967.28
641.96	1727.87
642.15	2042.44
642.35	1941.06
642.55	1985.92
642.74	1782.14
642.94	2158.15
643.13	2283.08
643.33	1892.12
643.52	1880.24
643.72	2000.66
643.91	2078.69
644.11	1832.73
644.31	1863.24
644.50	1935.33
644.70	2290.04
644.89	1958.88
645.09	2007.42
645.28	2113.71
645.48	2128.86
645.67	1836.82
645.87	1745.28
646.06	1995.95
646.26	2100.19
646.45	1706.78
646.65	1699.61
646.84	2357.83
647.04	2004.96
647.24	1802.21
647.43	1914.03
647.63	2097.94
647.82	2331.00
648.02	1836.00
648.21	1883.72
648.41	2303.15
648.60	2020.73
648.80	2068.86
648.99	1943.52
649.19	1977.72
649.38	1807.54
649.58	1941.27
649.77	1994.52
649.97	2235.77
650.16	2157.13
650.36	1722.55
650.55	2076.44
650.75	2095.89
650.94	2335.71
651.14	1950.90
651.33	1990.63
651.53	2344.31
651.72	1941.88
651.92	1891.71
652.11	1740.77
652.31	2135.01
652.50	2142.38
652.70	1944.55
652.89	1824.94
653.09	2272.84
653.28	1976.90
653.48	1719.27
653.67	1755.31
653.87	2587.40
654.06	2080.33
654.25	2138.28
654.45	1860.58
654.64	2005.99
654.84	2003.73
655.03	1713.13
655.23	2080.33
655.42	2224.71
655.62	2371.96
655.81	2106.95
656.01	1928.98
656.20	2238.63
656.40	2373.80
656.59	2025.85
656.79	2099.78
656.98	2104.49
657.17	2251.33
657.37	1944.34
657.56	1906.04
657.76	2132.75
657.95	2240.27
658.15	1589.22
658.34	1970.15
658.54	2047.35
658.73	1873.89
658.92	1912.80
659.12	1938.20
659.31	2149.55
659.51	1912.39
659.70	1995.34
659.90	1845.83
660.09	2208.12
660.29	2027.90
660.48	1848.29
660.67	2074.18
660.87	1987.55
661.06	2129.27
661.26	1993.08
661.45	2048.17
661.65	2132.55
661.84	1972.40
662.03	1877.58
662.23	1873.89
662.42	2400.22
662.62	1902.77
662.81	1810.81
663.00	1879.22
663.20	2077.66
663.39	2175.56
663.59	2052.06
663.78	1937.79
663.97	2030.77
664.17	2229.42
664.36	1824.94
664.56	1867.75
664.75	2198.08
664.94	2172.28
665.14	1993.29
665.33	1924.07
665.53	2044.69
665.72	2026.06
665.91	2021.35
666.11	1941.47
666.30	2065.58
666.50	2054.73
666.69	1950.49
666.88	1884.95
667.08	2066.61
667.27	1987.76
667.47	1920.59
667.66	1878.19
667.85	2201.98
668.05	2082.99
668.24	1853.82
668.43	2118.21
668.63	1996.16
668.82	2241.71
669.02	2002.50
669.21	1909.12
669.40	1863.45
669.60	2348.41
669.79	1797.71
669.98	2526.78
670.18	1900.52
670.37	1869.18
670.56	1935.33
670.76	1977.93
670.95	1992.26
671.15	2184.98
671.34	1953.76
671.53	1946.80
671.73	1963.80
671.92	1946.39
672.11	1823.51
672.31	1902.15
672.50	2107.36
672.69	1868.77
672.89	1701.66
673.08	1911.78
673.27	2169.62
673.47	2087.90
673.66	1967.48
673.85	1803.65
674.05	2079.92
674.24	2042.23
674.43	1805.08
674.63	1982.23
674.82	2422.13
675.01	1724.59
675.21	2009.67
675.40	1857.51
675.59	1979.36
675.79	2308.68
675.98	1867.13
676.17	2054.11
676.37	2082.78
676.56	1948.03
676.75	1921.40
676.95	1934.92
677.14	1974.65
677.33	2236.38
677.52	1797.71
677.72	1875.73
677.91	2088.93
678.10	1820.03
678.30	1847.68
678.49	1813.27
678.68	2445.48
678.88	1784.19
679.07	2071.73
679.26	1883.72
679.45	2371.75
679.65	2307.24
679.84	1762.69
680.03	1753.88
680.23	2012.74
680.42	2477.84
680.61	1814.50
680.81	1890.48
681.00	2071.93
681.19	2140.54
681.38	2026.06
681.58	2030.97
681.77	1992.26
681.96	2210.17
682.15	1853.21
682.35	1981.61
682.54	2093.64
682.73	1890.68
682.93	1840.92
683.12	1822.69
683.31	2163.47
683.50	2497.29
683.70	1843.79
683.89	1957.65
684.08	1900.72
684.27	2214.26
684.47	1790.33
684.66	1898.88
684.85	2399.20
685.04	2257.48
685.24	1860.17
685.43	1906.66
685.62	1788.49
685.81	2081.35
686.01	1981.82
686.20	1850.95
686.39	1800.78
686.58	2359.67
686.78	1925.09
686.97	1917.72
687.16	2204.64
687.35	2086.06
687.55	1899.29
687.74	1947.62
687.93	1856.48
688.12	2003.94
688.32	1924.48
688.51	1757.57
688.70	2103.06
688.89	1850.95
689.08	1769.04
689.28	1880.24
689.47	2046.94
689.66	2054.32
689.85	2000.87
690.05	1847.27
690.24	1907.48
690.43	2100.19
690.62	1947.82
690.81	1853.00
691.01	2099.17
691.20	2004.14
691.39	1769.85
691.58	1961.13
691.77	2349.63
691.97	2070.50
692.16	1976.29
692.35	1921.61
692.54	1962.57
692.73	2103.26
692.93	1930.01
693.12	1973.83
693.31	2112.27
693.50	2038.75
693.69	2005.17
693.89	1871.02
694.08	2251.74
694.27	2257.68
694.46	1894.99
694.65	1898.26
694.85	2134.80
695.04	2117.39
695.23	1844.40
695.42	2055.14
695.61	2134.60
695.80	2237.82
696.00	2210.78
696.19	2204.23
696.38	1991.85
696.57	2185.18
696.76	2068.04
696.95	1922.84
697.15	2320.35
697.34	2315.43
697.53	1897.03
697.72	2017.66
697.91	2002.50
698.10	2288.20
698.30	1922.63
698.49	1903.18
698.68	2097.53
698.87	1996.77
699.06	1845.63
699.25	1934.92
699.45	2236.59
699.64	2079.10
699.83	2067.83
700.02	1882.90
700.21	2111.87
700.40	1996.36
700.59	1869.80
700.79	1941.47
700.98	2143.61
701.17	1962.77
701.36	1867.54
701.55	1830.06
701.74	2210.78
701.93	1834.37
702.12	1867.54
702.32	1823.31
702.51	2200.95
702.70	2150.37
702.89	1923.66
703.08	1876.96
703.27	2210.17
703.46	2104.29
703.65	1834.78
703.85	1799.96
704.04	1918.95
704.23	2226.76
704.42	1818.19
704.61	1861.19
704.80	2324.03
704.99	1930.82
705.18	1977.52
705.37	1869.18
705.57	2125.18
705.76	2262.80
705.95	1909.12
706.14	2228.39
706.33	2407.80
706.52	2618.12
706.71	2102.04
706.90	1977.52
707.09	2217.54
707.28	2138.49
707.47	1836.41
707.67	2023.19
707.86	1942.50
708.05	2218.56
708.24	1910.35
708.43	1965.85
708.62	2009.06
708.81	1925.30
709.00	1838.46
709.19	1872.46
709.38	2213.85
709.57	1844.20
709.76	1949.87
709.96	1843.17
710.15	2280.82
710.34	2068.45
710.53	2039.98
710.72	1911.98
710.91	2255.02
711.10	2140.54
711.29	1999.02
711.48	1886.38
711.67	1871.23
711.86	2104.08
712.05	1745.28
712.24	1800.37
712.43	2164.70
712.62	2283.69
712.81	1923.45
713.00	2096.51
713.19	1862.83
713.39	2122.51
713.58	1786.03
713.77	1952.53
713.96	2130.91
714.15	1995.34
714.34	1873.89
714.53	1748.15
714.72	2373.19
714.91	1839.90
715.10	1954.79
715.29	1801.60
715.48	2553.41
715.67	2156.72
715.86	1912.80
716.05	1886.18
716.24	1995.75
716.43	1937.99
716.62	1814.91
716.81	1803.65
717.00	1990.01
717.19	2290.04
717.38	1880.65
717.57	1891.71
717.76	1846.65
717.95	2205.05
718.14	1910.35
718.33	1925.91
718.52	1801.60
718.71	1822.49
718.90	1831.50
719.09	1878.60
719.28	2037.73
719.47	2219.18
719.66	1988.99
719.85	2002.30
720.04	1978.34
720.23	2031.38
720.42	1829.86
720.61	1975.27
720.80	1824.13
720.99	2085.24
721.18	1895.60
721.37	1786.65
721.56	1954.58
721.75	2188.66
721.94	1822.90
722.13	1864.27
722.32	1978.34
722.51	2160.40
722.70	1945.78
722.89	1986.53
723.08	2034.66
723.27	2226.14
723.46	1970.76
723.65	1926.93
723.84	1956.42
724.03	2244.37
724.22	1786.85
724.41	1905.43
724.60	2012.95
724.79	2200.75
724.98	1947.41
725.16	1890.48
725.35	2156.72
725.54	1863.24
725.73	1936.15
725.92	1930.01
726.11	1972.81
726.30	2140.74
726.49	1782.55
726.68	1867.95
726.87	2111.46
727.06	2252.56
727.25	1874.30
727.44	1955.20
727.63	2031.18
727.82	1952.94
728.01	1936.35
728.20	1979.77
728.38	2295.36
728.57	1980.59
728.76	1865.90
728.95	2026.47
729.14	1852.39
729.33	1862.22
729.52	1672.78
729.71	1820.23
729.90	1871.43
730.09	1945.57
730.28	1845.83
730.47	1880.24
730.66	2206.07
730.84	2019.50
731.03	1893.76
731.22	1928.37
731.41	2058.00
731.60	2098.14
731.79	1718.86
731.98	1808.36
732.17	2132.75
732.36	2093.23
732.55	1848.91
732.73	1773.13
732.92	2240.89
733.11	2094.66
733.30	1807.33
733.49	1766.37
733.68	2110.02
733.87	2102.65
734.06	1765.14
734.25	1770.47
734.43	1896.01
734.62	2066.40
734.81	1881.88
735.00	1830.47
735.19	1976.09
735.38	2090.98
735.57	1746.30
735.76	1961.95
735.94	2054.93
736.13	2398.79
736.32	1977.11
736.51	1896.42
736.70	2356.39
736.89	2336.94
737.08	2047.15
737.27	2166.14
737.45	2479.07
737.64	2273.86
737.83	2288.81
738.02	2256.45
738.21	2453.47
738.40	2515.72
738.59	2044.28
738.77	2100.19
738.96	2002.09
739.15	2138.90
739.34	2052.68
739.53	2027.69
739.72	2266.90
739.90	2220.61
740.09	1852.59
740.28	1943.52
740.47	2161.22
740.66	2119.24
740.85	1812.25
741.03	1902.56
741.22	1861.19
741.41	2002.09
741.60	1738.32
741.79	1955.61
741.98	2237.00
742.16	2336.53
742.35	1914.03
742.54	1935.13
742.73	2383.84
742.92	1961.95
743.10	1753.27
743.29	1828.02
743.48	2417.83
743.67	1926.32
743.86	1737.50
744.05	1794.23
744.23	1859.76
744.42	1876.76
744.61	1905.23
744.80	1765.14
744.99	1934.31
745.17	1743.64
745.36	1723.16
745.55	1960.52
745.74	2002.30
745.93	1907.89
746.11	1796.07
746.30	1750.19
746.49	2191.94
746.68	1882.70
746.86	1879.63
747.05	1827.40
747.24	2120.06
747.43	2153.85
747.62	1770.88
747.80	1817.16
747.99	2236.59
748.18	2116.99
748.37	1910.96
748.56	1948.23
748.74	2197.88
748.93	2048.58
749.12	2063.74
749.31	2341.85
749.49	2589.86
749.68	2804.69
749.87	2911.39
750.06	2702.09
750.24	2822.10
750.43	2811.66
750.62	2609.52
750.81	2755.54
750.99	2946.00
751.18	2931.46
751.37	2531.08
751.56	2616.48
751.74	2986.35
751.93	3064.79
752.12	2182.93
752.31	2118.21
752.49	2209.76
752.68	2511.22
752.87	2048.17
753.06	2000.46
753.24	2104.49
753.43	2274.47
753.62	1887.41
753.81	1845.83
753.99	2341.03
754.18	2102.24
754.37	1831.29
754.55	1888.02
754.74	2343.90
754.93	1760.64
755.12	1848.29
755.30	1775.38
755.49	2208.94
755.68	2063.94
755.86	1964.82
756.05	1772.93
756.24	2272.22
756.43	1836.00
756.61	1807.33
756.80	1927.55
756.99	2261.98
757.17	2039.37
757.36	1803.85
757.55	1873.07
757.74	2106.13
757.92	2042.23
758.11	1778.25
758.30	1716.61
758.48	2016.43
758.67	1824.74
758.86	1907.27
759.04	1757.77
759.23	1923.86
759.42	2021.14
759.60	1838.05
759.79	1880.65
759.98	1964.62
760.16	1894.17
760.35	1847.06
760.54	1795.04
760.73	2051.66
760.91	1789.11
761.10	1863.65
761.29	1939.84
761.47	2019.09
761.66	2407.59
761.85	1928.16
762.03	2034.04
762.22	2268.13
762.41	2592.73
762.59	2746.33
762.78	2900.54
762.97	3528.45
763.15	3499.16
763.34	3197.08
763.52	2746.33
763.71	2869.82
763.90	2958.29
764.08	2525.96
764.27	2538.87
764.46	2767.83
764.64	2404.52
764.83	2316.46
765.02	2215.49
765.20	2315.23
765.39	2307.86
765.58	1938.40
765.76	1998.20
765.95	2134.80
766.13	2090.57
766.32	1871.64
766.51	1873.07
766.69	2765.37
766.88	2115.14
767.07	1765.35
767.25	1650.87
767.44	2197.68
767.62	2230.03
767.81	1801.80
768.00	1877.78
768.18	2043.26
768.37	1902.15
768.56	1708.83
768.74	1849.93
768.93	1827.61
769.11	2104.49
769.30	1917.92
769.49	1833.96
769.67	2014.18
769.86	1936.97
770.04	1868.16
770.23	1799.96
770.42	2251.13
770.60	2035.48
770.79	1800.16
770.97	1834.57
771.16	2249.28
771.35	2125.79
771.53	2029.95
771.72	2047.15
771.90	2319.94
772.09	2571.43
772.27	2358.24
772.46	2088.31
772.65	2431.96
772.83	2311.54
773.02	2201.57
773.20	1978.34
773.39	2240.27
773.58	2283.49
773.76	1870.82
773.95	1888.02
774.13	2147.09
774.32	2005.78
774.50	1854.85
774.69	1959.50
774.87	1999.64
775.06	2413.74
775.25	1889.87
775.43	1903.38
775.62	2107.56
775.80	2155.49
775.99	1930.01
776.17	1859.97
776.36	2055.96
776.54	2213.85
776.73	1843.58
776.92	1930.82
777.10	2180.06
777.29	2100.60
777.47	1840.30
777.66	1868.16
777.84	2065.99
778.03	2034.04
778.21	1843.38
778.40	1952.53
778.58	2112.48
778.77	2212.01
778.95	1818.60
779.14	1843.79
779.32	2365.20
779.51	2216.11
779.70	1849.32
779.88	1743.23
780.07	1978.13
780.25	2491.97
780.44	1890.89
780.62	2019.91
780.81	2141.97
780.99	2105.11
781.18	1866.31
781.36	1835.59
781.55	2024.62
781.73	2310.11
781.92	1789.11
782.10	1802.83
782.29	2143.61
782.47	2299.05
782.66	1855.46
782.84	1761.25
783.03	1910.75
783.21	2222.87
783.40	1833.14
783.58	1836.62
783.77	1936.76
783.95	1991.04
784.14	1811.43
784.32	1909.53
784.51	2204.23
784.69	1933.49
784.88	1751.42
785.06	1864.06
785.24	1806.92
785.43	2170.85
785.61	1954.17
785.80	1784.80
785.98	2117.19
786.17	2048.99
786.35	1785.62
786.54	1974.04
786.72	2181.09
786.91	2201.57
787.09	1874.92
787.28	1761.46
787.46	2050.02
787.65	2153.64
787.83	1726.44
788.01	1867.95
788.20	1838.05
788.38	1977.31
788.57	1840.51
788.75	1832.11
788.94	2337.96
789.12	2148.52
789.31	1916.90
789.49	1981.82
789.67	1952.94
789.86	2086.68
790.04	1819.01
790.23	1741.80
790.41	2388.14
790.60	1984.28
790.78	1832.52
790.96	1874.30
791.15	2140.95
791.33	2002.30
791.52	1892.94
791.70	1758.59
791.89	2038.34
792.07	2166.96
792.25	1874.71
792.44	1761.05
792.62	2228.39
792.81	1932.46
792.99	1862.01
793.17	1824.13
793.36	1899.70
793.54	2295.98
793.73	2024.62
793.91	1950.28
794.10	2343.90
794.28	2450.19
794.46	2126.82
794.65	2192.56
794.83	2067.42
795.01	2189.89
795.20	2169.62
795.38	2075.82
795.57	2202.80
795.75	2213.65
795.93	1975.06
796.12	1989.19
796.30	2181.50
796.49	2160.20
796.67	1822.08
796.85	1991.85
797.04	2044.28
797.22	2156.72
797.40	1795.86
797.59	1911.98
797.77	2048.99
797.96	1875.32
798.14	1777.23
798.32	1821.05
798.51	2128.25
798.69	2333.87
798.87	1878.60
799.06	1864.06
799.24	1819.01
799.42	2159.38
799.61	1943.11
799.79	1918.54
799.98	2432.99
800.16	2089.54
800.34	2105.52
800.53	2259.93
800.71	2352.50
800.89	2818.82
801.08	2503.44
801.26	2498.32
801.44	2369.50
801.63	2274.06
801.81	2210.17
801.99	2107.16
802.18	2199.72
802.36	2243.14
802.54	2129.68
802.73	1946.80
802.91	2162.65
803.09	2148.52
803.28	2058.00
803.46	2028.72
803.64	2340.21
803.83	1909.32
804.01	1836.21
804.19	1772.11
804.38	2151.39
804.56	2087.70
804.74	1891.30
804.92	1923.04
805.11	1845.22
805.29	2199.72
805.47	1850.34
805.66	1744.66
805.84	1837.64
806.02	2162.25
806.21	1806.10
806.39	2041.42
806.57	2182.93
806.76	2152.82
806.94	1941.47
807.12	1836.82
807.30	1899.90
807.49	2059.23
807.67	1907.48
807.85	1974.86
808.04	2168.59
808.22	2424.59
808.40	1784.80
808.58	1746.92
808.77	2129.89
808.95	2290.24
809.13	1861.19
809.31	2196.24
809.50	2391.41
809.68	2528.22
809.86	2225.53
810.05	2347.79
810.23	2887.02
810.41	2922.66
810.59	3908.75
810.78	4476.45
810.96	5108.25
811.14	5470.94
811.32	4858.81
811.51	4262.03
811.69	3999.48
811.87	4075.05
812.05	3524.35
812.24	3399.22
812.42	3557.32
812.60	3512.06
812.78	2822.31
812.97	2670.96
813.15	3029.15
813.33	2698.40
813.51	2526.17
813.70	2181.09
813.88	2185.59
814.06	2252.77
814.24	2073.57
814.42	1857.30
814.61	2156.72
814.79	2379.74
814.97	1752.45
815.15	1833.14
815.34	2065.58
815.52	2201.77
815.70	1808.56
815.88	1889.46
816.06	1859.56
816.25	1935.54
816.43	1822.49
816.61	1965.23
816.79	2280.62
816.98	1749.78
817.16	1810.20
817.34	1787.67
817.52	2065.38
817.70	2275.70
817.89	1889.25
818.07	1751.01
818.25	2003.73
818.43	2062.71
818.61	1884.13
818.80	1851.98
818.98	2334.48
819.16	2059.03
819.34	1782.35
819.52	2115.76
819.70	1917.51
819.89	2017.25
820.07	1761.87
820.25	1752.45
820.43	2113.71
820.61	2155.28
820.80	1885.77
820.98	1773.75
821.16	1773.54
821.34	1845.83
821.52	1850.34
821.70	1981.61
821.89	2047.97
822.07	1996.56
822.25	1909.12
822.43	1816.75
822.61	2289.01
822.79	2092.61
822.98	1887.00
823.16	1699.81
823.34	2071.93
823.52	2243.75
823.70	1943.11
823.88	1736.06
824.06	2145.66
824.25	2009.06
824.43	1959.70
824.61	1797.71
824.79	2049.81
824.97	2065.58
825.15	1959.29
825.33	2106.95
825.52	2292.91
825.70	2133.98
825.88	1990.01
826.06	2076.44
826.24	2192.76
826.42	2265.87
826.60	2014.18
826.78	2081.35
826.97	2093.02
827.15	2314.20
827.33	1866.11
827.51	1944.34
827.69	1954.79
827.87	2103.06
828.05	1981.61
828.23	1842.76
828.41	2193.17
828.60	2173.71
828.78	1754.29
828.96	1975.47
829.14	1927.34
829.32	1999.64
829.50	1867.95
829.68	1881.26
829.86	1966.25
830.04	2150.78
830.22	1979.57
830.41	1789.92
830.59	1996.97
830.77	2154.05
830.95	1850.54
831.13	1838.87
831.31	1905.84
831.49	2186.62
831.67	2017.86
831.85	1995.75
832.03	1983.05
832.21	2163.27
832.39	1766.37
832.57	1812.25
832.76	2186.62
832.94	1998.20
833.12	1717.63
833.30	1870.82
833.48	2243.55
833.66	2091.59
833.84	1854.03
834.02	1905.84
834.20	2168.39
834.38	2162.45
834.56	1713.54
834.74	1800.37
834.92	1847.68
835.10	2341.44
835.28	1898.67
835.46	1933.69
835.64	2010.08
835.82	1941.27
836.01	2145.86
836.19	2080.12
836.37	1964.41
836.55	1876.96
836.73	1810.40
836.91	1770.26
837.09	2136.03
837.27	2272.43
837.45	1733.20
837.63	1752.04
837.81	1835.18
837.99	2007.62
838.17	1916.90
838.35	1803.44
838.53	2365.20
838.71	2116.37
838.89	1802.21
839.07	1819.01
839.25	2047.35
839.43	2174.74
839.61	1874.10
839.79	2147.30
839.97	2349.43
840.15	2407.39
840.33	2218.15
840.51	2429.51
840.69	2342.26
840.87	2310.11
841.05	2207.51
841.23	2131.73
841.41	2366.22
841.59	2701.27
841.77	2537.64
841.95	2668.50
842.13	3080.14
842.31	2809.40
842.49	2448.76
842.67	2481.73
842.85	2639.01
843.03	2328.13
843.21	2222.25
843.39	2378.72
843.57	2378.31
843.75	2366.22
843.93	2071.11
844.11	2145.66
844.29	2235.77
844.47	2153.64
844.65	2155.90
844.83	1989.60
845.01	2059.23
845.19	2237.41
845.36	1984.07
845.54	2022.98
845.72	2098.14
845.90	2169.41
846.08	1826.17
846.26	1933.28
846.44	2126.20
846.62	2130.09
846.80	1984.28
846.98	1829.45
847.16	2011.31
847.34	2064.97
847.52	1829.86
847.70	1752.24
847.88	2006.19
848.06	2302.12
848.24	2000.66
848.41	1756.13
848.59	2222.46
848.77	2077.25
848.95	1836.82
849.13	1843.17
849.31	2169.00
849.49	2097.94
849.67	1806.92
849.85	1795.45
850.03	2122.92
850.21	2066.61
850.39	1798.73
850.57	1990.83
850.74	2273.86
850.92	2247.44
851.10	2001.48
851.28	1930.42
851.46	2199.11
851.64	2522.69
851.82	1987.35
852.00	2089.75
852.18	2437.29
852.36	2286.35
852.53	1990.63
852.71	2082.37
852.89	2178.01
853.07	2186.82
853.25	1886.79
853.43	1802.21
853.61	2116.58
853.79	2128.66
853.97	1832.52
854.14	1874.10
854.32	2261.16
854.50	2161.43
854.68	1889.66
854.86	1840.71
855.04	1916.90
855.22	2186.41
855.40	1739.95
855.57	1820.44
855.75	2168.18
855.93	2113.30
856.11	1725.00
856.29	1836.62
856.47	1926.52
856.65	2059.03
856.82	1785.42
857.00	1755.52
857.18	2017.66
857.36	1962.77
857.54	1939.63
857.72	2025.24
857.89	2160.81
858.07	2041.62
858.25	2087.70
858.43	1778.66
858.61	2012.33
858.79	2004.35
858.97	1829.45
859.14	1949.67
859.32	2022.16
859.50	1981.20
859.68	1932.67
859.86	1806.10
860.03	2042.03
860.21	2095.07
860.39	1815.52
860.57	1969.74
860.75	2110.23
860.93	2328.13
861.10	2024.83
861.28	1837.85
861.46	2084.01
861.64	2130.71
861.82	1843.79
861.99	1984.48
862.17	2183.54
862.35	2196.24
862.53	1871.84
862.71	1881.06
862.88	2088.31
863.06	2179.45
863.24	1863.86
863.42	1803.24
863.60	2002.30
863.77	2132.55
863.95	1734.83
864.13	1857.51
864.31	1975.47
864.49	2169.21
864.66	1809.99
864.84	1836.41
865.02	2094.87
865.20	2507.33
865.37	1968.51
865.55	1801.19
865.73	1833.55
865.91	2156.31
866.09	1991.04
866.26	1907.48
866.44	2152.21
866.62	1979.57
866.80	1767.81
866.97	1862.01
867.15	1999.02
867.33	2075.00
867.51	1930.21
867.68	1901.95
867.86	1943.73
868.04	1910.55
868.22	1682.20
868.39	1832.73
868.57	2073.57
868.75	2286.35
868.93	1756.54
869.10	1819.01
869.28	2369.91
869.46	2261.78
869.64	1882.49
869.81	1851.57
869.99	2067.22
870.17	2080.12
870.35	1797.50
870.52	1872.87
870.70	2206.48
870.88	1933.49
871.05	1799.14
871.23	1674.21
871.41	2031.99
871.59	2058.62
871.76	1863.45
871.94	1773.54
872.12	2044.49
872.29	1817.78
872.47	1854.85
872.65	1807.74
872.83	2061.08
873.00	2263.42
873.18	1863.24
873.36	1807.13
873.53	2149.55
873.71	1794.84
873.89	1755.31
874.06	1888.23
874.24	2104.90
874.42	2281.23
874.60	1997.38
874.77	1943.11
874.95	1947.62
875.13	2181.50
875.30	1855.46
875.48	1835.59
875.66	2297.41
875.83	1912.60
876.01	1823.31
876.19	1940.45
876.36	1839.28
876.54	2052.06
876.72	1788.08
876.89	1939.84
877.07	2154.26
877.25	1753.68
877.42	1882.49
877.60	1849.11
877.78	2352.09
877.95	1954.17
878.13	1781.53
878.31	1987.35
878.48	2163.47
878.66	2150.78
878.84	1829.66
879.01	1873.28
879.19	2097.32
879.37	2158.35
879.54	1864.88
879.72	1737.70
879.90	1743.03
880.07	2183.54
880.25	1609.70
880.42	2013.97
880.60	2092.41
880.78	2148.73
880.95	1839.08
881.13	1918.95
881.31	2044.49
881.48	1933.08
881.66	1820.64
881.83	1972.81
882.01	1927.34
882.19	1824.94
882.36	1889.87
882.54	1842.56
882.72	2141.56
882.89	2054.32
883.07	1824.33
883.24	1829.25
883.42	2142.18
883.60	2036.30
883.77	1758.18
883.95	1878.60
884.12	2192.96
884.30	2084.01
884.48	2001.48
884.65	1884.34
884.83	2047.15
885.00	2096.51
885.18	1733.40
885.36	1838.67
885.53	2123.54
885.71	2239.04
885.88	1775.18
886.06	1832.11
886.23	2149.55
886.41	1972.60
886.59	1828.63
886.76	1778.87
886.94	2154.05
887.11	2516.75
887.29	1889.05
887.47	1761.25
887.64	2229.01
887.82	2268.13
887.99	1696.95
888.17	1873.28
888.34	1970.76
888.52	1866.31
888.69	1836.21
888.87	1765.14
889.05	1982.84
889.22	1970.97
889.40	1824.13
889.57	2042.23
889.75	2321.37
889.92	1983.05
890.10	1754.90
890.27	1925.71
890.45	1939.63
890.62	1761.46
890.80	1789.52
890.98	1710.26
891.15	2285.74
891.33	2186.41
891.50	1813.27
891.68	1714.35
891.85	2159.58
892.03	2162.25
892.20	1817.57
892.38	1740.16
892.55	2155.69
892.73	2171.05
892.90	1691.21
893.08	1814.91
893.25	1986.12
893.43	1953.35
893.60	1945.16
893.78	1651.69
893.95	2105.52
894.13	2016.23
894.30	1817.98
894.48	1880.85
894.65	2161.84
894.83	2036.09
895.00	1671.76
895.18	1668.28
895.35	2166.55
895.53	2157.94
895.70	1709.64
895.88	1932.05
896.05	2119.03
896.23	1801.39
896.40	1817.16
896.58	1893.55
896.75	2133.16
896.93	2261.78
897.10	1852.59
897.28	1731.76
897.45	2069.27
897.63	2135.21
897.80	1935.33
897.98	1806.31
898.15	2067.01
898.33	1936.56
898.50	1890.68
898.67	1851.57
898.85	2035.07
899.02	2121.90
899.20	2068.45
899.37	1848.70
899.55	2063.94
899.72	2252.15
899.90	1812.66
900.07	1778.46
900.25	2118.42
900.42	2230.24
900.59	1802.42
900.77	1947.62
900.94	2108.38
901.12	2083.40
901.29	1829.86
901.47	1973.83
901.64	2112.27
901.82	2029.33
901.99	1646.36
902.16	1771.08
902.34	2210.37
902.51	2091.39
902.69	1814.50
902.86	1855.87
903.03	2635.33
903.21	2043.46
903.38	1831.29
903.56	1782.96
903.73	2218.56
903.91	1982.23
904.08	1786.44
904.25	1681.79
904.43	1922.22
904.60	2159.17
904.78	1861.81
904.95	1773.54
905.12	1959.09
905.30	2318.71
905.47	1919.15
905.65	2004.14
905.82	2004.96
905.99	2105.72
906.17	1835.59
906.34	1774.77
906.52	1888.64
906.69	2132.75
906.86	1903.59
907.04	1879.22
907.21	2170.44
907.38	2179.24
907.56	1771.90
907.73	1770.88
907.91	2268.53
908.08	2209.96
908.25	1839.69
908.43	1736.68
908.60	2122.72
908.77	2082.58
908.95	1843.58
909.12	1765.14
909.30	2147.91
909.47	1816.14
909.64	1843.17
909.82	2043.87
909.99	2002.50
910.16	2047.15
910.34	1796.48
910.51	1806.31
910.68	2060.87
910.86	2029.54
911.03	1726.85
911.20	1803.44
911.38	2208.32
911.55	2484.80
911.72	2335.91
911.90	2189.89
912.07	2541.53
912.24	2751.86
912.42	2212.83
912.59	2064.56
912.76	2397.15
912.94	2209.14
913.11	1954.58
913.28	1831.91
913.46	1888.02
913.63	2108.38
913.80	2148.52
913.98	1790.95
914.15	2208.12
914.32	2216.93
914.49	1935.94
914.67	1762.69
914.84	2054.32
915.01	2114.53
915.19	1908.50
915.36	1802.42
915.53	2190.51
915.71	2122.72
915.88	1907.27
916.05	1821.87
916.22	2204.23
916.40	2088.72
916.57	1741.80
916.74	2002.50
916.92	2314.41
917.09	1929.60
917.26	1775.59
917.43	1742.21
917.61	1942.29
917.78	1791.56
917.95	1763.30
918.13	1751.83
918.30	2409.44
918.47	2036.30
918.64	1786.65
918.82	1726.23
918.99	2007.62
919.16	2301.51
919.33	1832.32
919.51	1844.20
919.68	1982.23
919.85	2227.78
920.02	1705.55
920.20	1846.45
920.37	2303.76
920.54	2200.54
920.71	1790.13
920.89	1810.40
921.06	2326.70
921.23	1875.32
921.40	1731.56
921.58	1889.05
921.75	2543.58
921.92	1925.50
922.09	1911.78
922.27	1848.50
922.44	2011.51
922.61	2098.76
922.78	1814.50
922.96	1824.74
923.13	2001.68
923.30	2169.21
923.47	1728.28
923.64	1783.58
923.82	2086.27
923.99	2061.89
924.16	1903.79
924.33	1741.39
924.50	2027.28
924.68	2310.93
924.85	1767.81
925.02	1802.21
925.19	2154.67
925.36	2071.52
925.54	1845.63
925.71	1890.07
925.88	2591.09
926.05	2020.94
926.22	1766.58
926.40	1922.43
926.57	2065.38
926.74	2148.93
926.91	1814.30
927.08	1969.94
927.26	2215.70
927.43	2063.12
927.60	1800.98
927.77	1833.55
927.94	2311.75
928.11	2235.36
928.29	1694.90
928.46	1870.00
928.63	1889.05
928.80	1994.52
928.97	1902.97
929.14	1817.78
929.32	2412.51
929.49	2055.14
929.66	1795.45
929.83	1748.56
930.00	1949.67
930.17	2099.37
930.35	1751.63
930.52	1797.71
930.69	2308.88
930.86	1861.19
931.03	1882.49
931.20	1648.61
931.37	2216.93
931.55	2004.35
931.72	1893.35
931.89	1734.02
932.06	1864.68
932.23	2330.59
932.40	1919.36
932.57	1963.80
932.74	2294.34
932.92	2204.23
933.09	1998.00
933.26	1589.02
933.43	1964.21
933.60	2088.72
933.77	1853.41
933.94	1922.22
934.11	2035.68
934.29	2072.75
934.46	1773.13
934.63	1885.56
934.80	1820.23
934.97	2002.09
935.14	1836.21
935.31	1685.07
935.48	1905.43
935.65	2087.70
935.82	1874.10
936.00	1717.22
936.17	2286.15
936.34	1997.59
936.51	1918.95
936.68	1738.32
936.85	2102.24
937.02	2044.90
937.19	1904.61
937.36	1858.12
937.53	2095.89
937.70	2163.27
937.87	1797.50
938.05	1931.64
938.22	2052.27
938.39	1840.30
938.56	1840.71
938.73	1726.85
938.90	1991.65
939.07	1898.88
939.24	1898.47
939.41	1675.44
939.58	2091.80
939.75	2096.71
939.92	1814.91
940.09	2067.83
940.26	1983.25
940.43	2170.85
940.60	1855.46
940.77	1833.96
940.95	2092.00
941.12	2177.20
941.29	1857.51
941.46	1839.08
941.63	2208.32
941.80	2267.51
941.97	1711.28
942.14	1672.17
942.31	2128.86
942.48	2027.90
942.65	1932.26
942.82	1891.71
942.99	2124.56
943.16	2039.98
943.33	1725.62
943.50	1798.53
943.67	2147.70
943.84	2231.26
944.01	1836.82
944.18	1791.77
944.35	2270.99
944.52	1881.47
944.69	1891.09
944.86	1750.81
945.03	2139.72
945.20	2456.74
945.37	1664.59
945.54	1846.86
945.71	2292.91
945.88	2293.32
946.05	1784.80
946.22	1764.33
946.39	2294.34
946.56	2008.03
946.73	1690.19
946.90	1750.81
947.07	1945.98
947.24	2005.58
947.41	1675.24
947.58	1927.14
947.75	2150.78
947.92	2086.88
948.09	1628.34
948.26	1723.98
948.43	2100.40
948.60	2371.75
948.77	1776.61
948.94	1837.85
949.11	2191.74
949.27	2110.64
949.44	1802.01
949.61	1725.00
949.78	2104.90
949.95	2249.69
950.12	1732.79
950.29	1711.49
950.46	1955.40
950.63	2217.13
950.80	1801.39
950.97	1838.67
951.14	2205.46
951.31	1994.52
951.48	1763.71
951.65	1722.55
951.82	2338.99
951.99	2083.40
952.15	1732.99
952.32	1812.66
952.49	1931.85
952.66	1985.51
952.83	1799.55
953.00	1779.07
953.17	2021.75
953.34	2181.09
953.51	1868.16
953.68	1849.32
953.85	2208.94
954.02	2232.08
954.18	1872.05
954.35	1801.80
954.52	1903.18
954.69	2063.74
954.86	1687.32
955.03	1884.34
955.20	2159.38
955.37	1991.65
955.54	1809.38
955.71	1780.71
955.87	2099.17
956.04	2343.49
956.21	1795.86
956.38	1754.70
956.55	2041.82
956.72	2477.22
956.89	1874.30
957.06	1766.17
957.23	1966.05
957.39	2241.50
957.56	1851.98
957.73	1726.03
957.90	1717.22
958.07	2354.55
958.24	1848.09
958.41	1825.35
958.57	2163.27
958.74	2019.09
958.91	1728.90
959.08	1774.36
959.25	2180.68
959.42	1982.23
959.59	1840.51
959.75	1836.00
959.92	2257.07
960.09	2198.29
960.26	1781.53
960.43	1886.38
960.60	2087.29
960.76	2013.15
960.93	1704.11
961.10	1886.79
961.27	2203.61
961.44	1973.83
961.61	1712.72
961.77	1704.52
961.94	2081.35
962.11	2196.24
962.28	1760.23
962.45	1710.26
962.62	2022.78
962.78	2162.04
962.95	1712.10
963.12	1790.95
963.29	2205.25
963.46	2527.19
963.62	1889.66
963.79	1787.88
963.96	2472.72
964.13	2002.50
964.30	1905.84
964.46	1787.67
964.63	1875.32
964.80	2447.94
964.97	1640.42
965.14	1903.18
965.30	2076.23
965.47	2143.40
965.64	1939.43
965.81	1888.64
965.98	2262.60
966.14	2095.48
966.31	1788.49
966.48	1748.35
966.65	2207.92
966.81	2106.75
966.98	1814.30
967.15	1785.83
967.32	2023.60
967.49	1906.66
967.65	1659.47
967.82	1651.69
967.99	1977.72
968.16	1796.27
968.32	1940.86
968.49	1772.72
968.66	2000.05
968.83	2274.47
968.99	1897.85
969.16	1736.88
969.33	2264.03
969.50	2137.67
969.66	1913.42
969.83	2084.63
970.00	2155.69
970.17	2144.63
970.33	1836.41
970.50	1731.15
970.67	2307.04
970.84	2290.86
971.00	1756.34
971.17	1709.44
971.34	2166.55
971.50	2054.11
971.67	1879.22
971.84	1807.33
972.01	1856.69
972.17	1661.72
972.34	1705.34
972.51	1951.51
972.67	2235.36
972.84	2083.19
973.01	1741.80
973.18	1773.95
973.34	2167.37
973.51	1877.17
973.68	1836.62
973.84	1830.06
974.01	1964.82
974.18	2341.85
974.34	1879.22
974.51	1906.25
974.68	1928.98
974.85	2397.76
975.01	1946.59
975.18	1785.42
975.35	2057.39
975.51	1914.65
975.68	1701.25
975.85	1944.96
976.01	1936.35
976.18	2300.28
976.35	1838.46
976.51	1834.57
976.68	2347.79
976.85	2247.65
977.01	1864.68
977.18	1879.63
977.35	2125.18
977.51	1838.87
977.68	1630.59
977.85	1749.78
978.01	2191.33
978.18	2147.09
978.35	1865.49
978.51	1868.77
978.68	2205.87
978.85	2302.94
979.01	1823.72
979.18	1850.75
979.34	1991.85
979.51	2039.16
979.68	1773.54
979.84	1863.45
980.01	2484.19
980.18	2051.86
980.34	1784.60
980.51	1866.31
980.67	2181.29
980.84	2154.46
981.01	1795.86
981.17	1897.85
981.34	1778.87
981.51	2146.27
981.67	1742.21
981.84	1910.96
982.00	2151.60
982.17	2019.91
982.34	1651.69
982.50	1551.54
982.67	2318.30
982.83	1945.57
983.00	1704.11
983.17	1587.38
983.33	2232.70
983.50	1809.38
983.66	1698.18
983.83	1597.21
984.00	1971.99
984.16	2022.37
984.33	1598.03
984.49	1598.64
984.66	1915.06
984.83	2164.09
984.99	1653.12
985.16	1586.36
985.32	2152.01
985.49	2194.60
985.65	1724.39
985.82	1617.28
985.99	2298.03
986.15	2074.59
986.32	1703.50
986.48	1684.04
986.65	2000.87
986.81	2161.22
986.98	1585.33
987.14	1691.21
987.31	2053.91
987.48	1816.75
987.64	1536.59
987.81	1555.64
987.97	2421.11
988.14	1905.02
988.30	1631.62
988.47	1501.37
988.63	2081.76
988.80	1869.39
988.96	1691.42
989.13	1703.91
989.30	1997.79
989.46	2172.49
989.63	1557.07
989.79	1576.53
989.96	2039.57
990.12	2299.25
990.29	1644.72
990.45	1671.35
990.62	2034.86
990.78	2218.97
990.95	1726.44
991.11	1647.80
991.28	1936.35
991.44	2094.46
991.61	1524.51
991.77	1698.59
991.94	2102.44
992.10	2212.63
992.27	1693.26
992.43	1673.40
992.60	2126.82
992.76	1988.58
992.93	1831.70
993.09	1589.02
993.26	2196.04
993.42	2347.38
993.59	1641.04
993.75	1549.29
993.92	1908.30
994.08	1917.31
994.25	1691.01
994.41	1596.19
994.58	2153.03
994.74	2282.26
994.91	1594.75
995.07	1736.06
995.24	2022.16
995.40	2029.95
995.56	1768.63
995.73	1721.73
995.89	2356.19
996.06	2004.76
996.22	1598.64
996.39	1550.11
996.55	2026.87
996.72	2094.46
996.88	1578.37
997.05	1618.71
997.21	2365.40
997.37	2134.60
997.54	1743.64
997.70	1648.61
997.87	2091.18
998.03	2058.41
998.20	1525.74
998.36	1551.75
998.52	2161.22
998.69	2204.23
998.85	1587.38
999.02	1666.02
999.18	2229.62
999.35	2167.16
999.51	1703.09
999.67	1641.24
999.84	1863.86
1000.00	2145.25
1000.17	1708.42
1000.33	1607.86
1000.49	1972.81
1000.66	2029.54
1000.82	1609.91
1000.99	1698.18
1001.15	2232.70
1001.31	1996.56
1001.48	1625.88
1001.64	1734.83
1001.81	2026.47
1001.97	2389.57
1002.13	1671.14
1002.30	1671.96
1002.46	2247.44
1002.63	1987.76
1002.79	1751.63
1002.95	1594.34
1003.12	2194.19
1003.28	2084.01
1003.45	1610.52
1003.61	1586.77
1003.77	2059.64
1003.94	1813.27
1004.10	1652.30
1004.26	1704.93
1004.43	2129.89
1004.59	2327.11
1004.75	1636.33
1004.92	1603.35
1005.08	1963.80
1005.25	2090.77
1005.41	1623.42
1005.57	1701.86
1005.74	2215.90
1005.90	1949.87
1006.06	1742.62
1006.23	1640.22
1006.39	2155.28
1006.55	2501.39
1006.72	1762.89
1006.88	1572.23
1007.04	1880.44
1007.21	2008.85
1007.37	1687.94
1007.53	1641.86
1007.70	2289.42
1007.86	2167.98
1008.02	1713.33
1008.19	1608.88
1008.35	2070.91
1008.51	1882.08
1008.68	1642.06
1008.84	1577.96
1009.00	1907.48
1009.17	2215.08
1009.33	1826.99
1009.49	1709.23
1009.65	1912.80
1009.82	2120.06
1009.98	1711.69
1010.14	1555.43
1010.31	2172.69
1010.47	2100.19
1010.63	1743.44
1010.80	1691.42
1010.96	2122.72
1011.12	2014.59
1011.28	1639.19
1011.45	1616.67
1011.61	2498.32
1011.77	1896.83
1011.94	1605.61
1012.10	1604.99
1012.26	1858.33
1012.42	1971.17
1012.59	1686.50
1012.75	1678.72
1012.91	2015.61
1013.07	2184.57
1013.24	1584.92
1013.40	1636.12
1013.56	2056.16
1013.72	2006.19
1013.89	1698.99
1014.05	1738.73
1014.21	2362.13
1014.37	2465.55
1014.54	1672.99
1014.70	1590.86
1014.86	1997.79
1015.02	1888.02
1015.19	1654.76
1015.35	1602.95
1015.51	2010.90
1015.67	1974.45
1015.84	1645.75
1016.00	1669.30
1016.16	2225.12
1016.32	2165.11
1016.49	1644.11
1016.65	1588.20
1016.81	2011.72
1016.97	2116.99
1017.14	1753.27
1017.30	1638.99
1017.46	1957.04
1017.62	2086.68
1017.78	1723.16
1017.95	1621.17
1018.11	2155.28
1018.27	2440.36
1018.43	1786.24
1018.59	1714.56
1018.76	2186.00
1018.92	2494.63
1019.08	1607.25
1019.24	1656.60
1019.40	2251.54
1019.57	2079.71
1019.73	1739.54
1019.89	1638.38
1020.05	2103.06
1020.21	2393.67
1020.38	1613.59
1020.54	1773.13
1020.70	2132.96
1020.86	2163.88
1021.02	1645.75
1021.18	1644.52
1021.35	1959.70
1021.51	2132.55
1021.67	1810.81
1021.83	1694.69
1021.99	2019.50
1022.15	2103.26
1022.32	1712.10
1022.48	1701.04
1022.64	2275.50
1022.80	2316.25
1022.96	1698.38
1023.12	1582.67
1023.29	2218.77
1023.45	2116.17
1023.61	1631.00
1023.77	1872.25
1023.93	2066.81
1024.09	1915.06
1024.25	1641.04
1024.42	1591.27
1024.58	1976.90
1024.74	2094.05
1024.90	1658.45
1025.06	1711.49
1025.22	1954.17
1025.38	2342.26
1025.54	1600.49
1025.71	1751.42
1025.87	2150.78
1026.03	2139.10
1026.19	1601.31
1026.35	1816.75
1026.51	2144.84
1026.67	2029.13
1026.83	1712.51
1026.99	1799.35
1027.16	2116.37
1027.32	2018.07
1027.48	1672.99
1027.64	1625.27
1027.80	2141.15
1027.96	2068.04
1028.12	1656.40
1028.28	1653.12
1028.44	2092.82
1028.60	2293.32
1028.77	1773.34
1028.93	1697.15
1029.09	1969.12
1029.25	1883.52
1029.41	1708.01
1029.57	1755.93
1029.73	2101.42
1029.89	2274.27
1030.05	1768.22
1030.21	1738.32
1030.37	2420.70
1030.53	2149.75
1030.69	1688.14
1030.85	1598.44
1031.02	1922.84
1031.18	2046.94
1031.34	1635.30
1031.50	1743.23
1031.66	1914.65
1031.82	2314.61
1031.98	1705.34
1032.14	1592.30
1032.30	1906.66
1032.46	2208.32
1032.62	1777.23
1032.78	1578.16
1032.94	1940.04
1033.10	1977.31
1033.26	1695.10
1033.42	1789.11
1033.58	2418.45
1033.74	1948.44
1033.90	1649.43
1034.06	1852.39
1034.22	2409.03
1034.38	2197.68
1034.54	1708.21
1034.70	1708.21
1034.86	2360.90
>>>>>End Processed Spectral Data<<<<<
