SpectraSuite Data File
++++++++++++++++++++++++++++++++++++
Date: Thu Mar 30 16:07:36 PDT 2017
User: UCSD _CER
Dark Spectrum Present: No
Reference Spectrum Present: No
Number of Sampled Component Spectra: 1
Spectrometers: USB4C00073
Integration Time (usec): 250000 (USB4C00073)
Spectra Averaged: 10 (USB4C00073)
Boxcar Smoothing: 0 (USB4C00073)
Correct for Electrical Dark: No (USB4C00073)
Strobe/Lamp Enabled: No (USB4C00073)
Correct for Detector Non-linearity: No (USB4C00073)
Correct for Stray Light: No (USB4C00073)
Number of Pixels in Processed Spectrum: 3648
>>>>>Begin Processed Spectral Data<<<<<
345.37	1271.79
345.58	1271.79
345.80	1271.79
346.01	1284.90
346.22	1288.58
346.43	1967.07
346.65	1779.48
346.86	2136.24
347.07	2083.81
347.28	1803.65
347.50	1791.97
347.71	1930.01
347.92	1723.37
348.13	1785.42
348.35	1715.99
348.56	1916.08
348.77	1788.90
348.98	1791.77
349.20	1672.37
349.41	1892.73
349.62	1999.23
349.83	1843.17
350.05	1729.30
350.26	1960.32
350.47	2062.92
350.68	1769.04
350.90	1712.51
351.11	2104.90
351.32	2041.42
351.53	1818.80
351.75	1715.99
351.96	1948.44
352.17	1883.11
352.38	1840.10
352.60	1870.82
352.81	1898.06
353.02	2119.24
353.23	1753.47
353.44	1823.72
353.66	1840.51
353.87	1871.02
354.08	1880.65
354.29	1787.47
354.51	1845.63
354.72	1929.60
354.93	1798.32
355.14	1739.34
355.35	1767.19
355.57	2051.86
355.78	1847.27
355.99	1890.07
356.20	1959.91
356.42	1922.22
356.63	1920.18
356.84	1825.15
357.05	2040.39
357.26	2185.18
357.48	1900.31
357.69	1840.71
357.90	1966.25
358.11	1848.09
358.32	1798.12
358.54	1848.91
358.75	1849.11
358.96	2016.43
359.17	1800.37
359.38	1803.03
359.60	1993.49
359.81	1871.43
360.02	1799.35
360.23	1779.07
360.44	1840.10
360.66	2033.43
360.87	1755.11
361.08	1757.98
361.29	1964.41
361.50	1899.70
361.72	1788.29
361.93	1849.52
362.14	1904.20
362.35	1760.64
362.56	1887.82
362.77	1731.76
362.99	2010.49
363.20	1926.52
363.41	1882.90
363.62	1713.95
363.83	1962.98
364.05	2031.99
364.26	1719.88
364.47	1788.49
364.68	2064.15
364.89	1821.67
365.10	1731.76
365.32	1814.09
365.53	1802.42
365.74	1867.13
365.95	1821.46
366.16	1696.33
366.37	1875.32
366.59	1882.08
366.80	1806.72
367.01	1675.44
367.22	2136.85
367.43	2219.38
367.64	1803.03
367.86	1787.26
368.07	1973.63
368.28	2051.45
368.49	1746.30
368.70	1832.32
368.91	1863.65
369.12	1889.46
369.34	1718.25
369.55	1711.90
369.76	1913.01
369.97	1843.38
370.18	1742.41
370.39	1731.56
370.60	1738.73
370.82	1786.65
371.03	1808.56
371.24	1736.47
371.45	1996.36
371.66	1961.34
371.87	1800.16
372.08	1769.65
372.30	1780.91
372.51	2014.38
372.72	1868.16
372.93	1754.29
373.14	2110.23
373.35	1827.61
373.56	1744.05
373.78	1811.63
373.99	2008.65
374.20	2265.05
374.41	1788.70
374.62	1813.27
374.83	2099.37
375.04	1859.76
375.25	1799.96
375.47	1771.29
375.68	1848.09
375.89	2021.14
376.10	1801.60
376.31	1909.94
376.52	1976.29
376.73	1955.81
376.94	1825.76
377.15	1773.95
377.37	1909.32
377.58	1872.87
377.79	1695.31
378.00	1759.41
378.21	1957.86
378.42	1994.52
378.63	1827.20
378.84	1887.00
379.05	2036.91
379.27	1941.27
379.48	1934.31
379.69	1751.83
379.90	2054.73
380.11	1667.66
380.32	1796.89
380.53	1924.89
380.74	2083.40
380.95	1927.75
381.16	1813.89
381.37	1795.66
381.59	2070.91
381.80	1997.38
382.01	1743.03
382.22	1671.35
382.43	1980.18
382.64	1929.19
382.85	1748.76
383.06	1890.48
383.27	2026.67
383.48	1906.25
383.69	1864.68
383.91	1757.57
384.12	1993.49
384.33	1953.56
384.54	1807.54
384.75	1691.83
384.96	2252.77
385.17	2015.41
385.38	1768.01
385.59	1777.02
385.80	2021.55
386.01	2111.66
386.22	1852.39
386.43	1805.90
386.64	2176.99
386.86	1891.09
387.07	1917.51
387.28	1706.78
387.49	1858.53
387.70	2084.01
387.91	1862.01
388.12	1751.22
388.33	1963.18
388.54	1862.42
388.75	1777.02
388.96	1869.18
389.17	1833.55
389.38	1885.97
389.59	1890.68
389.80	1824.54
390.01	1892.12
390.22	1852.59
390.43	1896.83
390.64	1688.14
390.86	1936.56
391.07	2053.91
391.28	1790.54
391.49	1827.40
391.70	1771.49
391.91	1798.94
392.12	1808.36
392.33	1789.31
392.54	1906.66
392.75	1862.22
392.96	1872.66
393.17	1739.14
393.38	2179.24
393.59	2074.59
393.80	1769.04
394.01	1887.41
394.22	1999.43
394.43	2311.34
394.64	1886.18
394.85	2077.05
395.06	2005.58
395.27	2024.42
395.48	1863.65
395.69	1757.77
395.90	1866.93
396.11	1895.80
396.32	1776.41
396.53	1881.26
396.74	1875.12
396.95	2017.25
397.16	1784.80
397.37	1701.45
397.58	2005.99
397.79	1904.20
398.00	1846.24
398.21	1801.19
398.42	1942.29
398.63	2154.46
398.84	1785.42
399.05	1790.33
399.26	2076.85
399.47	1975.06
399.68	1642.06
399.89	1730.33
400.10	1764.53
400.31	1837.23
400.52	1819.21
400.73	1781.94
400.94	1720.50
401.15	1924.27
401.36	1790.95
401.57	1829.45
401.78	2042.03
401.99	2024.62
402.20	1720.91
402.41	1934.31
402.62	2105.72
402.83	1900.52
403.04	1780.30
403.25	1960.93
403.46	1993.90
403.67	2225.73
403.88	2010.08
404.09	2002.09
404.30	2085.65
404.51	1987.96
404.72	1889.66
404.93	1991.44
405.14	1861.60
405.35	1921.20
405.56	1812.25
405.77	1817.98
405.98	1937.58
406.19	1910.14
406.40	1730.94
406.61	1791.97
406.82	1808.56
407.03	2208.73
407.24	1700.22
407.45	1845.22
407.66	1940.66
407.87	2016.43
408.08	1869.39
408.29	1877.17
408.49	1978.54
408.70	1877.37
408.91	1822.69
409.12	1887.61
409.33	1781.73
409.54	2070.50
409.75	1789.11
409.96	1800.78
410.17	2004.96
410.38	1867.95
410.59	1784.40
410.80	1881.88
411.01	1913.62
411.22	1884.34
411.43	1845.63
411.64	1760.64
411.85	1792.59
412.06	1789.11
412.27	1631.82
412.47	1799.75
412.68	1884.75
412.89	1974.45
413.10	1786.65
413.31	1716.40
413.52	2136.65
413.73	2174.12
413.94	1785.01
414.15	1928.57
414.36	1854.85
414.57	1817.78
414.78	1833.55
414.99	2383.02
415.19	3008.88
415.40	3189.30
415.61	3391.44
415.82	3228.62
416.03	3049.02
416.24	2685.30
416.45	2373.80
416.66	2051.86
416.87	1853.62
417.08	2073.57
417.29	1875.53
417.50	2009.06
417.70	2216.52
417.91	2207.92
418.12	2197.68
418.33	2302.53
418.54	2485.62
418.75	2677.72
418.96	2810.22
419.17	3198.31
419.38	3866.16
419.59	3921.86
419.79	3795.71
420.00	3587.43
420.21	3440.79
420.42	2708.23
420.63	2298.84
420.84	2155.49
421.05	2015.41
421.26	1940.45
421.47	1745.48
421.67	2029.13
421.88	1812.04
422.09	1749.17
422.30	1953.76
422.51	1827.61
422.72	2120.67
422.93	2018.68
423.14	1807.95
423.35	1704.32
423.55	1698.79
423.76	1812.04
423.97	1854.23
424.18	1722.55
424.39	1944.55
424.60	2107.77
424.81	1912.19
425.02	2172.49
425.22	2291.88
425.43	2379.53
425.64	2560.98
425.85	2582.28
426.06	2872.89
426.27	2718.06
426.48	2808.99
426.68	2739.57
426.89	2816.16
427.10	2862.86
427.31	2357.42
427.52	2064.97
427.73	2184.16
427.94	2085.04
428.14	1937.38
428.35	1842.56
428.56	2093.23
428.77	2027.90
428.98	1927.55
429.19	2126.20
429.40	2270.58
429.60	2332.02
429.81	2384.65
430.02	2311.95
430.23	2200.75
430.44	2238.02
430.65	1931.44
430.85	1915.06
431.06	2009.06
431.27	1709.03
431.48	1810.61
431.69	1876.35
431.90	1922.22
432.10	1950.69
432.31	1904.20
432.52	2037.52
432.73	2695.54
432.94	2716.22
433.15	2589.25
433.35	2466.57
433.56	2593.75
433.77	2284.10
433.98	2230.85
434.19	2095.69
434.40	2152.21
434.60	2047.76
434.81	1887.20
435.02	1931.03
435.23	1954.99
435.44	1848.50
435.64	1698.59
435.85	1772.11
436.06	1907.68
436.27	1871.23
436.48	1757.36
436.68	1781.53
436.89	2124.36
437.10	1998.20
437.31	1848.50
437.52	1901.13
437.73	1932.26
437.93	1936.56
438.14	1879.01
438.35	1702.48
438.56	1850.34
438.77	1877.78
438.97	1945.37
439.18	1762.28
439.39	2023.80
439.60	1764.73
439.80	1689.98
440.01	1830.68
440.22	1845.22
440.43	1988.58
440.64	1730.53
440.84	1850.34
441.05	1756.34
441.26	2267.10
441.47	1850.95
441.68	1779.48
441.88	1888.64
442.09	1894.17
442.30	1957.24
442.51	1853.41
442.71	1869.39
442.92	1944.55
443.13	1763.51
443.34	1774.97
443.55	1775.79
443.75	1986.32
443.96	1782.55
444.17	1746.71
444.38	2033.43
444.58	1837.64
444.79	1889.05
445.00	1839.69
445.21	1892.32
445.41	1886.79
445.62	1641.04
445.83	1899.70
446.04	1937.17
446.24	1748.56
446.45	1670.12
446.66	1788.49
446.87	1962.77
447.07	1869.59
447.28	1995.13
447.49	1854.64
447.70	2014.38
447.90	2033.43
448.11	1832.73
448.32	1892.73
448.53	2083.81
448.73	2094.87
448.94	1814.91
449.15	1933.90
449.36	1939.02
449.56	1961.13
449.77	1805.90
449.98	1751.63
450.19	1952.53
450.39	2068.24
450.60	2104.70
450.81	2062.30
451.02	2141.15
451.22	2284.92
451.43	1934.51
451.64	1933.69
451.84	2002.91
452.05	2201.77
452.26	1997.79
452.47	1887.82
452.67	1868.57
452.88	2114.32
453.09	1788.08
453.30	1744.46
453.50	2012.54
453.71	2099.37
453.92	1823.92
454.12	1904.20
454.33	1860.78
454.54	1862.83
454.75	1737.70
454.95	1789.11
455.16	1928.16
455.37	1999.84
455.57	1873.89
455.78	1821.05
455.99	1900.31
456.19	1930.82
456.40	1747.94
456.61	1854.64
456.82	1907.48
457.02	2006.60
457.23	1876.35
457.44	2011.72
457.64	1871.02
457.85	2028.31
458.06	1857.30
458.26	1991.65
458.47	1953.56
458.68	2064.15
458.89	1841.53
459.09	2049.40
459.30	2284.30
459.51	2025.03
459.71	1792.38
459.92	1842.35
460.13	2026.87
460.33	2219.38
460.54	1834.57
460.75	1859.56
460.95	1799.35
461.16	1992.47
461.37	1826.58
461.57	1849.93
461.78	1947.00
461.99	1803.44
462.19	2063.12
462.40	1840.30
462.61	2434.01
462.81	2084.01
463.02	1801.80
463.23	1846.65
463.43	2039.16
463.64	1897.85
463.85	2793.43
464.05	1848.09
464.26	2341.85
464.47	2172.49
464.67	2006.19
464.88	1929.80
465.09	1850.34
465.29	1948.44
465.50	1962.98
465.71	1837.85
465.91	1863.45
466.12	1906.66
466.33	1895.19
466.53	1789.72
466.74	2113.09
466.94	1867.75
467.15	1840.10
467.36	2011.11
467.56	1837.44
467.77	1963.39
467.98	1881.06
468.18	1798.32
468.39	1868.57
468.60	2145.86
468.80	1854.44
469.01	1778.05
469.21	1983.05
469.42	2098.55
469.63	1961.95
469.83	1892.53
470.04	2150.57
470.25	2277.75
470.45	1961.13
470.66	1868.98
470.86	2029.74
471.07	1936.15
471.28	1931.85
471.48	1996.77
471.69	1966.66
471.90	2414.15
472.10	1840.10
472.31	1854.85
472.51	1842.35
472.72	1850.13
472.93	1746.71
473.13	1970.15
473.34	1949.46
473.54	1893.96
473.75	1875.32
473.96	2007.01
474.16	1944.34
474.37	2033.63
474.57	1984.69
474.78	1881.47
474.99	2049.40
475.19	2045.10
475.40	1842.56
475.60	1778.87
475.81	2114.73
476.02	1956.83
476.22	1996.36
476.43	2101.22
476.63	2029.74
476.84	2201.16
477.05	1774.56
477.25	1842.97
477.46	2337.96
477.66	1934.92
477.87	1761.25
478.08	1841.12
478.28	2041.82
478.49	1909.53
478.69	1793.00
478.90	1832.52
479.10	1997.38
479.31	2158.15
479.52	1937.79
479.72	1981.61
479.93	2041.82
480.13	1871.43
480.34	1809.79
480.54	1916.49
480.75	1846.04
480.96	2092.82
481.16	1814.91
481.37	1927.14
481.57	2041.21
481.78	2004.35
481.98	2021.75
482.19	1893.14
482.40	2189.07
482.60	2050.22
482.81	1974.24
483.01	1911.57
483.22	2156.92
483.42	2134.60
483.63	2011.51
483.83	1969.74
484.04	1888.23
484.24	2050.43
484.45	1935.74
484.66	1736.06
484.86	1951.30
485.07	1850.54
485.27	1909.53
485.48	1816.75
485.68	2109.61
485.89	1856.28
486.09	1979.16
486.30	1854.23
486.50	1965.85
486.71	1996.56
486.91	2056.98
487.12	2128.45
487.33	2364.38
487.53	2373.39
487.74	2213.44
487.94	2116.78
488.15	2247.03
488.35	2328.54
488.56	2211.60
488.76	2165.32
488.97	2136.24
489.17	2164.09
489.38	2024.21
489.58	1944.14
489.79	2048.79
489.99	2006.80
490.20	1944.55
490.40	1990.01
490.61	2017.25
490.81	1898.47
491.02	1892.94
491.22	1981.82
491.43	2039.98
491.63	1989.40
491.84	2037.32
492.04	1820.85
492.25	2014.38
492.45	1909.53
492.66	1832.11
492.86	1756.54
493.07	1910.75
493.27	2233.11
493.48	1762.48
493.68	1882.49
493.89	1931.23
494.09	2050.43
494.30	1855.25
494.50	2098.35
494.71	2045.72
494.91	1888.02
495.12	1989.40
495.32	2110.43
495.53	2052.06
495.73	1838.05
495.94	1909.94
496.14	1733.20
496.35	2198.70
496.55	1900.31
496.76	1884.95
496.96	1951.71
497.17	1975.06
497.37	2025.03
497.58	1866.11
497.78	1833.96
497.98	1927.14
498.19	1949.46
498.39	1964.41
498.60	1992.47
498.80	1795.04
499.01	2084.01
499.21	1818.19
499.42	1893.76
499.62	1915.67
499.83	2230.65
500.03	1765.76
500.24	1941.88
500.44	2105.52
500.64	2082.37
500.85	1840.71
501.05	1980.39
501.26	1764.73
501.46	2101.63
501.67	1808.97
501.87	1781.94
502.08	1824.74
502.28	1915.67
502.48	1963.39
502.69	2018.68
502.89	1828.22
503.10	1915.06
503.30	1991.24
503.51	1944.96
503.71	1799.55
503.92	2065.58
504.12	2057.80
504.32	2033.22
504.53	2158.35
504.73	2237.82
504.94	2164.09
505.14	2333.25
505.35	2353.94
505.55	2373.80
505.75	2247.65
505.96	2349.02
506.16	2446.71
506.37	2047.76
506.57	1966.66
506.78	2073.16
506.98	2198.70
507.18	1916.08
507.39	1887.61
507.59	1991.85
507.80	1922.22
508.00	2075.62
508.20	2142.79
508.41	1987.14
508.61	2180.68
508.82	2103.26
509.02	2020.73
509.22	1841.74
509.43	1849.73
509.63	1882.49
509.84	1871.64
510.04	1796.27
510.24	2176.17
510.45	2039.78
510.65	1784.80
510.86	1924.68
511.06	1873.07
511.26	2088.52
511.47	2038.96
511.67	1909.12
511.88	2107.16
512.08	2121.49
512.28	1789.11
512.49	2005.99
512.69	1976.09
512.90	1969.33
513.10	1870.21
513.30	1931.23
513.51	2031.79
513.71	2143.20
513.91	1951.92
514.12	1964.41
514.32	2155.90
514.53	2046.74
514.73	2180.68
514.93	2120.47
515.14	2217.13
515.34	2530.88
515.54	2389.16
515.75	2505.08
515.95	2668.50
516.15	2653.14
516.36	2360.08
516.56	2206.28
516.77	1914.65
516.97	2159.58
517.17	2033.84
517.38	2107.36
517.58	2304.37
517.78	2179.65
517.99	2387.73
518.19	2513.88
518.39	2813.91
518.60	2653.14
518.80	2429.91
519.00	2389.16
519.21	2175.35
519.41	2346.56
519.61	1993.90
519.82	2053.29
520.02	2051.25
520.22	2079.71
520.43	2008.65
520.63	2025.85
520.83	1990.22
521.04	1944.55
521.24	2325.88
521.44	2378.10
521.65	2495.65
521.85	2709.26
522.05	2490.33
522.26	2309.49
522.46	2489.31
522.66	2240.27
522.87	1990.22
523.07	2167.98
523.27	2027.90
523.48	2242.94
523.68	2060.46
523.88	2067.42
524.09	2257.27
524.29	2137.06
524.49	2038.96
524.70	2343.29
524.90	2546.65
525.10	2406.57
525.31	2105.72
525.51	2015.61
525.71	2167.37
525.91	2099.37
526.12	1894.58
526.32	1811.84
526.52	1904.41
526.73	1865.09
526.93	1957.04
527.13	1809.18
527.34	1972.81
527.54	1983.66
527.74	1923.04
527.94	1888.84
528.15	1904.82
528.35	2032.81
528.55	2032.40
528.76	1969.12
528.96	1767.19
529.16	2080.33
529.36	2022.78
529.57	1811.84
529.77	2089.75
529.97	1818.60
530.18	2009.26
530.38	1891.30
530.58	2015.00
530.78	1989.19
530.99	1887.82
531.19	2022.98
531.39	1931.85
531.60	2019.09
531.80	1900.11
532.00	2046.13
532.20	1988.17
532.41	1877.78
532.61	1888.43
532.81	1894.99
533.01	1892.73
533.22	1975.06
533.42	2015.82
533.62	1731.35
533.82	2089.13
534.03	1942.09
534.23	2001.68
534.43	1842.56
534.63	1907.07
534.84	1994.93
535.04	1916.69
535.24	1924.07
535.44	2285.94
535.65	1909.94
535.85	1855.66
536.05	1831.09
536.25	1917.92
536.46	1901.74
536.66	2108.18
536.86	2027.08
537.06	2123.95
537.27	2188.87
537.47	2015.41
537.67	1910.55
537.87	2154.46
538.08	1977.93
538.28	1836.62
538.48	1869.59
538.68	1984.69
538.88	2081.56
539.09	1847.06
539.29	1946.18
539.49	2081.76
539.69	2022.57
539.90	1981.20
540.10	1878.60
540.30	2181.91
540.50	1985.30
540.70	1926.52
540.91	2005.17
541.11	2215.29
541.31	2373.60
541.51	2238.23
541.72	2259.11
541.92	2361.51
542.12	2154.67
542.32	2079.30
542.52	1979.36
542.73	1949.46
542.93	2104.08
543.13	1992.67
543.33	2115.55
543.53	2248.87
543.74	2239.04
543.94	2132.75
544.14	2327.31
544.34	2513.47
544.54	2401.65
544.75	2536.82
544.95	2725.64
545.15	2558.12
545.35	2558.94
545.55	2365.40
545.75	2132.96
545.96	2439.95
546.16	2047.56
546.36	2059.23
546.56	2072.13
546.76	2210.37
546.97	2249.69
547.17	2020.73
547.37	2047.15
547.57	1918.74
547.77	2061.28
547.97	1956.22
548.18	1993.29
548.38	2049.20
548.58	2640.04
548.78	2806.74
548.98	3225.35
549.18	3623.68
549.39	3855.10
549.59	3431.78
549.79	3040.00
549.99	3049.43
550.19	2828.65
550.39	2701.89
550.60	2380.97
550.80	2345.33
551.00	2328.75
551.20	2089.54
551.40	2015.61
551.60	2150.98
551.80	2084.01
552.01	2161.63
552.21	2067.63
552.41	2090.57
552.61	2288.81
552.81	2019.91
553.01	1898.88
553.21	2079.51
553.42	1896.42
553.62	1905.84
553.82	1863.86
554.02	2154.46
554.22	2058.41
554.42	1859.35
554.62	2021.75
554.83	2450.39
555.03	2787.08
555.23	2820.26
555.43	3256.07
555.63	3252.99
555.83	3077.28
556.03	2713.56
556.23	2501.18
556.44	2645.16
556.64	2722.57
556.84	2303.56
557.04	2500.77
557.24	2498.93
557.44	2349.84
557.64	2221.84
557.84	2035.68
558.04	2076.85
558.25	2169.21
558.45	1968.30
558.65	2081.56
558.85	2123.33
559.05	1914.65
559.25	2117.19
559.45	2237.41
559.65	2736.09
559.85	3292.52
560.05	2777.25
560.26	2943.14
560.46	2993.31
560.66	2732.40
560.86	2496.06
561.06	2303.35
561.26	2539.07
561.46	2365.40
561.66	2139.31
561.86	2217.95
562.06	2062.71
562.26	2102.24
562.47	2052.27
562.67	1910.35
562.87	2109.82
563.07	1868.16
563.27	2061.89
563.47	2067.22
563.67	1997.38
563.87	2178.42
564.07	2104.90
564.27	2270.79
564.47	2349.63
564.67	2497.29
564.87	2363.56
565.08	2415.17
565.28	2239.25
565.48	2291.88
565.68	2215.70
565.88	2192.15
566.08	2291.27
566.28	2025.65
566.48	1855.66
566.68	1924.48
566.88	1916.28
567.08	2100.60
567.28	1980.80
567.48	1992.26
567.68	2135.83
567.88	1968.92
568.08	2153.85
568.28	2273.25
568.48	2135.42
568.68	2296.39
568.89	2115.76
569.09	1882.90
569.29	2155.90
569.49	2114.73
569.69	1892.73
569.89	1839.90
570.09	1740.36
570.29	1886.79
570.49	1772.31
570.69	1816.14
570.89	2045.72
571.09	2211.81
571.29	1792.79
571.49	2061.08
571.69	1985.30
571.89	1991.65
572.09	1824.13
572.29	1842.35
572.49	2022.37
572.69	2012.13
572.89	1978.75
573.09	1832.11
573.29	2152.62
573.49	2227.78
573.69	2207.71
573.89	2258.09
574.09	2050.63
574.29	2207.10
574.49	1963.59
574.69	1914.85
574.89	1859.15
575.09	1837.44
575.29	1839.69
575.49	1897.24
575.69	1962.16
575.89	1782.55
576.09	1922.63
576.29	1991.24
576.49	1897.44
576.69	2001.89
576.89	1969.94
577.09	2031.18
577.29	1874.10
577.49	2224.50
577.69	1931.85
577.89	2058.62
578.09	1980.39
578.29	1789.72
578.49	1930.62
578.69	1868.98
578.89	2112.68
579.09	1981.20
579.29	1856.07
579.49	2091.80
579.69	1962.98
579.89	2256.04
580.09	1795.45
580.29	1774.36
580.49	1889.87
580.69	1842.97
580.89	1894.99
581.09	1875.12
581.29	1868.36
581.49	1922.84
581.69	1788.08
581.89	1814.91
582.09	1823.10
582.28	1840.30
582.48	2041.42
582.68	2183.13
582.88	2276.52
583.08	2110.64
583.28	2063.53
583.48	2050.63
583.68	1959.91
583.88	2026.26
584.08	2002.09
584.28	1942.09
584.48	2190.92
584.68	2009.88
584.88	1909.73
585.08	2075.21
585.28	2105.52
585.48	2172.89
585.68	2064.56
585.87	2075.62
586.07	2047.35
586.27	1977.11
586.47	2047.15
586.67	1948.03
586.87	1951.30
587.07	1936.15
587.27	1853.41
587.47	2059.03
587.67	2415.78
587.87	2803.26
588.07	2655.60
588.27	2681.61
588.46	2956.04
588.66	2973.24
588.86	2635.53
589.06	2525.56
589.26	2473.13
589.46	2350.66
589.66	2061.28
589.86	2008.65
590.06	2118.62
590.26	2304.58
590.46	2234.74
590.66	2419.06
590.85	2362.13
591.05	2476.40
591.25	2215.29
591.45	2195.42
591.65	2300.69
591.85	2328.75
592.05	2266.08
592.25	2458.18
592.45	2563.44
592.64	2403.70
592.84	2317.89
593.04	2146.68
593.24	2546.44
593.44	2174.53
593.64	2229.42
593.84	2283.28
594.04	2155.28
594.24	2346.77
594.43	2006.19
594.63	2059.85
594.83	2169.00
595.03	2090.57
595.23	1879.83
595.43	1825.97
595.63	1882.90
595.83	2070.29
596.02	1784.60
596.22	1965.44
596.42	2083.60
596.62	2034.25
596.82	1980.59
597.02	2089.34
597.22	2155.90
597.41	2027.49
597.61	1943.93
597.81	2132.75
598.01	2187.23
598.21	2063.74
598.41	2054.11
598.61	2023.60
598.80	2121.49
599.00	2162.25
599.20	2211.60
599.40	2073.98
599.60	2122.92
599.80	2235.77
599.99	2248.67
600.19	2047.76
600.39	2116.58
600.59	2135.42
600.79	2095.48
600.99	2055.34
601.19	2293.32
601.38	2309.49
601.58	2142.79
601.78	1913.83
601.98	2465.34
602.18	3414.78
602.37	4271.86
602.57	4605.47
602.77	5188.73
602.97	5356.67
603.17	4979.23
603.37	4705.21
603.56	4716.47
603.76	4547.92
603.96	4398.22
604.16	4023.03
604.36	3696.58
604.56	3441.41
604.75	2967.10
604.95	2866.75
605.15	2876.58
605.35	2697.99
605.55	2452.85
605.74	2353.73
605.94	2485.41
606.14	2283.49
606.34	2219.59
606.54	2079.30
606.73	2021.14
606.93	2119.44
607.13	1907.68
607.33	1988.78
607.53	2161.02
607.72	2119.03
607.92	2050.84
608.12	2110.64
608.32	2014.38
608.51	2087.08
608.71	1961.75
608.91	2142.99
609.11	2283.49
609.31	2194.60
609.50	2399.60
609.70	2627.95
609.90	2571.63
610.10	2587.20
610.29	2441.79
610.49	2263.62
610.69	2378.31
610.89	2254.61
611.09	2201.57
611.28	2297.00
611.48	2239.25
611.68	2065.38
611.88	2025.44
612.07	1987.55
612.27	2166.55
612.47	1969.74
612.67	2037.73
612.86	2112.89
613.06	1995.95
613.26	1790.95
613.46	2005.78
613.65	2157.74
613.85	2564.47
614.05	2348.61
614.25	2355.78
614.44	2211.40
614.64	2255.02
614.84	2161.02
615.04	2145.25
615.23	2156.72
615.43	2289.01
615.63	2230.03
615.83	2047.56
616.02	2072.95
616.22	2436.88
616.42	2322.19
616.62	2415.78
616.81	2546.65
617.01	2572.04
617.21	2446.09
617.41	2197.47
617.60	2228.19
617.80	2237.00
618.00	2192.76
618.19	2122.92
618.39	2060.46
618.59	2097.12
618.79	1975.47
618.98	1762.89
619.18	1902.97
619.38	2186.82
619.57	1911.16
619.77	1909.12
619.97	1892.32
620.17	1939.84
620.36	1950.28
620.56	2308.68
620.76	2190.71
620.95	2248.06
621.15	2329.15
621.35	2184.57
621.54	2183.95
621.74	2178.01
621.94	2044.90
622.14	1986.53
622.33	1893.96
622.53	1984.69
622.73	1975.06
622.92	1800.37
623.12	1963.18
623.32	2201.36
623.51	2020.53
623.71	1807.33
623.91	2033.84
624.10	1832.32
624.30	1971.37
624.50	1834.37
624.69	1812.25
624.89	2412.92
625.09	1911.57
625.29	1709.23
625.48	1797.50
625.68	1954.17
625.88	2064.97
626.07	1964.62
626.27	1790.74
626.47	1826.58
626.66	1733.81
626.86	1882.08
627.06	1873.07
627.25	1918.33
627.45	2130.09
627.64	1890.89
627.84	2047.97
628.04	1829.66
628.23	2153.44
628.43	1804.87
628.63	1925.71
628.82	2034.04
629.02	2333.25
629.22	2215.49
629.41	2322.40
629.61	2197.06
629.81	2474.15
630.00	2174.94
630.20	2164.29
630.40	2383.02
630.59	2324.65
630.79	2198.90
630.98	2097.53
631.18	2113.71
631.38	2036.50
631.57	2137.06
631.77	1846.86
631.97	1988.37
632.16	2024.42
632.36	1943.73
632.56	1913.42
632.75	1936.35
632.95	2019.50
633.14	1776.00
633.34	2062.30
633.54	1712.10
633.73	1868.77
633.93	1826.58
634.12	1732.79
634.32	2239.25
634.52	1915.67
634.71	1768.22
634.91	1918.33
635.11	1762.89
635.30	1833.75
635.50	1942.50
635.69	1833.75
635.89	2253.58
636.09	2169.41
636.28	1939.43
636.48	1980.39
636.67	2115.14
636.87	2120.88
637.07	2038.96
637.26	1933.49
637.46	2077.25
637.65	2213.85
637.85	2083.40
638.04	2007.62
638.24	2093.43
638.44	2135.83
638.63	2023.60
638.83	1955.40
639.02	2050.22
639.22	2015.20
639.42	1962.36
639.61	1898.06
639.81	1965.64
640.00	1935.94
640.20	1999.43
640.39	2069.88
640.59	2581.87
640.79	2674.65
640.98	2739.36
641.18	2809.20
641.37	2918.56
641.57	2594.98
641.76	2505.69
641.96	2262.19
642.15	2386.70
642.35	2259.52
642.55	2251.33
642.74	2045.92
642.94	2227.58
643.13	2226.96
643.33	1959.09
643.52	1874.51
643.72	1900.11
643.91	1937.99
644.11	1840.71
644.31	1813.89
644.50	1847.47
644.70	2065.99
644.89	1894.78
645.09	1961.13
645.28	1908.91
645.48	1975.47
645.67	1830.47
645.87	1744.46
646.06	1918.95
646.26	1996.36
646.45	1719.06
646.65	1709.64
646.84	2184.36
647.04	1874.10
647.24	1799.14
647.43	1932.05
647.63	1974.04
647.82	2089.95
648.02	1771.29
648.21	1825.56
648.41	2079.10
648.60	1862.22
648.80	2028.92
648.99	1929.60
649.19	1849.73
649.38	1736.27
649.58	1916.49
649.77	1908.91
649.97	2052.27
650.16	1986.53
650.36	1709.64
650.55	2000.66
650.75	1961.54
650.94	2105.11
651.14	1920.38
651.33	1904.41
651.53	2118.42
651.72	1838.87
651.92	1892.32
652.11	1703.09
652.31	1968.30
652.50	1956.83
652.70	1930.42
652.89	1809.79
653.09	2170.44
653.28	1955.81
653.48	1784.19
653.67	1786.44
653.87	2319.32
654.06	1967.28
654.25	2084.22
654.45	1860.58
654.64	1920.18
654.84	1925.71
655.03	1698.18
655.23	2025.85
655.42	2020.53
655.62	2123.74
655.81	1933.69
656.01	1834.16
656.20	2003.73
656.40	2078.48
656.59	1913.42
656.79	2045.10
656.98	1938.81
657.17	2022.78
657.37	1888.23
657.56	1829.04
657.76	1925.09
657.95	2040.60
658.15	1580.42
658.34	1881.67
658.54	1912.39
658.73	1787.06
658.92	1861.81
659.12	1959.70
659.31	2063.94
659.51	1902.77
659.70	2066.20
659.90	2025.44
660.09	2203.20
660.29	2055.34
660.48	1899.49
660.67	2125.59
660.87	1935.33
661.06	2027.28
661.26	2051.86
661.45	1994.52
661.65	1998.00
661.84	1903.38
662.03	1859.97
662.23	1836.41
662.42	2171.46
662.62	1796.07
662.81	1792.79
663.00	1830.88
663.20	1917.10
663.39	1958.27
663.59	1956.01
663.78	1816.34
663.97	1829.45
664.17	1994.11
664.36	1744.25
664.56	1807.13
664.75	2025.44
664.94	2003.73
665.14	1958.47
665.33	1968.71
665.53	2045.31
665.72	2047.76
665.91	2144.43
666.11	2000.66
666.30	2029.13
666.50	1983.87
666.69	2000.25
666.88	1950.69
667.08	1995.13
667.27	1916.90
667.47	1962.77
667.66	1908.30
667.85	2054.73
668.05	1949.87
668.24	1847.06
668.43	2063.12
668.63	1872.66
668.82	2079.92
669.02	1996.36
669.21	1930.42
669.40	1814.09
669.60	2201.98
669.79	1797.91
669.98	2404.93
670.18	1832.52
670.37	1817.98
670.56	1871.84
670.76	1956.63
670.95	1946.39
671.15	2083.60
671.34	2037.32
671.53	1978.13
671.73	1938.40
671.92	1867.13
672.11	1828.22
672.31	1899.29
672.50	2008.03
672.69	1793.00
672.89	1708.62
673.08	1867.75
673.27	2013.77
673.47	1954.99
673.66	1974.45
673.85	1792.38
674.05	2127.02
674.24	2544.60
674.43	2743.46
674.63	3206.10
674.82	3674.67
675.01	3165.34
675.21	3223.30
675.40	2931.26
675.59	2761.48
675.79	2979.79
675.98	2615.05
676.17	2679.77
676.37	2532.52
676.56	2350.25
676.75	2298.64
676.95	2147.91
677.14	2043.87
677.33	2182.93
677.52	1876.55
677.72	1888.64
677.91	2017.25
678.10	1780.30
678.30	1805.08
678.49	1782.35
678.68	2181.70
678.88	1726.23
679.07	2019.50
679.26	1860.78
679.45	2143.61
679.65	2060.46
679.84	1711.90
680.03	1754.90
680.23	1879.42
680.42	2239.25
680.61	1798.73
680.81	1826.17
681.00	1927.34
681.19	1988.78
681.38	2035.89
681.58	1996.97
681.77	1924.48
681.96	2078.69
682.15	1896.42
682.35	1999.43
682.54	2032.20
682.73	1829.04
682.93	1837.85
683.12	1842.97
683.31	2050.02
683.50	2284.30
683.70	1853.00
683.89	1915.87
684.08	1823.10
684.27	2035.27
684.47	1755.31
684.66	1939.43
684.85	2182.52
685.04	2087.29
685.24	1847.88
685.43	1917.10
685.62	1732.17
685.81	2015.20
686.01	2231.88
686.20	2392.23
686.39	2526.58
686.58	3091.41
686.78	2931.87
686.97	2844.63
687.16	2719.70
687.35	2590.27
687.55	2489.92
687.74	2497.29
687.93	2344.51
688.12	2405.95
688.32	2374.62
688.51	2142.58
688.70	2257.27
688.89	2011.92
689.08	1899.49
689.28	1949.67
689.47	2044.90
689.66	2015.20
689.85	2040.80
690.05	1876.76
690.24	1905.02
690.43	1982.23
690.62	1952.53
690.81	1848.09
691.01	1937.58
691.20	1861.19
691.39	1795.45
691.58	1996.56
691.77	2188.46
691.97	1946.39
692.16	1958.88
692.35	1921.20
692.54	1912.19
692.73	2176.38
692.93	2203.20
693.12	2278.37
693.31	2363.15
693.50	2337.55
693.69	2289.22
693.89	2106.13
694.08	2327.52
694.27	2338.78
694.46	2055.96
694.65	2161.63
694.85	2223.07
695.04	2230.44
695.23	2234.13
695.42	2976.72
695.61	3613.85
695.80	4070.34
696.00	4488.12
696.19	4673.87
696.38	4113.96
696.57	3637.81
696.76	3500.59
696.95	3259.75
697.15	3274.50
697.34	3129.91
697.53	2750.22
697.72	2696.15
697.91	2510.40
698.10	2562.83
698.30	2162.45
698.49	2106.34
698.68	2144.22
698.87	2009.88
699.06	1855.05
699.25	1946.18
699.45	2080.33
699.64	1969.33
699.83	2021.35
700.02	1838.87
700.21	1994.31
700.40	1862.01
700.59	1880.24
700.79	1867.95
700.98	1969.33
701.17	1804.47
701.36	1841.53
701.55	1843.79
701.74	2199.93
701.93	2275.09
702.12	2745.30
702.32	2898.08
702.51	3353.14
702.70	3380.58
702.89	3019.32
703.08	2690.01
703.27	2846.06
703.46	2684.68
703.65	2489.92
703.85	2331.82
704.04	2321.78
704.23	2463.09
704.42	2148.93
704.61	2114.32
704.80	2298.23
704.99	1952.12
705.18	2028.92
705.37	2021.35
705.57	2662.15
705.76	3582.10
705.95	3894.21
706.14	4654.21
706.33	5001.96
706.52	5002.98
706.71	4039.62
706.90	3692.08
707.09	3591.93
707.28	3384.68
707.47	3090.38
707.67	3081.58
707.86	2806.54
708.05	2820.05
708.24	2529.65
708.43	2390.80
708.62	2169.00
708.81	2008.24
709.00	1887.00
709.19	1880.24
709.38	2094.87
709.57	1897.24
709.76	2084.01
709.96	2013.56
710.15	2286.97
710.34	2140.95
710.53	2199.52
710.72	2056.98
710.91	2202.59
711.10	2099.58
711.29	2106.95
711.48	1985.30
711.67	1954.99
711.86	2124.56
712.05	1944.55
712.24	1970.97
712.43	2114.12
712.62	2150.16
712.81	1986.94
713.00	2091.59
713.19	1820.64
713.39	2047.76
713.58	1863.45
713.77	2021.35
713.96	2164.70
714.15	2081.76
714.34	2077.05
714.53	1967.69
714.72	2303.56
714.91	2004.55
715.10	2120.26
715.29	2008.44
715.48	2526.17
715.67	2194.19
715.86	2098.14
716.05	2034.04
716.24	1992.88
716.43	1986.12
716.62	1882.70
716.81	1832.93
717.00	1955.61
717.19	2182.11
717.38	2006.60
717.57	1931.23
717.76	1760.23
717.95	2039.16
718.14	1933.08
718.33	1858.33
718.52	1723.78
718.71	1757.57
718.90	1727.05
719.09	1845.83
719.28	1909.94
719.47	2068.65
719.66	2159.17
719.85	2193.78
720.04	2225.32
720.23	2292.91
720.42	2199.93
720.61	2236.18
720.80	2010.08
720.99	2171.05
721.18	2028.10
721.37	1961.75
721.56	2009.88
721.75	2144.02
721.94	1915.06
722.13	1967.28
722.32	1955.40
722.51	2080.94
722.70	1928.37
722.89	1958.47
723.08	1907.48
723.27	2018.07
723.46	1947.62
723.65	1875.32
723.84	1844.81
724.03	2082.58
724.22	1749.17
724.41	1939.02
724.60	1892.12
724.79	2023.19
724.98	1953.76
725.16	1851.57
725.35	1996.16
725.54	1806.92
725.73	1946.80
725.92	1981.41
726.11	2089.34
726.30	2408.21
726.49	2296.59
726.68	2508.56
726.87	2586.99
727.06	2654.78
727.25	2313.39
727.44	2388.55
727.63	2294.95
727.82	2221.84
728.01	2224.91
728.20	2285.12
728.38	2338.17
728.57	2088.72
728.76	2083.60
728.95	2146.89
729.14	1865.49
729.33	1852.80
729.52	1740.16
729.71	1844.20
729.90	1851.77
730.09	1963.59
730.28	2053.70
730.47	2076.85
730.66	2373.39
730.84	2290.04
731.03	2265.67
731.22	2253.18
731.41	2219.59
731.60	2227.17
731.79	1939.43
731.98	2002.91
732.17	2144.43
732.36	2102.24
732.55	1959.70
732.73	1866.93
732.92	2132.14
733.11	2031.99
733.30	1883.93
733.49	1804.47
733.68	2035.68
733.87	2002.91
734.06	1956.63
734.25	2130.09
734.43	2351.27
734.62	2545.42
734.81	2603.58
735.00	2589.86
735.19	2513.68
735.38	2418.86
735.57	2182.73
735.76	2391.00
735.94	2517.16
736.13	3175.58
736.32	3322.21
736.51	3524.76
736.70	3894.83
736.89	4044.53
737.08	3859.60
737.27	4449.62
737.45	5708.92
737.64	6045.19
737.83	6732.90
738.02	7032.52
738.21	6737.61
738.40	5657.10
738.59	5045.38
738.77	4796.75
738.96	4404.36
739.15	4169.25
739.34	3902.81
739.53	3574.73
739.72	3453.08
739.90	3183.98
740.09	2729.12
740.28	2604.40
740.47	2506.10
740.66	2355.37
740.85	2105.52
741.03	2123.54
741.22	2002.09
741.41	2032.61
741.60	1937.38
741.79	2115.55
741.98	2290.04
742.16	2378.31
742.35	2233.72
742.54	2278.16
742.73	2657.65
742.92	2389.98
743.10	2309.70
743.29	2363.97
743.48	2645.16
743.67	2193.99
743.86	2051.45
744.05	2072.34
744.23	2065.38
744.42	2007.42
744.61	2076.44
744.80	1933.08
744.99	1991.85
745.17	1844.81
745.36	1839.08
745.55	1993.49
745.74	1942.91
745.93	1862.01
746.11	1836.21
746.30	1840.92
746.49	2072.95
746.68	1814.30
746.86	1896.01
747.05	1878.81
747.24	2051.86
747.43	2099.17
747.62	1899.90
747.80	1973.42
747.99	2229.42
748.18	2202.39
748.37	2095.89
748.56	2100.60
748.74	2189.69
748.93	2106.95
749.12	2416.81
749.31	3330.00
749.49	4096.14
749.68	4646.84
749.87	5189.96
750.06	5300.55
750.24	5447.39
750.43	5993.18
750.62	6634.60
750.81	7089.66
750.99	7614.96
751.18	7572.57
751.37	6396.63
751.56	5519.69
751.74	5594.44
751.93	5262.46
752.12	4366.06
752.31	4042.90
752.49	3735.90
752.68	3668.53
752.87	3183.16
753.06	2877.60
753.24	2688.78
753.43	2621.60
753.62	2289.63
753.81	2127.02
753.99	2328.95
754.18	2122.51
754.37	1926.11
754.55	2006.60
754.74	2209.76
754.93	1786.03
755.12	1910.75
755.30	1859.35
755.49	2093.64
755.68	1961.34
755.86	2000.05
756.05	1803.85
756.24	2103.67
756.43	1783.58
756.61	1812.04
756.80	1953.76
756.99	2092.41
757.17	1953.76
757.36	1822.49
757.55	1912.60
757.74	2017.45
757.92	1935.54
758.11	1773.75
758.30	1753.88
758.48	1897.85
758.67	1807.33
758.86	1918.95
759.04	1822.08
759.23	1875.53
759.42	1962.57
759.60	1842.15
759.79	1934.31
759.98	1870.00
760.16	1820.44
760.35	1802.62
760.54	1802.21
760.73	1934.10
760.91	1762.07
761.10	1940.04
761.29	1946.39
761.47	1938.40
761.66	2220.20
761.85	2009.26
762.03	2203.41
762.22	3226.57
762.41	6495.34
762.59	10295.34
762.78	12147.94
762.97	14557.78
763.15	15638.29
763.34	14177.68
763.52	10693.67
763.71	9968.69
763.90	9274.43
764.08	8582.42
764.27	8039.71
764.46	7499.66
764.64	6580.53
764.83	6009.56
765.02	5388.00
765.20	4791.84
765.39	4096.55
765.58	3225.55
765.76	2894.60
765.95	2601.94
766.13	2348.41
766.32	2208.12
766.51	2142.18
766.69	2635.33
766.88	2072.34
767.07	1895.19
767.25	1794.43
767.44	2087.49
767.62	2140.33
767.81	1892.12
768.00	1978.13
768.18	1985.30
768.37	1881.88
768.56	1828.63
768.74	1903.79
768.93	1810.81
769.11	2003.94
769.30	1947.00
769.49	1841.74
769.67	1923.66
769.86	1882.49
770.04	1901.13
770.23	1888.23
770.42	2088.72
770.60	1950.90
770.79	1816.14
770.97	1908.50
771.16	2535.18
771.35	3473.56
771.53	4416.04
771.72	4981.48
771.90	5763.19
772.09	6168.48
772.27	5486.51
772.46	4371.59
772.65	4425.46
772.83	4105.36
773.02	3958.72
773.20	3589.07
773.39	3580.26
773.58	3407.62
773.76	2958.91
773.95	2846.88
774.13	2708.64
774.32	2508.35
774.50	2206.07
774.69	2157.94
774.87	2017.25
775.06	2254.61
775.25	1875.73
775.43	1926.32
775.62	1966.46
775.80	2001.68
775.99	1948.85
776.17	1851.77
776.36	1947.00
776.54	2103.26
776.73	1898.26
776.92	1974.04
777.10	2086.68
777.29	2009.26
777.47	1842.97
777.66	1883.31
777.84	1945.57
778.03	1929.39
778.21	1835.59
778.40	1940.66
778.58	1992.26
778.77	2083.19
778.95	1767.40
779.14	1828.22
779.32	2150.78
779.51	2034.66
779.70	1877.78
779.88	1744.46
780.07	1839.08
780.25	2241.91
780.44	1866.31
780.62	2011.31
780.81	2009.67
780.99	1988.78
781.18	1830.47
781.36	1846.86
781.55	1869.18
781.73	2120.88
781.92	1781.12
782.10	1782.35
782.29	1958.06
782.47	2096.71
782.66	1913.21
782.84	1743.03
783.03	1815.32
783.21	2026.26
783.40	1856.69
783.58	1834.57
783.77	1850.13
783.95	1882.08
784.14	1805.08
784.32	1899.08
784.51	2087.08
784.69	1865.29
784.88	1793.20
785.06	1946.59
785.24	1820.85
785.43	2068.65
785.61	1992.47
785.80	1866.31
785.98	2050.22
786.17	1979.16
786.35	1862.01
786.54	1990.22
786.72	2091.18
786.91	2052.88
787.09	1927.55
787.28	1768.83
787.46	1958.27
787.65	2034.45
787.83	1795.45
788.01	1971.78
788.20	1854.44
788.38	2021.75
788.57	1964.82
788.75	1988.99
788.94	2282.46
789.12	2165.73
789.31	2012.54
789.49	2053.09
789.67	1921.40
789.86	2022.37
790.04	1895.40
790.23	1798.53
790.41	2289.63
790.60	1988.58
790.78	1956.01
790.96	1958.27
791.15	2058.62
791.33	1940.25
791.52	1930.01
791.70	1831.70
791.89	1949.46
792.07	2045.10
792.25	1942.70
792.44	1765.96
792.62	2054.93
792.81	1854.85
792.99	1930.62
793.17	1838.46
793.36	1880.24
793.54	2414.96
793.73	2985.53
793.91	3757.82
794.10	4412.76
794.28	5012.81
794.46	5021.62
794.65	4891.98
794.83	3978.18
795.01	3824.17
795.20	3802.05
795.38	3553.84
795.57	3442.23
795.75	3341.47
795.93	3033.25
796.12	2951.94
796.30	2856.92
796.49	2757.59
796.67	2381.58
796.85	2444.87
797.04	2268.33
797.22	2246.42
797.40	1943.32
797.59	2040.60
797.77	2029.74
797.96	1901.54
798.14	1880.24
798.32	1872.66
798.51	2048.79
798.69	2181.50
798.87	1925.71
799.06	1905.02
799.24	1819.83
799.42	2312.57
799.61	2701.68
799.79	3085.47
799.98	3632.69
800.16	3719.93
800.34	4634.96
800.53	5675.74
800.71	6023.28
800.89	6977.22
801.08	7149.87
801.26	7125.70
801.44	6029.83
801.63	5132.00
801.81	5030.22
801.99	4659.54
802.18	4435.90
802.36	4248.51
802.54	3937.63
802.73	3424.20
802.91	3359.49
803.09	3115.78
803.28	2948.87
803.46	2743.66
803.64	2730.15
803.83	2229.21
804.01	2110.02
804.19	1989.40
804.38	2225.12
804.56	2158.35
804.74	2054.73
804.92	2083.19
805.11	1948.03
805.29	2161.22
805.47	1964.82
805.66	1888.23
805.84	1891.30
806.02	2129.68
806.21	1943.93
806.39	2065.38
806.57	2113.71
806.76	2070.70
806.94	1972.19
807.12	1954.17
807.30	1981.41
807.49	2090.16
807.67	2061.49
807.85	2166.55
808.04	2155.49
808.22	2322.60
808.40	1876.96
808.58	1876.14
808.77	2083.60
808.95	2264.23
809.13	2520.03
809.31	4113.75
809.50	5703.80
809.68	6638.08
809.86	7350.77
810.05	7927.89
810.23	8597.58
810.41	10866.11
810.59	16953.49
810.78	20731.79
810.96	23959.19
811.14	26007.16
811.32	25242.85
811.51	20572.87
811.69	16530.18
811.87	16371.46
812.05	14310.39
812.24	13509.02
812.42	12427.69
812.60	11227.99
812.78	9512.00
812.97	8187.78
813.15	7455.02
813.33	6429.39
813.51	5653.21
813.70	4553.04
813.88	3840.35
814.06	3268.97
814.24	2796.71
814.42	2344.11
814.61	2334.48
814.79	2415.58
814.97	1933.28
815.15	1983.66
815.34	2027.08
815.52	2115.76
815.70	1838.05
815.88	1869.59
816.06	1851.36
816.25	1878.60
816.43	1851.77
816.61	1989.81
816.79	2141.36
816.98	1806.92
817.16	1890.89
817.34	1857.51
817.52	2054.93
817.70	2201.16
817.89	1943.52
818.07	1846.24
818.25	1911.57
818.43	1977.11
818.61	1915.47
818.80	1880.65
818.98	2133.16
819.16	1942.91
819.34	1804.06
819.52	2107.97
819.70	1845.83
819.89	1920.79
820.07	1769.24
820.25	1745.69
820.43	1930.82
820.61	2047.76
820.80	1901.74
820.98	1777.64
821.16	1730.12
821.34	1751.22
821.52	1861.60
821.70	1918.54
821.89	1917.72
822.07	1886.79
822.25	1856.89
822.43	1803.24
822.61	2118.83
822.79	1947.00
822.98	1857.92
823.16	1669.71
823.34	1913.01
823.52	2052.27
823.70	1986.32
823.88	1701.86
824.06	1991.65
824.25	1906.86
824.43	1996.36
824.61	1843.17
824.79	1988.99
824.97	2015.20
825.15	2171.87
825.33	2576.34
825.52	3186.43
825.70	3455.74
825.88	3693.31
826.06	4023.44
826.24	4071.98
826.42	3761.50
826.60	3270.20
826.78	3277.36
826.97	2979.59
827.15	3069.29
827.33	2707.21
827.51	2762.51
827.69	2553.82
827.87	2540.91
828.05	2424.79
828.23	2225.73
828.41	2376.26
828.60	2250.31
828.78	1945.98
828.96	2095.48
829.14	1934.92
829.32	1939.84
829.50	1897.03
829.68	1889.25
829.86	1888.23
830.04	2011.31
830.22	1944.14
830.41	1810.40
830.59	1876.14
830.77	1983.05
830.95	1825.76
831.13	1819.01
831.31	1836.41
831.49	2029.74
831.67	2009.06
831.85	1991.04
832.03	1875.32
832.21	2017.86
832.39	1786.85
832.57	1818.60
832.76	2045.72
832.94	1926.73
833.12	1743.44
833.30	1896.83
833.48	2075.21
833.66	1982.23
833.84	1812.86
834.02	1882.29
834.20	2028.92
834.38	2012.13
834.56	1716.20
834.74	1773.34
834.92	1771.29
835.10	2161.02
835.28	1951.92
835.46	1882.90
835.64	1895.80
835.82	1821.67
836.01	2092.41
836.19	1998.00
836.37	1853.41
836.55	1768.63
836.73	1779.07
836.91	1749.99
837.09	1994.52
837.27	2088.31
837.45	1757.16
837.63	1803.65
837.81	1814.09
837.99	1966.25
838.17	1926.52
838.35	1901.95
838.53	2293.52
838.71	2131.12
838.89	1976.09
839.07	1966.25
839.25	2051.04
839.43	2188.46
839.61	2284.92
839.79	3441.00
839.97	4663.02
840.15	5292.98
840.33	5853.50
840.51	6278.25
840.69	6065.26
840.87	5069.34
841.05	4628.41
841.23	4848.98
841.41	5987.03
841.59	8141.70
841.77	9112.44
841.95	9841.31
842.13	10578.78
842.31	10118.60
842.49	8202.32
842.67	7036.21
842.85	6929.92
843.03	6055.43
843.21	5714.04
843.39	5437.15
843.57	4935.60
843.75	4517.00
843.93	3947.05
844.11	3643.34
844.29	3416.22
844.47	3133.60
844.65	3113.73
844.83	2697.17
845.01	2502.82
845.19	2499.34
845.36	2162.65
845.54	2166.55
845.72	2046.33
845.90	2055.34
846.08	1850.95
846.26	1880.85
846.44	2028.51
846.62	2000.87
846.80	1875.73
846.98	1807.33
847.16	1867.13
847.34	1924.89
847.52	1758.18
847.70	1771.70
847.88	1881.88
848.06	2038.14
848.24	1937.58
848.41	1734.42
848.59	2039.98
848.77	1943.52
848.95	1837.44
849.13	1792.59
849.31	1974.45
849.49	1924.89
849.67	1791.36
849.85	1762.69
850.03	1926.93
850.21	1910.75
850.39	1813.68
850.57	1949.67
850.74	2098.55
850.92	2153.85
851.10	2298.64
851.28	2701.07
851.46	3037.75
851.64	3515.54
851.82	3330.61
852.00	3383.65
852.18	3254.63
852.36	2907.71
852.53	2718.06
852.71	2698.40
852.89	2648.84
853.07	2606.45
853.25	2362.74
853.43	2218.97
853.61	2330.59
853.79	2257.07
853.97	2059.23
854.14	1992.67
854.32	2233.51
854.50	2151.60
854.68	1928.16
854.86	1913.62
855.04	1859.56
855.22	2014.18
855.40	1787.67
855.57	1803.85
855.75	1990.63
855.93	1981.61
856.11	1713.54
856.29	1795.45
856.47	1797.30
856.65	1933.69
856.82	1773.54
857.00	1710.26
857.18	1857.71
857.36	1847.06
857.54	1883.31
857.72	1986.94
857.89	1960.73
858.07	1930.01
858.25	2006.80
858.43	1730.94
858.61	1842.56
858.79	1884.75
858.97	1767.19
859.14	1897.24
859.32	1857.51
859.50	1837.03
859.68	1930.42
859.86	1848.09
860.03	1972.60
860.21	2047.97
860.39	1872.87
860.57	1958.47
860.75	2013.36
860.93	2168.39
861.10	2057.59
861.28	1878.40
861.46	1995.95
861.64	2021.35
861.82	1907.68
861.99	1993.70
862.17	2047.56
862.35	2044.49
862.53	1909.53
862.71	1897.03
862.88	1955.20
863.06	1996.16
863.24	1834.57
863.42	1811.43
863.60	1882.49
863.77	1962.36
863.95	1650.25
864.13	1848.70
864.31	1876.96
864.49	1989.60
864.66	1729.92
864.84	1814.09
865.02	1919.97
865.20	2211.81
865.37	1874.10
865.55	1816.75
865.73	1786.65
865.91	2113.50
866.09	2086.68
866.26	2098.76
866.44	2235.97
866.62	2107.97
866.80	1969.74
866.97	2038.14
867.15	2004.14
867.33	2051.04
867.51	2089.95
867.68	1984.07
867.86	1932.67
868.04	1911.16
868.22	1760.02
868.39	1878.19
868.57	1972.60
868.75	2107.16
868.93	1747.94
869.10	1827.40
869.28	2171.46
869.46	2073.77
869.64	1856.89
869.81	1856.28
869.99	1907.68
870.17	1900.31
870.35	1807.33
870.52	1799.35
870.70	1984.48
870.88	1833.75
871.05	1744.05
871.23	1640.01
871.41	1882.29
871.59	1874.30
871.76	1797.09
871.94	1789.92
872.12	1888.02
872.29	1728.28
872.47	1812.25
872.65	1755.11
872.83	1912.80
873.00	2068.24
873.18	1839.90
873.36	1805.69
873.53	1981.41
873.71	1715.38
873.89	1785.62
874.06	1888.23
874.24	1946.39
874.42	2068.86
874.60	1961.75
874.77	1890.48
874.95	1794.23
875.13	2029.95
875.30	1799.75
875.48	1880.44
875.66	2119.85
875.83	1838.26
876.01	1876.55
876.19	1967.89
876.36	1775.18
876.54	1934.31
876.72	1760.43
876.89	1931.03
877.07	1977.93
877.25	1672.17
877.42	1906.45
877.60	1850.13
877.78	2105.93
877.95	1828.84
878.13	1769.85
878.31	1923.25
878.48	2006.80
878.66	1996.56
878.84	1790.13
879.01	1853.62
879.19	1943.52
879.37	1939.43
879.54	1822.28
879.72	1724.39
879.90	1684.86
880.07	1965.85
880.25	1588.20
880.42	1949.05
880.60	1922.84
880.78	1989.40
880.95	1802.42
881.13	1844.20
881.31	1869.80
881.48	1792.79
881.66	1770.47
881.83	1882.29
882.01	1790.33
882.19	1719.47
882.36	1861.81
882.54	1811.02
882.72	1970.97
882.89	1882.70
883.07	1742.00
883.24	1828.02
883.42	1975.27
883.60	1894.58
883.77	1772.52
883.95	1842.76
884.12	2044.28
884.30	1986.94
884.48	2045.72
884.65	1958.88
884.83	2024.83
885.00	2040.39
885.18	1803.44
885.36	1855.46
885.53	2017.66
885.71	2081.56
885.88	1749.78
886.06	1846.45
886.23	1985.10
886.41	1841.74
886.59	1817.57
886.76	1785.01
886.94	1971.37
887.11	2242.12
887.29	1836.41
887.47	1729.51
887.64	2024.83
887.82	2056.57
887.99	1684.04
888.17	1847.68
888.34	1832.11
888.52	1742.62
888.69	1861.60
888.87	1739.14
889.05	1832.52
889.22	1836.21
889.40	1797.09
889.57	1941.47
889.75	2062.10
889.92	1818.60
890.10	1742.62
890.27	1822.28
890.45	1791.77
890.62	1683.43
890.80	1746.51
890.98	1699.61
891.15	2038.55
891.33	1992.26
891.50	1768.22
891.68	1701.66
891.85	1964.21
892.03	1948.64
892.20	1781.12
892.38	1745.89
892.55	1960.32
892.73	1968.92
892.90	1758.80
893.08	1802.62
893.25	1864.68
893.43	1817.57
893.60	1901.33
893.78	1661.52
893.95	1908.30
894.13	1863.04
894.30	1760.02
894.48	1834.37
894.65	1968.92
894.83	1885.36
895.00	1669.09
895.18	1672.37
895.35	1972.19
895.53	1964.21
895.70	1744.05
895.88	1929.60
896.05	1970.35
896.23	1766.99
896.40	1818.19
896.58	1862.22
896.75	1986.12
896.93	2080.74
897.10	1796.07
897.28	1713.95
897.45	1908.50
897.63	1966.87
897.80	1956.42
897.98	1809.38
898.15	1921.20
898.33	1790.74
898.50	1890.89
898.67	1829.86
898.85	1834.37
899.02	1947.62
899.20	1980.39
899.37	1832.73
899.55	1904.82
899.72	2070.50
899.90	1744.25
900.07	1763.51
900.25	1938.61
900.42	2031.18
900.59	1786.24
900.77	1919.36
900.94	1947.62
901.12	1894.99
901.29	1769.85
901.47	1919.77
901.64	1945.57
901.82	1879.63
901.99	1650.25
902.16	1767.40
902.34	2004.96
902.51	1893.35
902.69	1795.45
902.86	1830.68
903.03	2323.83
903.21	1875.94
903.38	1810.20
903.56	1771.49
903.73	1968.71
903.91	1842.97
904.08	1756.95
904.25	1671.14
904.43	1797.09
904.60	1998.61
904.78	1828.63
904.95	1754.29
905.12	1859.97
905.30	2126.82
905.47	1914.24
905.65	1963.18
905.82	1931.64
905.99	2010.29
906.17	1917.92
906.34	1868.57
906.52	1888.02
906.69	2052.68
906.86	2030.97
907.04	1957.24
907.21	2085.04
907.38	2089.34
907.56	1825.35
907.73	1827.81
907.91	2093.84
908.08	2058.21
908.25	1793.82
908.43	1778.66
908.60	1957.24
908.77	1930.42
908.95	1807.33
909.12	1782.14
909.30	1985.71
909.47	1728.08
909.64	1845.83
909.82	1952.33
909.99	1832.11
910.16	1922.84
910.34	1786.03
910.51	1816.96
910.68	1907.68
910.86	1902.97
911.03	1781.32
911.20	2070.70
911.38	2869.00
911.55	4062.15
911.72	4531.13
911.90	4746.99
912.07	5219.04
912.24	5166.00
912.42	4128.70
912.59	3279.62
912.76	3263.64
912.94	2880.47
913.11	2611.36
913.28	2451.62
913.46	2341.24
913.63	2451.21
913.80	2541.12
913.98	2207.30
914.15	2384.86
914.32	2381.17
914.49	2193.58
914.67	2033.22
914.84	2228.60
915.01	2257.07
915.19	2115.76
915.36	2005.78
915.53	2146.68
915.71	2070.29
915.88	1973.01
916.05	1824.33
916.22	2048.58
916.40	1947.21
916.57	1776.20
916.74	1865.29
916.92	2085.04
917.09	1783.58
917.26	1737.09
917.43	1755.11
917.61	1854.03
917.78	1720.29
917.95	1675.24
918.13	1721.73
918.30	2160.61
918.47	1909.94
918.64	1799.35
918.82	1803.24
918.99	1989.81
919.16	2208.53
919.33	1984.89
919.51	1907.68
919.68	2013.15
919.85	2128.86
920.02	1767.19
920.20	1857.71
920.37	2136.03
920.54	2028.51
920.71	1780.09
920.89	1798.53
921.06	2099.37
921.23	1828.43
921.40	1815.32
921.58	2185.59
921.75	2769.67
921.92	2405.13
922.09	2533.13
922.27	2548.90
922.44	2494.43
922.61	2339.39
922.78	2087.29
922.96	2039.16
923.13	2025.85
923.30	2131.94
923.47	1845.63
923.64	1932.46
923.82	2051.66
923.99	1992.26
924.16	1964.82
924.33	1819.21
924.50	1963.18
924.68	2132.35
924.85	1808.15
925.02	1853.21
925.19	2039.16
925.36	1963.18
925.54	1918.74
925.71	1897.85
925.88	2318.71
926.05	1850.75
926.22	1769.65
926.40	1856.89
926.57	1916.28
926.74	1960.93
926.91	1777.84
927.08	1987.14
927.26	2008.03
927.43	1894.17
927.60	1772.52
927.77	1820.44
927.94	2068.24
928.11	2029.74
928.29	1704.73
928.46	1861.81
928.63	1811.63
928.80	1856.28
928.97	1931.44
929.14	1763.10
929.32	2161.63
929.49	1905.43
929.66	1778.87
929.83	1697.36
930.00	1823.92
930.17	1931.85
930.35	1704.73
930.52	1785.21
930.69	2062.30
930.86	1760.43
931.03	1884.34
931.20	1647.80
931.37	2012.95
931.55	1830.88
931.72	1862.63
931.89	1703.50
932.06	1754.09
932.23	2064.35
932.40	1918.54
932.57	1879.01
932.74	2006.80
932.92	2034.86
933.09	1940.25
933.26	1586.77
933.43	1815.32
933.60	1922.22
933.77	1831.70
933.94	1877.17
934.11	1828.22
934.29	1889.66
934.46	1741.18
934.63	1880.04
934.80	1766.78
934.97	1900.11
935.14	1865.49
935.31	1738.11
935.48	1801.19
935.65	1945.16
935.82	1873.69
936.00	1737.50
936.17	2080.12
936.34	1868.36
936.51	1909.12
936.68	1744.66
936.85	1916.28
937.02	1914.65
937.19	1890.28
937.36	1803.44
937.53	1942.09
937.70	1999.02
937.87	1862.42
938.05	1889.46
938.22	1901.13
938.39	1772.31
938.56	1831.91
938.73	1723.98
938.90	1849.73
939.07	1807.54
939.24	1826.38
939.41	1661.52
939.58	1934.31
939.75	1966.05
939.92	1776.41
940.09	1949.05
940.26	1842.15
940.43	2010.08
940.60	1766.78
940.77	1821.87
940.95	1939.43
941.12	1981.61
941.29	1777.02
941.46	1833.14
941.63	2000.87
941.80	2100.40
941.97	1702.68
942.14	1678.11
942.31	1975.06
942.48	1856.07
942.65	1867.95
942.82	1802.83
942.99	1930.01
943.16	1905.84
943.33	1730.12
943.50	1766.37
943.67	1943.11
943.84	2006.39
944.01	1773.75
944.18	1733.81
944.35	2036.91
944.52	1789.72
944.69	1869.80
944.86	1694.69
945.03	1992.06
945.20	2210.78
945.37	1694.49
945.54	1828.02
945.71	2068.86
945.88	2114.12
946.05	1754.09
946.22	1773.34
946.39	2076.64
946.56	1898.26
946.73	1693.47
946.90	1744.66
947.07	1831.50
947.24	1846.24
947.41	1683.64
947.58	1907.48
947.75	1969.53
947.92	1948.44
948.09	1589.43
948.26	1691.01
948.43	1907.48
948.60	2105.72
948.77	1755.72
948.94	1786.03
949.11	1962.98
949.27	1917.51
949.44	1766.58
949.61	1756.75
949.78	1913.01
949.95	1990.22
950.12	1720.50
950.29	1695.31
950.46	1799.75
950.63	2001.89
950.80	1759.41
950.97	1817.98
951.14	1998.41
951.31	1833.55
951.48	1739.14
951.65	1732.17
951.82	2110.84
951.99	1911.98
952.15	1675.24
952.32	1765.76
952.49	1779.28
952.66	1797.09
952.83	1763.92
953.00	1735.24
953.17	1855.46
953.34	1975.88
953.51	1831.09
953.68	1823.72
953.85	2014.79
954.02	1986.94
954.18	1778.66
954.35	1842.56
954.52	1772.72
954.69	1899.08
954.86	1654.96
955.03	1813.68
955.20	1985.51
955.37	1853.41
955.54	1766.17
955.71	1765.14
955.87	1943.73
956.04	2099.99
956.21	1791.56
956.38	1743.44
956.55	1896.21
956.72	2182.73
956.89	1814.30
957.06	1755.31
957.23	1782.76
957.39	2019.91
957.56	1775.18
957.73	1701.45
957.90	1633.46
958.07	2100.19
958.24	1836.41
958.41	1769.04
958.57	1963.39
958.74	1868.36
958.91	1713.95
959.08	1778.46
959.25	1937.17
959.42	1851.57
959.59	1837.64
959.75	1768.01
959.92	2041.82
960.09	2020.73
960.26	1727.87
960.43	1826.58
960.60	1929.80
960.76	1835.59
960.93	1676.47
961.10	1856.69
961.27	2005.78
961.44	1836.62
961.61	1694.08
961.77	1728.28
961.94	1894.99
962.11	1991.65
962.28	1813.48
962.45	1704.93
962.62	1838.46
962.78	2009.26
962.95	1731.56
963.12	1752.24
963.29	1952.33
963.46	2246.01
963.62	1846.45
963.79	1787.67
963.96	2198.70
964.13	1827.61
964.30	1877.17
964.46	1755.11
964.63	1787.26
964.80	2246.62
964.97	1685.27
965.14	1982.43
965.30	2079.10
965.47	2155.28
965.64	2073.36
965.81	2036.30
965.98	2199.11
966.14	2030.36
966.31	1887.61
966.48	1862.22
966.65	2097.12
966.81	2015.20
966.98	1834.78
967.15	1880.04
967.32	1939.63
967.49	1850.54
967.65	1727.05
967.82	1667.05
967.99	1885.77
968.16	1683.02
968.32	1960.52
968.49	1786.03
968.66	1862.83
968.83	2097.94
968.99	1843.79
969.16	1731.76
969.33	2051.04
969.50	1973.42
969.66	1902.97
969.83	2013.36
970.00	1993.70
970.17	1934.72
970.33	1775.59
970.50	1737.91
970.67	2051.66
970.84	2054.32
971.00	1722.75
971.17	1683.84
971.34	1957.45
971.50	1900.92
971.67	1891.91
971.84	1831.91
972.01	1714.35
972.17	1641.45
972.34	1721.52
972.51	1890.28
972.67	2011.31
972.84	1896.83
973.01	1722.75
973.18	1747.94
973.34	1990.63
973.51	1791.15
973.68	1799.14
973.84	1807.54
974.01	1809.59
974.18	2088.31
974.34	1876.14
974.51	1858.33
974.68	1796.48
974.85	2102.24
975.01	1912.19
975.18	1805.08
975.35	1876.35
975.51	1778.87
975.68	1659.06
975.85	1914.44
976.01	1803.24
976.18	2036.09
976.35	1813.27
976.51	1772.11
976.68	2079.92
976.85	2040.80
977.01	1842.76
977.18	1850.54
977.35	1944.96
977.51	1745.48
977.68	1611.55
977.85	1700.02
978.01	2024.21
978.18	1979.57
978.35	1838.46
978.51	1858.12
978.68	2020.73
978.85	2084.83
979.01	1786.65
979.18	1820.64
979.34	1870.41
979.51	1904.20
979.68	1769.65
979.84	1815.93
980.01	2232.49
980.18	1905.43
980.34	1758.80
980.51	1860.99
980.67	1977.52
980.84	1967.89
981.01	1805.28
981.17	1890.89
981.34	1686.30
981.51	1976.49
981.67	1728.08
981.84	1887.41
982.00	1930.21
982.17	1855.46
982.34	1687.32
982.50	1565.06
982.67	2078.28
982.83	1787.88
983.00	1719.06
983.17	1593.52
983.33	2007.42
983.50	1681.59
983.66	1700.63
983.83	1634.69
984.00	1830.68
984.16	1883.93
984.33	1615.44
984.49	1593.11
984.66	1731.97
984.83	1989.19
984.99	1654.96
985.16	1591.07
985.32	1936.35
985.49	1957.86
985.65	1749.58
985.82	1611.55
985.99	2037.93
986.15	1903.59
986.32	1702.48
986.48	1666.02
986.65	1812.66
986.81	1960.32
986.98	1597.83
987.14	1668.48
987.31	1898.67
987.48	1729.30
987.64	1536.80
987.81	1590.66
987.97	2147.30
988.14	1781.73
988.30	1639.19
988.47	1515.09
988.63	1899.49
988.80	1761.46
988.96	1678.31
989.13	1721.93
989.30	1813.68
989.46	1957.65
989.63	1559.32
989.79	1623.22
989.96	1854.44
990.12	2043.87
990.29	1667.87
990.45	1675.03
990.62	1869.18
990.78	2007.42
990.95	1729.30
991.11	1638.38
991.28	1790.33
991.44	1917.10
991.61	1554.00
991.77	1687.73
991.94	1878.19
992.10	2013.97
992.27	1713.13
992.43	1686.71
992.60	1943.32
992.76	1808.97
992.93	1785.83
993.09	1586.77
993.26	1979.77
993.42	2079.51
993.59	1637.76
993.75	1581.03
993.92	1778.87
994.08	1781.94
994.25	1731.76
994.41	1597.62
994.58	1932.26
994.74	2037.73
994.91	1606.63
995.07	1705.96
995.24	1841.12
995.40	1877.58
995.56	1786.44
995.73	1733.61
995.89	2077.46
996.06	1845.02
996.22	1624.45
996.39	1541.30
996.55	1844.61
996.72	1925.50
996.88	1576.32
997.05	1610.73
997.21	2109.61
997.37	1934.31
997.54	1717.63
997.70	1664.18
997.87	1900.92
998.03	1863.04
998.20	1561.78
998.36	1578.37
998.52	1944.75
998.69	1979.16
998.85	1578.57
999.02	1676.88
999.18	1987.14
999.35	1976.49
999.51	1667.46
999.67	1651.89
999.84	1755.72
1000.00	1948.23
1000.17	1718.25
1000.33	1618.30
1000.49	1812.86
1000.66	1847.06
1000.82	1625.06
1000.99	1705.14
1001.15	2017.45
1001.31	1828.84
1001.48	1675.85
1001.64	1716.61
1001.81	1827.20
1001.97	2108.59
1002.13	1645.75
1002.30	1629.36
1002.46	2010.49
1002.63	1843.38
1002.79	1728.28
1002.95	1629.98
1003.12	1998.61
1003.28	1929.60
1003.45	1627.93
1003.61	1595.57
1003.77	1909.32
1003.94	1707.19
1004.10	1646.36
1004.26	1720.91
1004.43	1967.89
1004.59	2092.00
1004.75	1626.29
1004.92	1631.21
1005.08	1819.01
1005.25	1922.84
1005.41	1683.64
1005.57	1737.50
1005.74	2041.62
1005.90	1844.20
1006.06	1771.08
1006.23	1651.07
1006.39	1969.74
1006.55	2228.39
1006.72	1789.52
1006.88	1629.16
1007.04	1788.90
1007.21	1874.30
1007.37	1691.21
1007.53	1663.36
1007.70	2057.80
1007.86	1954.58
1008.02	1738.73
1008.19	1631.00
1008.35	1897.03
1008.51	1790.33
1008.68	1691.42
1008.84	1605.40
1009.00	1749.78
1009.17	2018.68
1009.33	1765.35
1009.49	1749.37
1009.65	1771.08
1009.82	1903.18
1009.98	1717.02
1010.14	1585.95
1010.31	1969.74
1010.47	1929.60
1010.63	1718.86
1010.80	1679.13
1010.96	1941.68
1011.12	1853.00
1011.28	1652.71
1011.45	1652.30
1011.61	2207.10
1011.77	1749.58
1011.94	1620.97
1012.10	1580.83
1012.26	1741.39
1012.42	1806.51
1012.59	1678.72
1012.75	1696.54
1012.91	1856.28
1013.07	1974.65
1013.24	1587.99
1013.40	1626.29
1013.56	1885.56
1013.72	1846.86
1013.89	1712.92
1014.05	1728.08
1014.21	2102.24
1014.37	2189.69
1014.54	1700.22
1014.70	1594.14
1014.86	1830.06
1015.02	1743.85
1015.19	1658.65
1015.35	1601.92
1015.51	1830.06
1015.67	1825.97
1015.84	1654.35
1016.00	1643.49
1016.16	2015.00
1016.32	1945.57
1016.49	1658.04
1016.65	1616.26
1016.81	1865.29
1016.97	1938.40
1017.14	1754.70
1017.30	1645.54
1017.46	1825.35
1017.62	1897.44
1017.78	1708.42
1017.95	1622.20
1018.11	1956.63
1018.27	2153.64
1018.43	1774.36
1018.59	1717.84
1018.76	1987.14
1018.92	2203.61
1019.08	1614.41
1019.24	1661.11
1019.40	2037.11
1019.57	1909.12
1019.73	1746.51
1019.89	1647.80
1020.05	1899.90
1020.21	2126.61
1020.38	1622.20
1020.54	1797.71
1020.70	1938.20
1020.86	1963.18
1021.02	1661.93
1021.18	1657.83
1021.35	1836.41
1021.51	1963.80
1021.67	1787.67
1021.83	1645.54
1021.99	1875.94
1022.15	1933.69
1022.32	1754.29
1022.48	1703.30
1022.64	2023.19
1022.80	2069.68
1022.96	1705.96
1023.12	1597.83
1023.29	1975.88
1023.45	1909.53
1023.61	1641.86
1023.77	1787.88
1023.93	1893.96
1024.09	1765.35
1024.25	1620.35
1024.42	1579.80
1024.58	1814.30
1024.74	1931.85
1024.90	1665.82
1025.06	1694.08
1025.22	1794.64
1025.38	2089.95
1025.54	1601.31
1025.71	1722.96
1025.87	1965.03
1026.03	1930.62
1026.19	1630.59
1026.35	1796.27
1026.51	1919.97
1026.67	1866.72
1026.83	1707.80
1026.99	1760.64
1027.16	1904.20
1027.32	1839.08
1027.48	1670.73
1027.64	1617.69
1027.80	1964.41
1027.96	1893.14
1028.12	1673.60
1028.28	1633.05
1028.44	1907.89
1028.60	2060.05
1028.77	1801.19
1028.93	1693.67
1029.09	1824.74
1029.25	1728.90
1029.41	1677.90
1029.57	1738.93
1029.73	1905.63
1029.89	2059.85
1030.05	1779.48
1030.21	1708.21
1030.37	2168.80
1030.53	1950.49
1030.69	1690.39
1030.85	1596.19
1031.02	1747.94
1031.18	1875.73
1031.34	1663.36
1031.50	1732.58
1031.66	1781.53
1031.82	2050.22
1031.98	1703.91
1032.14	1624.45
1032.30	1776.61
1032.46	1998.41
1032.62	1776.61
1032.78	1571.82
1032.94	1787.67
1033.10	1841.74
1033.26	1720.70
1033.42	1763.71
1033.58	2148.52
1033.74	1834.57
1033.90	1644.31
1034.06	1831.70
1034.22	2148.11
1034.38	1987.76
1034.54	1694.90
1034.70	1710.26
1034.86	2097.12
>>>>>End Processed Spectral Data<<<<<
