SpectraSuite Data File
++++++++++++++++++++++++++++++++++++
Date: Thu Mar 30 14:10:27 PDT 2017
User: UCSD _CER
Dark Spectrum Present: No
Reference Spectrum Present: No
Number of Sampled Component Spectra: 1
Spectrometers: USB4C00073
Integration Time (usec): 380000 (USB4C00073)
Spectra Averaged: 10 (USB4C00073)
Boxcar Smoothing: 0 (USB4C00073)
Correct for Electrical Dark: No (USB4C00073)
Strobe/Lamp Enabled: No (USB4C00073)
Correct for Detector Non-linearity: No (USB4C00073)
Correct for Stray Light: No (USB4C00073)
Number of Pixels in Processed Spectrum: 3648
>>>>>Begin Processed Spectral Data<<<<<
345.37	1210.76
345.58	1210.76
345.80	1210.76
346.01	1205.43
346.22	1208.51
346.43	2000.87
346.65	1825.56
346.86	2317.89
347.07	2257.27
347.28	1777.43
347.50	1794.23
347.71	2037.73
347.92	1777.43
348.13	1764.53
348.35	1729.10
348.56	2064.56
348.77	1854.23
348.98	1783.37
349.20	1646.98
349.41	2058.21
349.62	2198.70
349.83	1857.92
350.05	1766.37
350.26	2106.75
350.47	2253.18
350.68	1810.20
350.90	1715.58
351.11	2276.11
351.32	2271.20
351.53	1849.52
351.75	1753.88
351.96	2081.15
352.17	2057.80
352.38	1893.35
352.60	1884.34
352.81	2078.28
353.02	2365.40
353.23	1783.78
353.44	1816.14
353.66	1988.17
353.87	2039.37
354.08	1887.61
354.29	1780.91
354.51	1964.21
354.72	2033.63
354.93	1782.96
355.14	1785.62
355.35	1790.95
355.57	2225.53
355.78	1832.93
355.99	1919.56
356.20	2056.16
356.42	2017.04
356.63	1886.59
356.84	1811.43
357.05	2210.17
357.26	2437.49
357.48	1926.73
357.69	1870.82
357.90	2146.07
358.11	2006.39
358.32	1826.79
358.54	1874.10
358.75	1998.00
358.96	2182.32
359.17	1783.78
359.38	1841.53
359.60	2138.69
359.81	2043.87
360.02	1812.04
360.23	1753.47
360.44	1932.87
360.66	2229.42
360.87	1798.53
361.08	1749.78
361.29	2117.39
361.50	2078.28
361.72	1793.20
361.93	1873.07
362.14	2049.40
362.35	1823.31
362.56	1947.82
362.77	1685.48
362.99	2152.01
363.20	2059.23
363.41	1853.00
363.62	1671.76
363.83	2144.43
364.05	2171.87
364.26	1740.57
364.47	1759.61
364.68	2211.60
364.89	1906.04
365.10	1714.97
365.32	1808.56
365.53	1913.01
365.74	1979.77
365.95	1782.96
366.16	1684.86
366.37	2029.95
366.59	1981.41
366.80	1797.09
367.01	1675.03
367.22	2333.25
367.43	2493.61
367.64	1855.66
367.86	1797.91
368.07	2142.79
368.28	2243.75
368.49	1686.50
368.70	1834.98
368.91	1985.10
369.12	2045.72
369.34	1720.29
369.55	1690.39
369.76	2048.79
369.97	1983.87
370.18	1688.76
370.39	1784.60
370.60	1814.71
370.82	1889.66
371.03	1813.68
371.24	1763.10
371.45	2174.53
371.66	2139.31
371.87	1769.24
372.08	1818.39
372.30	1920.59
372.51	2228.80
372.72	1935.94
372.93	1829.45
373.14	2297.41
373.35	1945.98
373.56	1742.62
373.78	1803.24
373.99	2180.27
374.20	2520.44
374.41	1788.08
374.62	1808.36
374.83	2316.05
375.04	2010.49
375.25	1839.28
375.47	1817.57
375.68	1978.75
375.89	2197.06
376.10	1843.17
376.31	1906.86
376.52	2141.36
376.73	2116.58
376.94	1850.34
377.15	1775.18
377.37	2051.25
377.58	2016.02
377.79	1696.33
378.00	1760.43
378.21	2102.44
378.42	2147.70
378.63	1846.45
378.84	1903.79
379.05	2219.59
379.27	2067.63
379.48	1907.68
379.69	1766.37
379.90	2295.16
380.11	1762.69
380.32	1833.96
380.53	1952.94
380.74	2305.19
380.95	2068.45
381.16	1847.27
381.37	1858.94
381.59	2300.48
381.80	2213.04
382.01	1815.93
382.22	1737.50
382.43	2172.28
382.64	2068.65
382.85	1761.66
383.06	1873.89
383.27	2165.73
383.48	2033.84
383.69	1865.70
383.91	1779.07
384.12	2204.64
384.33	2205.46
384.54	1886.79
384.75	1803.65
384.96	2611.36
385.17	2297.41
385.38	1870.82
385.59	1816.14
385.80	2217.95
386.01	2309.90
386.22	1954.79
386.43	1841.53
386.64	2456.95
386.86	2071.11
387.07	1951.71
387.28	1773.95
387.49	2020.12
387.70	2318.92
387.91	1974.65
388.12	1861.19
388.33	2151.19
388.54	2012.54
388.75	1787.47
388.96	1889.25
389.17	1964.21
389.38	2047.15
389.59	1868.36
389.80	1896.42
390.01	2059.23
390.22	1974.45
390.43	1933.08
390.64	1714.56
390.86	2129.27
391.07	2262.80
391.28	1821.87
391.49	1865.09
391.70	1854.03
391.91	1946.18
392.12	1807.74
392.33	1877.37
392.54	2107.16
392.75	2055.96
392.96	1936.56
393.17	1783.58
393.38	2456.54
393.59	2243.75
393.80	1753.47
394.01	1859.76
394.22	2075.21
394.43	2396.94
394.64	1796.07
394.85	1944.14
395.06	2069.47
395.27	2114.73
395.48	1822.28
395.69	1721.93
395.90	2024.62
396.11	2037.73
396.32	1821.67
396.53	1910.75
396.74	2025.65
396.95	2253.38
397.16	1801.19
397.37	1691.42
397.58	2199.72
397.79	2054.52
398.00	1847.47
398.21	1846.65
398.42	2084.01
398.63	2397.15
398.84	1789.31
399.05	1775.79
399.26	2275.50
399.47	2122.72
399.68	1691.01
399.89	1770.88
400.10	1879.42
400.31	2006.80
400.52	1911.37
400.73	1829.86
400.94	1863.65
401.15	2171.26
401.36	1883.52
401.57	1887.20
401.78	2252.56
401.99	2237.00
402.20	1767.19
402.41	1960.52
402.62	2295.36
402.83	2043.05
403.04	1794.64
403.25	2011.92
403.46	2152.01
403.67	2353.53
403.88	1901.54
404.09	1892.53
404.30	2037.52
404.51	2015.41
404.72	1813.48
404.93	2008.44
405.14	1958.27
405.35	2035.48
405.56	1847.47
405.77	1776.00
405.98	2095.69
406.19	2068.04
406.40	1823.72
406.61	1855.87
406.82	2041.42
407.03	2519.21
407.24	1811.43
407.45	1906.04
407.66	2152.21
407.87	2228.80
408.08	1908.71
408.29	1909.32
408.49	2183.95
408.70	2048.17
408.91	1808.97
409.12	1947.82
409.33	1918.13
409.54	2280.00
409.75	1807.54
409.96	1865.70
410.17	2220.00
410.38	2041.62
410.59	1798.53
410.80	1949.26
411.01	2046.33
411.22	2012.74
411.43	1903.38
411.64	1791.77
411.85	1904.82
412.06	1904.00
412.27	1647.18
412.47	1771.90
412.68	2043.46
412.89	2133.16
413.10	1841.74
413.31	1727.46
413.52	2379.33
413.73	2370.93
413.94	1801.39
414.15	1948.44
414.36	1995.34
414.57	1923.86
414.78	1797.50
414.99	1978.13
415.19	2463.09
415.40	2509.79
415.61	2482.14
415.82	2327.72
416.03	2525.56
416.24	2373.19
416.45	1998.41
416.66	1832.52
416.87	1901.33
417.08	2174.33
417.29	1813.89
417.50	1937.17
417.70	2238.84
417.91	2223.89
418.12	2005.37
418.33	1996.16
418.54	2325.06
418.75	2493.40
418.96	2343.49
419.17	2518.59
419.38	3104.11
419.59	3036.93
419.79	2785.24
420.00	2612.39
420.21	3045.74
420.42	2419.68
420.63	2016.43
420.84	1984.48
421.05	2094.05
421.26	2061.28
421.47	1744.66
421.67	2145.25
421.88	1959.09
422.09	1916.90
422.30	2084.83
422.51	1925.09
422.72	2434.83
422.93	2241.91
423.14	1904.82
423.35	1756.75
423.55	1844.40
423.76	1936.56
423.97	1841.33
424.18	1736.27
424.39	2063.53
424.60	2240.89
424.81	1906.86
425.02	2078.69
425.22	2301.92
425.43	2307.45
425.64	2400.01
425.85	2349.22
426.06	2839.92
426.27	2612.80
426.48	2378.51
426.68	2331.00
426.89	2561.60
427.10	2707.21
427.31	2135.83
427.52	1957.04
427.73	2309.70
427.94	2199.52
428.14	2032.61
428.35	1901.54
428.56	2357.21
428.77	2229.62
428.98	1893.96
429.19	1976.70
429.40	2156.51
429.60	2218.36
429.81	2159.79
430.02	2058.82
430.23	2188.66
430.44	2238.02
430.65	1848.70
430.85	1895.40
431.06	2140.74
431.27	1820.64
431.48	1835.39
431.69	1872.25
431.90	2076.44
432.10	2093.43
432.31	1983.46
432.52	2041.42
432.73	2772.13
432.94	2671.37
433.15	2357.62
433.35	2155.69
433.56	2532.11
433.77	2361.72
433.98	2685.71
434.19	2846.88
434.40	3219.41
434.60	3202.61
434.81	2991.47
435.02	2575.53
435.23	2514.91
435.44	2338.17
435.64	1993.08
435.85	1900.52
436.06	2066.81
436.27	2082.78
436.48	1876.96
436.68	1930.01
436.89	2532.52
437.10	2402.88
437.31	2068.45
437.52	2163.68
437.73	2279.59
437.93	2247.85
438.14	2001.68
438.35	1776.20
438.56	2046.13
438.77	2070.70
438.97	2033.84
439.18	1928.37
439.39	2504.46
439.60	2152.21
439.80	2104.70
440.01	2145.04
440.22	2213.04
440.43	2289.01
440.64	1872.05
440.84	1953.97
441.05	1945.98
441.26	2536.20
441.47	1926.52
441.68	2003.94
441.88	2418.04
442.09	2536.20
442.30	2654.78
442.51	2682.02
442.71	2616.89
442.92	2572.45
443.13	2183.75
443.34	2063.53
443.55	2084.63
443.75	2241.50
443.96	1868.36
444.17	1813.89
444.38	2209.35
444.58	1931.44
444.79	1930.62
445.00	1889.46
445.21	2044.69
445.41	2022.16
445.62	1673.19
445.83	1947.41
446.04	2076.64
446.24	1837.64
446.45	1684.04
446.66	1853.00
446.87	2126.82
447.07	2001.07
447.28	2080.33
447.49	1906.86
447.70	2260.75
447.90	2273.86
448.11	1959.50
448.32	2005.37
448.53	2352.91
448.73	2281.23
448.94	1870.41
449.15	2012.95
449.36	2061.69
449.56	2127.02
449.77	1839.28
449.98	1736.88
450.19	2065.17
450.39	2127.43
450.60	2115.35
450.81	2071.73
451.02	2225.73
451.22	2369.50
451.43	1891.30
451.64	1897.44
451.84	2052.06
452.05	2295.36
452.26	1927.34
452.47	1905.23
452.67	2004.14
452.88	2302.94
453.09	1783.17
453.30	1801.19
453.50	2206.48
453.71	2429.91
453.92	1995.95
454.12	2151.80
454.33	2138.90
454.54	2192.15
454.75	1933.49
454.95	1881.26
455.16	2131.32
455.37	2174.94
455.57	1960.52
455.78	1894.58
455.99	2052.27
456.19	2099.17
456.40	1822.49
456.61	1875.53
456.82	2076.44
457.02	2244.37
457.23	2077.66
457.44	2208.53
457.64	2159.38
457.85	2329.56
458.06	2032.40
458.26	2186.21
458.47	2179.45
458.68	2361.72
458.89	2013.15
459.09	2130.09
459.30	2526.17
459.51	2192.15
459.71	1812.86
459.92	1900.11
460.13	2331.82
460.33	2667.89
460.54	2136.03
460.75	2150.98
460.95	2177.40
461.16	2254.61
461.37	1962.16
461.57	1948.44
461.78	2125.38
461.99	1948.03
462.19	2157.33
462.40	1841.12
462.61	2661.95
462.81	2254.61
463.02	1849.11
463.23	1853.00
463.43	2201.36
463.64	2005.37
463.85	3076.05
464.05	1838.87
464.26	2596.62
464.47	2283.08
464.67	2010.90
464.88	2009.06
465.09	2062.30
465.29	2266.28
465.50	2202.59
465.71	2100.60
465.91	2093.84
466.12	2090.77
466.33	1975.88
466.53	1883.31
466.74	2339.60
466.94	2050.63
467.15	1932.26
467.36	2084.63
467.56	1931.03
467.77	2104.49
467.98	1895.19
468.18	1874.92
468.39	2009.26
468.60	2378.51
468.80	1866.93
469.01	1779.48
469.21	2138.69
469.42	2301.30
469.63	1947.00
469.83	1873.28
470.04	2247.24
470.25	2329.56
470.45	2023.80
470.66	1877.17
470.86	2116.17
471.07	2013.36
471.28	1997.59
471.48	1992.47
471.69	2111.66
471.90	2797.12
472.10	2117.60
472.31	2103.47
472.51	2227.58
472.72	2319.12
472.93	2203.61
473.13	2365.61
473.34	2519.82
473.54	2450.39
473.75	2186.21
473.96	2215.29
474.16	2154.05
474.37	2223.27
474.57	2001.07
474.78	1859.56
474.99	2183.75
475.19	2133.78
475.40	1877.17
475.60	1924.07
475.81	2497.50
476.02	2286.97
476.22	2211.40
476.43	2303.56
476.63	2169.00
476.84	2365.61
477.05	1831.70
477.25	1899.08
477.46	2617.92
477.66	2141.97
477.87	1837.03
478.08	1869.18
478.28	2232.70
478.49	2036.30
478.69	1841.33
478.90	1854.64
479.10	2156.72
479.31	2321.58
479.52	1949.46
479.72	2322.19
479.93	2795.68
480.13	2786.47
480.34	2699.63
480.54	2760.46
480.75	2483.16
480.96	2521.66
481.16	2051.25
481.37	2129.48
481.57	2312.57
481.78	2242.32
481.98	2229.42
482.19	2103.06
482.40	2432.58
482.60	2188.66
482.81	2011.31
483.01	1812.45
483.22	2211.40
483.42	2204.02
483.63	1987.14
483.83	1981.41
484.04	2170.85
484.24	2376.87
484.45	2251.95
484.66	2044.69
484.86	2310.11
485.07	2028.72
485.27	2018.48
485.48	1888.84
485.68	2314.20
485.89	1993.49
486.09	2047.97
486.30	1921.20
486.50	2135.83
486.71	2097.94
486.91	2011.92
487.12	2436.88
487.33	3165.34
487.53	3345.36
487.74	3052.91
487.94	2911.19
488.15	2736.50
488.35	2522.48
488.56	2172.69
488.76	2094.25
488.97	2217.75
489.17	2316.05
489.38	2076.03
489.58	2026.47
489.79	2273.86
489.99	2197.68
490.20	1970.56
490.40	2069.06
490.61	2159.79
490.81	1999.23
491.02	1971.78
491.22	1964.82
491.43	2185.39
491.63	2064.76
491.84	2050.84
492.04	1808.56
492.25	2168.39
492.45	2076.23
492.66	1960.52
492.86	1900.11
493.07	2128.25
493.27	2541.32
493.48	1836.21
493.68	1906.86
493.89	2056.16
494.09	2181.91
494.30	1890.68
494.50	2133.78
494.71	2180.47
494.91	1875.94
495.12	1923.25
495.32	1978.34
495.53	2099.99
495.73	1901.54
495.94	2145.66
496.14	1996.97
496.35	2631.03
496.55	2244.98
496.76	2007.62
496.96	2033.84
497.17	2124.56
497.37	2158.97
497.58	1930.62
497.78	1822.49
497.98	2032.81
498.19	2069.47
498.39	1894.17
498.60	1957.04
498.80	1826.79
499.01	2175.56
499.21	1835.80
499.42	1940.66
499.62	2014.38
499.83	2458.38
500.03	1888.02
500.24	2155.49
500.44	2487.46
500.64	2450.19
500.85	2112.27
501.05	2157.94
501.26	1988.37
501.46	2393.26
501.67	1941.47
501.87	1870.82
502.08	1958.27
502.28	2030.77
502.48	2020.32
502.69	2025.03
502.89	1858.74
503.10	1959.70
503.30	1967.69
503.51	1958.27
503.71	1834.37
503.92	2158.15
504.12	1958.88
504.32	1884.13
504.53	2226.55
504.73	2182.73
504.94	2057.39
505.14	2170.64
505.35	2259.93
505.55	2254.20
505.75	2109.82
505.96	2252.77
506.16	2577.16
506.37	2110.02
506.57	1923.45
506.78	2059.03
506.98	2297.62
507.18	1906.04
507.39	1842.15
507.59	1943.73
507.80	2021.55
508.00	2104.08
508.20	2108.79
508.41	1931.44
508.61	2280.21
508.82	2238.43
509.02	2081.56
509.22	1847.47
509.43	1908.71
509.63	1984.28
509.84	1935.13
510.04	1798.12
510.24	2295.98
510.45	2189.69
510.65	1811.84
510.86	1977.93
511.06	1926.52
511.26	2214.06
511.47	2076.85
511.67	1849.11
511.88	2136.85
512.08	2206.89
512.28	1834.16
512.49	2009.47
512.69	2110.23
512.90	2108.79
513.10	1882.49
513.30	1983.05
513.51	2197.06
513.71	2411.48
513.91	2109.20
514.12	2101.42
514.32	2303.96
514.53	2054.73
514.73	2059.44
514.93	1983.87
515.14	2116.37
515.34	2348.82
515.54	1955.81
515.75	2044.08
515.95	2242.53
516.15	2347.18
516.36	1997.79
516.56	2021.75
516.77	1742.41
516.97	2182.73
517.17	1945.37
517.38	2002.30
517.58	2323.83
517.78	2015.20
517.99	2020.53
518.19	1998.00
518.39	2316.87
518.60	2055.14
518.80	1865.70
519.00	2035.27
519.21	2089.75
519.41	2390.59
519.61	1882.29
519.82	2024.01
520.02	2091.59
520.22	2062.30
520.43	1921.81
520.63	1930.62
520.83	1980.80
521.04	1828.02
521.24	2011.31
521.44	1944.75
521.65	1939.84
521.85	2171.05
522.05	1850.75
522.26	1882.29
522.46	2372.98
522.66	2193.78
522.87	1924.07
523.07	2116.58
523.27	1967.28
523.48	2319.73
523.68	1936.76
523.88	2001.89
524.09	2249.28
524.29	2092.00
524.49	1781.53
524.70	2026.87
524.90	2292.29
525.10	2132.75
525.31	1814.50
525.51	1821.87
525.71	2201.57
525.91	2145.45
526.12	1913.01
526.32	1820.44
526.52	1972.19
526.73	1959.70
526.93	1972.81
527.13	1807.33
527.34	2034.04
527.54	2058.00
527.74	1934.31
527.94	1831.70
528.15	1881.26
528.35	2052.47
528.55	2040.80
528.76	1955.20
528.96	1812.45
529.16	2205.87
529.36	2035.07
529.57	1851.77
529.77	2268.13
529.97	1934.10
530.18	1999.23
530.38	1915.06
530.58	2148.93
530.78	2061.69
530.99	1896.01
531.19	1995.34
531.39	1942.09
531.60	2098.76
531.80	1962.36
532.00	2093.43
532.20	2084.22
532.41	1954.79
532.61	1924.48
532.81	1888.43
533.01	1990.01
533.22	2135.83
533.42	2080.74
533.62	1816.75
533.82	2289.01
534.03	2050.22
534.23	2055.55
534.43	1888.64
534.63	2028.72
534.84	2101.01
535.04	2025.24
535.24	1997.59
535.44	2537.23
535.65	2026.87
535.85	1936.76
536.05	1902.36
536.25	2122.72
536.46	1955.40
536.66	2094.46
536.86	1976.49
537.06	2196.24
537.27	2278.98
537.47	1995.54
537.67	1906.66
537.87	2317.69
538.08	2060.05
538.28	1855.87
538.48	1831.29
538.68	2021.14
538.88	2170.23
539.09	1809.59
539.29	1918.33
539.49	2202.80
539.69	2126.41
539.90	2026.87
540.10	1868.77
540.30	2296.59
540.50	2019.09
540.70	1826.79
540.91	1900.52
541.11	2198.08
541.31	2331.20
541.51	1983.66
541.72	2017.86
541.92	2170.64
542.12	1968.30
542.32	1973.22
542.52	1922.02
542.73	1969.94
542.93	2169.21
543.13	1949.67
543.33	2054.11
543.53	2232.08
543.74	2196.86
543.94	1952.33
544.14	2051.45
544.34	2280.41
544.54	2129.07
544.75	2090.36
544.95	2196.45
545.15	2282.67
545.35	2402.47
545.55	2087.90
545.75	1967.07
545.96	2471.28
546.16	1960.52
546.36	1988.58
546.56	1982.02
546.76	2255.84
546.97	2353.94
547.17	1999.84
547.37	2059.23
547.57	2005.99
547.77	2216.72
547.97	2032.20
548.18	2012.74
548.38	2080.94
548.58	2287.17
548.78	1928.98
548.98	2044.28
549.18	2286.35
549.39	2425.41
549.59	2113.91
549.79	2034.25
549.99	2332.23
550.19	2259.93
550.39	2116.17
550.60	1995.13
550.80	2144.43
551.00	2156.51
551.20	1965.64
551.40	1916.90
551.60	2175.35
551.80	2141.97
552.01	2045.72
552.21	2012.33
552.41	2146.07
552.61	2392.85
552.81	2051.45
553.01	1882.70
553.21	2142.99
553.42	1927.75
553.62	1938.61
553.82	1872.87
554.02	2330.59
554.22	2217.13
554.42	1857.10
554.62	2033.22
554.83	2367.45
555.03	2384.65
555.23	2097.32
555.43	2314.41
555.63	2248.87
555.83	2225.12
556.03	2092.41
556.23	1907.27
556.44	2137.46
556.64	2320.96
556.84	1774.16
557.04	1977.31
557.24	2121.08
557.44	2114.94
557.64	2013.56
557.84	1879.63
558.04	2024.62
558.25	2194.60
558.45	1910.55
558.65	1988.37
558.85	2069.47
559.05	1835.59
559.25	1924.27
559.45	2041.62
559.65	2459.00
559.85	2942.93
560.05	2079.92
560.26	2185.80
560.46	2199.31
560.66	2099.99
560.86	2015.82
561.06	1947.21
561.26	2328.54
561.46	2206.07
561.66	1949.46
561.86	2091.80
562.06	1949.87
562.26	2056.16
562.47	2028.92
562.67	1831.70
562.87	2155.28
563.07	1857.92
563.27	1975.47
563.47	1978.95
563.67	2015.20
563.87	2139.51
564.07	1917.92
564.27	1976.90
564.47	2142.38
564.67	2167.98
564.87	1985.71
565.08	2044.49
565.28	2027.90
565.48	2195.42
565.68	2039.78
565.88	2089.75
566.08	2403.70
566.28	2088.11
566.48	1855.66
566.68	1974.04
566.88	2035.48
567.08	2259.52
567.28	2019.71
567.48	1994.93
567.68	2170.44
567.88	1877.17
568.08	1987.55
568.28	2112.48
568.48	2029.54
568.68	2288.61
568.89	2024.01
569.09	1846.04
569.29	2231.47
569.49	2185.59
569.69	1887.82
569.89	1879.22
570.09	1805.49
570.29	1978.34
570.49	1845.42
570.69	1928.57
570.89	2203.61
571.09	2445.48
571.29	1846.45
571.49	2128.66
571.69	2116.78
571.89	2164.09
572.09	1953.15
572.29	2007.01
572.49	2202.80
572.69	2191.53
572.89	1975.27
573.09	1722.75
573.29	2104.08
573.49	2123.13
573.69	1952.94
573.89	2040.39
574.09	2027.08
574.29	2298.23
574.49	1959.70
574.69	1887.82
574.89	1922.43
575.09	1967.69
575.29	1848.70
575.49	1961.95
575.69	2114.73
575.89	1890.68
576.09	1967.07
576.29	2003.53
576.49	1907.68
576.69	2044.08
576.89	1933.90
577.09	1981.00
577.29	1849.52
577.49	2422.54
577.69	1934.72
577.89	2093.43
578.09	2101.63
578.29	1839.28
578.49	1976.90
578.69	1881.67
578.89	2217.95
579.09	2095.89
579.29	1892.53
579.49	2092.82
579.69	2025.85
579.89	2362.13
580.09	1769.65
580.29	1806.10
580.49	1987.55
580.69	1923.25
580.89	1917.31
581.09	1939.84
581.29	1980.80
581.49	2050.43
581.69	1860.99
581.89	1895.60
582.09	1955.61
582.28	1943.32
582.48	2052.88
582.68	2113.50
582.88	2341.44
583.08	2059.44
583.28	1996.56
583.48	1964.62
583.68	1957.86
583.88	2094.66
584.08	1983.05
584.28	1992.26
584.48	2379.94
584.68	2178.83
584.88	1935.33
585.08	2169.82
585.28	2225.73
585.48	2308.06
585.68	2049.61
585.87	2098.76
586.07	2178.63
586.27	2092.00
586.47	2037.52
586.67	1972.60
586.87	2071.32
587.07	2059.44
587.27	1886.38
587.47	2044.08
587.67	2395.51
587.87	2585.97
588.07	2161.84
588.27	2048.17
588.46	2340.62
588.66	2351.07
588.86	2047.56
589.06	2105.93
589.26	2286.35
589.46	2225.73
589.66	1928.78
589.86	1898.47
590.06	2071.93
590.26	2210.78
590.46	2029.74
590.66	2146.89
590.85	2134.60
591.05	2224.09
591.25	2000.66
591.45	2054.32
591.65	2225.12
591.85	2161.22
592.05	1974.65
592.25	2105.93
592.45	2314.00
592.64	2123.95
592.84	2034.66
593.04	1919.77
593.24	2521.05
593.44	2007.83
593.64	1991.85
593.84	2077.25
594.04	2031.79
594.24	2353.94
594.43	1930.82
594.63	1996.97
594.83	2254.20
595.03	2227.99
595.23	1898.88
595.43	1829.66
595.63	1955.81
595.83	2242.53
596.02	1749.58
596.22	1934.51
596.42	2126.61
596.62	2084.01
596.82	1933.49
597.02	2006.19
597.22	2308.68
597.41	2085.24
597.61	1946.59
597.81	2083.60
598.01	2208.53
598.21	2013.15
598.41	1899.08
598.61	1908.50
598.80	2084.01
599.00	2149.55
599.20	2149.55
599.40	1987.96
599.60	2049.40
599.80	2213.04
599.99	2096.30
600.19	1987.96
600.39	2102.65
600.59	2219.38
600.79	2058.41
600.99	1994.93
601.19	2374.82
601.38	2400.63
601.58	2051.45
601.78	1771.29
601.98	2207.71
602.18	2350.25
602.37	2476.20
602.57	2352.71
602.77	2633.07
602.97	2566.51
603.17	2524.12
603.37	2390.80
603.56	2577.57
603.76	2532.72
603.96	2331.00
604.16	2310.52
604.36	2537.02
604.56	2413.94
604.75	2034.04
604.95	2180.47
605.15	2427.05
605.35	2346.36
605.55	2041.42
605.74	1992.47
605.94	2311.13
606.14	2147.50
606.34	2044.28
606.54	2082.58
606.73	2031.58
606.93	2240.68
607.13	1932.05
607.33	2023.19
607.53	2335.09
607.72	2237.82
607.92	2055.75
608.12	2112.68
608.32	2061.49
608.51	2188.46
608.71	1865.29
608.91	2066.81
609.11	2182.52
609.31	2046.54
609.50	2013.36
609.70	2220.61
609.90	2272.63
610.10	2262.80
610.29	1961.34
610.49	1897.24
610.69	2238.23
610.89	2138.49
611.09	2041.42
611.28	2204.64
611.48	2282.26
611.68	2081.56
611.88	1978.13
612.07	1891.09
612.27	2232.70
612.47	1967.48
612.67	1992.88
612.86	2078.28
613.06	2079.10
613.26	1846.86
613.46	1933.49
613.65	2043.67
613.85	2533.13
614.05	2173.10
614.25	2077.46
614.44	1990.22
614.64	2073.16
614.84	2026.67
615.04	1915.47
615.23	1930.21
615.43	2175.35
615.63	2168.39
615.83	1935.13
616.02	1851.16
616.22	2205.05
616.42	1910.35
616.62	1938.20
616.81	2044.08
617.01	2151.39
617.21	2090.77
617.41	1891.71
617.60	2012.74
617.80	2189.69
618.00	2186.21
618.19	2081.97
618.39	1987.55
618.59	2178.42
618.79	2039.78
618.98	1785.01
619.18	1936.97
619.38	2452.24
619.57	2042.03
619.77	1939.43
619.97	1926.93
620.17	1948.85
620.36	1872.25
620.56	2123.54
620.76	1916.90
620.95	1906.86
621.15	2007.62
621.35	1896.62
621.54	1971.17
621.74	2081.97
621.94	1941.47
622.14	1848.50
622.33	1825.15
622.53	2023.19
622.73	2024.83
622.92	1820.85
623.12	1956.63
623.32	2377.49
623.51	2177.61
623.71	1842.97
623.91	2123.13
624.10	1925.50
624.30	2086.47
624.50	1858.53
624.69	1823.10
624.89	2684.27
625.09	2000.66
625.29	1758.80
625.48	1858.53
625.68	2089.54
625.88	2245.60
626.07	2013.56
626.27	1884.34
626.47	1973.83
626.66	1846.65
626.86	1950.49
627.06	1932.46
627.25	2048.79
627.45	2343.29
627.64	1949.26
627.84	2118.21
628.04	1937.17
628.23	2381.79
628.43	1847.88
628.63	1878.19
628.82	2000.66
629.02	2390.18
629.22	2034.45
629.41	2152.62
629.61	2075.62
629.81	2420.90
630.00	1962.36
630.20	1901.74
630.40	2106.75
630.59	2180.88
630.79	2002.50
630.98	1963.39
631.18	2030.97
631.38	2038.96
631.57	2110.23
631.77	1836.00
631.97	2077.46
632.16	2132.75
632.36	1947.00
632.56	1983.05
632.75	2081.35
632.95	2244.98
633.14	1817.57
633.34	2082.17
633.54	1791.77
633.73	1999.23
633.93	1936.35
634.12	1763.92
634.32	2507.94
634.52	2070.91
634.71	1830.47
634.91	1981.82
635.11	1856.28
635.30	1956.22
635.50	1999.43
635.69	1869.59
635.89	2405.75
636.09	2246.01
636.28	1874.30
636.48	1879.63
636.67	2146.07
636.87	2195.42
637.07	2031.58
637.26	1938.20
637.46	2127.43
637.65	2270.99
637.85	2067.63
638.04	1959.50
638.24	2067.63
638.44	2172.89
638.63	2017.04
638.83	1978.95
639.02	2172.69
639.22	2178.63
639.42	1961.13
639.61	1965.03
639.81	2077.46
640.00	2037.52
640.20	2074.39
640.39	2046.74
640.59	2468.21
640.79	2362.95
640.98	2225.53
641.18	2180.06
641.37	2306.01
641.57	2164.29
641.76	2147.09
641.96	1897.65
642.15	2219.38
642.35	2103.47
642.55	2104.90
642.74	1882.70
642.94	2252.77
643.13	2355.16
643.33	1978.34
643.52	1930.01
643.72	1997.38
643.91	2075.00
644.11	1885.36
644.31	1902.97
644.50	1989.19
644.70	2300.89
644.89	2017.45
645.09	2069.88
645.28	2096.30
645.48	2164.70
645.67	1888.02
645.87	1821.87
646.06	2057.59
646.26	2127.84
646.45	1742.00
646.65	1741.80
646.84	2381.99
647.04	2031.38
647.24	1829.86
647.43	1966.87
647.63	2096.92
647.82	2342.47
648.02	1895.40
648.21	1912.60
648.41	2271.81
648.60	2033.63
648.80	2097.94
648.99	1972.40
649.19	1979.57
649.38	1823.31
649.58	1976.49
649.77	2029.13
649.97	2286.97
650.16	2161.43
650.36	1755.72
650.55	2124.36
650.75	2139.92
650.94	2338.58
651.14	1978.75
651.33	2037.93
651.53	2352.50
651.72	1983.25
651.92	1978.54
652.11	1780.91
652.31	2173.51
652.50	2156.10
652.70	2006.39
652.89	1877.78
653.09	2348.00
653.28	2106.75
653.48	1750.60
653.67	1809.18
653.87	2576.96
654.06	2119.85
654.25	2183.34
654.45	1899.29
654.64	2010.70
654.84	2053.09
655.03	1779.28
655.23	2095.28
655.42	2211.40
655.62	2378.31
655.81	2069.06
656.01	1889.25
656.20	2222.25
656.40	2377.69
656.59	1997.79
656.79	2061.49
656.98	2106.75
657.17	2242.94
657.37	1974.24
657.56	1942.50
657.76	2121.29
657.95	2258.50
658.15	1644.52
658.34	1999.02
658.54	2069.88
658.73	1886.38
658.92	1969.74
659.12	1976.49
659.31	2200.13
659.51	1912.60
659.70	2072.54
659.90	1935.94
660.09	2267.72
660.29	2105.11
660.48	1878.40
660.67	2124.97
660.87	2000.46
661.06	2151.60
661.26	2071.73
661.45	2077.05
661.65	2146.07
661.84	1977.31
662.03	1894.17
662.23	1934.31
662.42	2395.10
662.62	1909.94
662.81	1851.98
663.00	1950.08
663.20	2147.50
663.39	2244.16
663.59	2172.49
663.78	2038.75
663.97	2157.54
664.17	2335.09
664.36	1937.38
664.56	1955.40
664.75	2278.77
664.94	2210.78
665.14	2071.73
665.33	2042.44
665.53	2125.59
665.72	2061.89
665.91	2123.54
666.11	2030.15
666.30	2149.96
666.50	2158.97
666.69	2110.64
666.88	2043.87
667.08	2227.78
667.27	2167.77
667.47	2147.09
667.66	2067.42
667.85	2386.09
668.05	2206.48
668.24	2010.90
668.43	2234.54
668.63	2081.15
668.82	2360.28
669.02	2093.43
669.21	2011.31
669.40	1933.90
669.60	2404.93
669.79	1836.00
669.98	2548.70
670.18	1932.05
670.37	1887.82
670.56	1944.34
670.76	2002.71
670.95	2012.13
671.15	2201.77
671.34	1975.68
671.53	1951.10
671.73	2001.89
671.92	1962.16
672.11	1868.77
672.31	1906.25
672.50	2102.04
672.69	1866.31
672.89	1741.80
673.08	1914.65
673.27	2180.68
673.47	2095.69
673.66	1985.30
673.85	1835.39
674.05	2171.87
674.24	2292.91
674.43	2168.80
674.63	2446.50
674.82	2941.09
675.01	2237.20
675.21	2414.96
675.40	2265.05
675.59	2274.06
675.79	2579.83
675.98	2166.55
676.17	2302.33
676.37	2294.34
676.56	2127.02
676.75	2067.22
676.95	2067.01
677.14	2044.49
677.33	2252.77
677.52	1864.47
677.72	1895.80
677.91	2103.88
678.10	1841.74
678.30	1836.82
678.49	1856.69
678.68	2393.05
678.88	1797.09
679.07	2096.30
679.26	1906.25
679.45	2365.20
679.65	2263.82
679.84	1756.54
680.03	1769.45
680.23	1977.52
680.42	2455.72
680.61	1834.16
680.81	1900.72
681.00	2034.25
681.19	2130.30
681.38	2041.62
681.58	1995.13
681.77	2010.29
681.96	2193.78
682.15	1866.72
682.35	2013.77
682.54	2109.41
682.73	1862.42
682.93	1850.95
683.12	1852.80
683.31	2194.40
683.50	2511.42
683.70	1863.86
683.89	1998.61
684.08	1905.02
684.27	2197.68
684.47	1807.74
684.66	1942.50
684.85	2376.26
685.04	2263.82
685.24	1873.89
685.43	1944.96
685.62	1823.72
685.81	2134.80
686.01	2141.56
686.20	2134.39
686.39	2159.99
686.58	2742.43
686.78	2413.53
686.97	2340.21
687.16	2476.40
687.35	2343.90
687.55	2158.15
687.74	2179.45
687.93	2056.57
688.12	2192.15
688.32	2112.48
688.51	1917.51
688.70	2201.36
688.89	1949.05
689.08	1842.76
689.28	1891.91
689.47	2065.79
689.66	2077.87
689.85	2024.83
690.05	1880.85
690.24	1920.38
690.43	2082.58
690.62	1957.86
690.81	1918.33
691.01	2038.55
691.20	2000.05
691.39	1811.02
691.58	1995.95
691.77	2344.92
691.97	2076.64
692.16	2008.65
692.35	1938.40
692.54	1998.00
692.73	2189.69
692.93	2070.70
693.12	2140.13
693.31	2280.82
693.50	2217.34
693.69	2157.94
693.89	1969.12
694.08	2351.89
694.27	2345.54
694.46	1997.18
694.65	2027.08
694.85	2222.66
695.04	2237.61
695.23	2289.83
695.42	3668.94
695.61	4847.34
695.80	5676.35
696.00	6315.12
696.19	6722.05
696.38	5855.14
696.57	4939.29
696.76	4679.61
696.95	4301.96
697.15	4362.17
697.34	4073.82
697.53	3490.15
697.72	3359.90
697.91	3070.52
698.10	3057.00
698.30	2472.72
698.49	2268.74
698.68	2308.06
698.87	2126.41
699.06	1938.61
699.25	1990.01
699.45	2244.78
699.64	2092.41
699.83	2128.25
700.02	1871.43
700.21	2122.11
700.40	1952.33
700.59	1899.90
700.79	1940.25
700.98	2134.19
701.17	1959.09
701.36	1858.53
701.55	1899.29
701.74	2258.91
701.93	2020.53
702.12	2139.92
702.32	2164.50
702.51	2518.39
702.70	2468.42
702.89	2260.34
703.08	2134.19
703.27	2414.35
703.46	2280.62
703.65	2012.95
703.85	1960.11
704.04	2039.98
704.23	2308.27
704.42	1923.04
704.61	1950.49
704.80	2331.20
704.99	1940.45
705.18	2039.37
705.37	2150.16
705.57	3136.67
705.76	4381.83
705.95	4666.71
706.14	5636.83
706.33	6177.90
706.52	6015.50
706.71	4620.83
706.90	4273.09
707.09	4205.71
707.28	3934.35
707.47	3475.40
707.67	3419.29
707.86	3140.76
708.05	3251.97
708.24	2698.40
708.43	2536.20
708.62	2348.61
708.81	2121.08
709.00	1957.45
709.19	1931.85
709.38	2208.94
709.57	1919.36
709.76	1986.32
709.96	1922.43
710.15	2323.42
710.34	2085.65
710.53	2076.03
710.72	1957.24
710.91	2250.72
711.10	2181.91
711.29	2021.96
711.48	1914.85
711.67	1907.68
711.86	2120.88
712.05	1841.94
712.24	1858.12
712.43	2167.57
712.62	2292.70
712.81	1954.79
713.00	2110.64
713.19	1890.07
713.39	2169.21
713.58	1957.65
713.77	2203.82
713.96	2430.12
714.15	2404.52
714.34	2345.33
714.53	2146.07
714.72	2657.44
714.91	2139.51
715.10	2200.95
715.29	2042.64
715.48	2727.08
715.67	2344.31
715.86	2096.10
716.05	2026.06
716.24	2092.41
716.43	2033.22
716.62	1856.69
716.81	1802.01
717.00	1989.40
717.19	2310.52
717.38	1930.62
717.57	1889.25
717.76	1834.16
717.95	2197.27
718.14	1933.08
718.33	1925.30
718.52	1820.44
718.71	1812.45
718.90	1817.78
719.09	1862.83
719.28	2039.16
719.47	2216.52
719.66	2031.38
719.85	2080.74
720.04	2077.66
720.23	2120.47
720.42	1930.62
720.61	2082.78
720.80	1872.05
720.99	2121.90
721.18	1957.24
721.37	1852.18
721.56	2021.35
721.75	2197.06
721.94	1878.40
722.13	1949.05
722.32	2030.15
722.51	2183.95
722.70	1983.05
722.89	2018.48
723.08	2054.52
723.27	2210.37
723.46	1990.22
723.65	1953.56
723.84	1968.30
724.03	2256.04
724.22	1813.89
724.41	1946.39
724.60	1989.60
724.79	2189.69
724.98	1973.01
725.16	1909.32
725.35	2153.44
725.54	1916.28
725.73	1953.15
725.92	2029.33
726.11	2271.40
726.30	2740.18
726.49	2577.98
726.68	2840.12
726.87	3095.10
727.06	3226.37
727.25	2595.80
727.44	2648.43
727.63	2603.17
727.82	2533.75
728.01	2446.50
728.20	2432.17
728.38	2613.21
728.57	2311.95
728.76	2172.08
728.95	2239.66
729.14	2009.06
729.33	1997.18
729.52	1754.29
729.71	1865.49
729.90	1942.91
730.09	2027.49
730.28	1967.28
730.47	1977.72
730.66	2358.65
730.84	2173.92
731.03	2071.32
731.22	2069.88
731.41	2175.56
731.60	2216.31
731.79	1832.32
731.98	1904.41
732.17	2223.07
732.36	2171.26
732.55	1922.84
732.73	1839.90
732.92	2296.59
733.11	2166.96
733.30	1910.75
733.49	1855.25
733.68	2183.34
733.87	2167.77
734.06	1880.24
734.25	1955.81
734.43	2105.11
734.62	2264.03
734.81	2098.76
735.00	2093.64
735.19	2182.52
735.38	2258.50
735.57	1961.34
735.76	2127.43
735.94	2283.49
736.13	2711.72
736.32	2431.76
736.51	2405.95
736.70	2892.35
736.89	2961.36
737.08	3079.53
737.27	4691.49
737.45	6848.82
737.64	7658.38
737.83	8767.35
738.02	9249.45
738.21	8697.52
738.40	7048.08
738.59	6265.35
738.77	5804.56
738.96	5459.48
739.15	5243.82
739.34	4822.15
739.53	4408.46
739.72	4285.17
739.90	3935.58
740.09	3143.43
740.28	2871.66
740.47	2779.50
740.66	2550.75
740.85	2102.65
741.03	2114.32
741.22	2042.23
741.41	2129.89
741.60	1898.67
741.79	2095.69
741.98	2337.76
742.16	2412.71
742.35	2059.64
742.54	2083.81
742.73	2549.11
742.92	2163.27
743.10	1985.10
743.29	2048.58
743.48	2619.97
743.67	2116.17
743.86	1913.01
744.05	1967.89
744.23	2038.96
744.42	2036.09
744.61	2079.30
744.80	1935.54
744.99	2082.58
745.17	1896.01
745.36	1859.76
745.55	2108.59
745.74	2159.99
745.93	2059.44
746.11	1972.81
746.30	1919.56
746.49	2328.13
746.68	2026.26
746.86	2024.21
747.05	2011.92
747.24	2271.61
747.43	2265.67
747.62	1927.14
747.80	2001.68
747.99	2367.45
748.18	2338.37
748.37	2124.15
748.56	2174.12
748.74	2395.71
748.93	2471.08
749.12	3897.49
749.31	8229.35
749.49	11976.93
749.68	14476.68
749.87	16553.12
750.06	17378.45
750.24	16470.17
750.43	15560.47
750.62	16957.59
750.81	17353.26
750.99	18042.20
751.18	17500.30
751.37	14453.33
751.56	12233.13
751.74	11969.15
751.93	10778.46
752.12	8674.17
752.31	7514.41
752.49	6526.88
752.68	5980.27
752.87	4850.41
753.06	4255.47
753.24	3734.47
753.43	3456.15
753.62	2662.36
753.81	2413.94
753.99	2670.55
754.18	2349.84
754.37	2055.96
754.55	2104.70
754.74	2478.86
754.93	1903.38
755.12	1970.35
755.30	1932.87
755.49	2286.56
755.68	2161.63
755.86	2103.47
756.05	1861.19
756.24	2365.20
756.43	1930.82
756.61	1926.73
756.80	2017.45
756.99	2351.07
757.17	2119.65
757.36	1911.16
757.55	1971.58
757.74	2207.71
757.92	2128.86
758.11	1866.31
758.30	1805.49
758.48	2095.48
758.67	1956.42
758.86	2067.63
759.04	1948.23
759.23	2123.54
759.42	2202.80
759.60	2008.44
759.79	2039.57
759.98	2090.36
760.16	1994.52
760.35	1942.50
760.54	1914.85
760.73	2164.50
760.91	1902.97
761.10	1984.69
761.29	2070.50
761.47	2096.92
761.66	2461.66
761.85	2090.16
762.03	2562.42
762.22	4925.77
762.41	12185.82
762.59	19948.85
762.78	24020.01
762.97	29315.24
763.15	31299.72
763.34	27857.90
763.52	20367.87
763.71	19070.48
763.90	17163.21
764.08	16086.79
764.27	14761.14
764.46	13662.82
764.64	11918.56
764.83	10525.54
765.02	9238.39
765.20	7951.03
765.39	6433.08
765.58	4742.48
765.76	3843.63
765.95	3306.86
766.13	2794.45
766.32	2389.57
766.51	2259.11
766.69	3010.31
766.88	2343.70
767.07	1952.53
767.25	1822.69
767.44	2320.76
767.62	2345.95
767.81	1933.08
768.00	1983.46
768.18	2133.98
768.37	1977.72
768.56	1820.64
768.74	1908.91
768.93	1896.01
769.11	2130.91
769.30	1983.05
769.49	1909.94
769.67	2047.76
769.86	2016.43
770.04	1921.81
770.23	1877.37
770.42	2283.28
770.60	2076.23
770.79	1866.72
770.97	2074.18
771.16	3158.58
771.35	4868.23
771.53	6298.94
771.72	7394.40
771.90	8655.13
772.09	9196.40
772.27	7963.32
772.46	6141.65
772.65	6255.73
772.83	5705.23
773.02	5376.12
773.20	4841.40
773.39	4819.28
773.58	4460.68
773.76	3835.44
773.95	3574.52
774.13	3477.66
774.32	3008.67
774.50	2537.64
774.69	2440.97
774.87	2287.79
775.06	2614.64
775.25	1984.69
775.43	1996.97
775.62	2148.32
775.80	2174.94
775.99	1988.78
776.17	1934.51
776.36	2110.84
776.54	2291.47
776.73	1966.05
776.92	2037.52
777.10	2275.09
777.29	2179.86
777.47	1934.92
777.66	1925.91
777.84	2123.33
778.03	2073.98
778.21	1866.72
778.40	1978.54
778.58	2161.22
778.77	2241.50
778.95	1834.78
779.14	1883.72
779.32	2355.98
779.51	2213.04
779.70	1856.69
779.88	1779.07
780.07	2012.54
780.25	2464.94
780.44	1950.69
780.62	2030.97
780.81	2167.57
780.99	2122.11
781.18	1883.11
781.36	1865.09
781.55	1997.59
781.73	2290.65
781.92	1795.25
782.10	1845.02
782.29	2133.78
782.47	2310.52
782.66	1912.80
782.84	1792.38
783.03	1937.17
783.21	2274.68
783.40	1879.63
783.58	1895.80
783.77	1967.89
783.95	2072.75
784.14	1853.21
784.32	1949.67
784.51	2245.19
784.69	1954.17
784.88	1789.72
785.06	1913.21
785.24	1821.26
785.43	2228.39
785.61	2002.71
785.80	1848.70
785.98	2145.04
786.17	2090.57
786.35	1826.58
786.54	2047.97
786.72	2214.88
786.91	2245.39
787.09	1947.41
787.28	1841.53
787.46	2076.44
787.65	2218.97
787.83	1810.40
788.01	1931.44
788.20	1915.87
788.38	2123.95
788.57	1945.98
788.75	1938.40
788.94	2405.13
789.12	2302.94
789.31	1993.29
789.49	2091.59
789.67	1995.13
789.86	2154.46
790.04	1912.80
790.23	1834.37
790.41	2462.89
790.60	2061.69
790.78	1924.68
790.96	1969.33
791.15	2211.81
791.33	2054.73
791.52	1957.04
791.70	1863.04
791.89	2101.22
792.07	2216.31
792.25	1956.63
792.44	1847.27
792.62	2262.19
792.81	2020.12
792.99	1983.46
793.17	1973.63
793.36	2121.08
793.54	2966.07
793.73	4118.06
793.91	5708.10
794.10	6862.54
794.28	7985.64
794.46	8116.92
794.65	7726.78
794.83	6165.00
795.01	5789.20
795.20	5529.11
795.38	5173.78
795.57	5007.69
795.75	4784.26
795.93	4238.27
796.12	3946.64
796.30	3903.63
796.49	3652.96
796.67	3048.40
796.85	2945.80
797.04	2761.69
797.22	2646.79
797.40	2195.22
797.59	2265.46
797.77	2292.70
797.96	2171.46
798.14	2039.98
798.32	2042.85
798.51	2333.87
798.69	2528.22
798.87	2066.20
799.06	2052.47
799.24	2045.72
799.42	2866.95
799.61	3665.66
799.79	4446.34
799.98	5415.65
800.16	5865.18
800.34	7369.41
800.53	9083.56
800.71	9722.12
800.89	11373.80
801.08	11430.74
801.26	11305.20
801.44	9453.63
801.63	7810.34
801.81	7589.57
801.99	6855.17
802.18	6505.99
802.36	6117.28
802.54	5543.65
802.73	4856.76
802.91	4591.55
803.09	4187.28
803.28	3752.70
803.46	3363.58
803.64	3314.23
803.83	2612.39
804.01	2359.26
804.19	2199.31
804.38	2454.49
804.56	2363.56
804.74	2122.11
804.92	2107.16
805.11	2017.04
805.29	2354.34
805.47	2018.68
805.66	1935.94
805.84	1999.43
806.02	2312.98
806.21	2003.32
806.39	2196.45
806.57	2329.77
806.76	2288.40
806.94	2071.73
807.12	2052.68
807.30	2138.49
807.49	2293.32
807.67	2181.50
807.85	2289.42
808.04	2353.53
808.22	2588.63
808.40	1941.88
808.58	1898.06
808.77	2260.34
808.95	2558.12
809.13	2991.06
809.31	5583.58
809.50	8365.54
809.68	9812.23
809.86	11013.77
810.05	12075.85
810.23	14180.95
810.41	22063.79
810.59	37930.63
810.78	47264.46
810.96	55360.08
811.14	59611.05
811.32	58470.33
811.51	46610.34
811.69	37123.32
811.87	36747.52
812.05	32043.95
812.24	29898.09
812.42	27582.66
812.60	24428.79
812.78	20748.59
812.97	17524.26
813.15	15629.48
813.33	13154.10
813.51	11023.81
813.70	8620.51
813.88	6766.69
814.06	5347.45
814.24	4102.90
814.42	3170.05
814.61	2999.05
814.79	2974.47
814.97	2227.99
815.15	2227.99
815.34	2376.46
815.52	2416.19
815.70	2024.21
815.88	2075.62
816.06	2035.07
816.25	2080.94
816.43	1977.31
816.61	2071.32
816.79	2312.36
816.98	1881.88
817.16	1881.47
817.34	1857.71
817.52	2112.89
817.70	2315.02
817.89	1947.21
818.07	1842.56
818.25	2031.18
818.43	2102.85
818.61	1926.52
818.80	1872.66
818.98	2311.95
819.16	2081.76
819.34	1823.10
819.52	2165.32
819.70	1920.59
819.89	2033.84
820.07	1776.41
820.25	1751.01
820.43	2075.62
820.61	2209.55
820.80	1915.67
820.98	1791.97
821.16	1763.92
821.34	1862.83
821.52	1871.23
821.70	1999.43
821.89	2068.86
822.07	2027.08
822.25	1957.86
822.43	1812.25
822.61	2304.58
822.79	2082.99
822.98	1897.24
823.16	1747.74
823.34	2092.20
823.52	2257.27
823.70	1972.19
823.88	1739.14
824.06	2107.97
824.25	2019.09
824.43	2005.99
824.61	1796.89
824.79	2045.72
824.97	2094.66
825.15	2184.98
825.33	2925.93
825.52	4085.08
825.70	4634.96
825.88	5026.33
826.06	5492.65
826.24	5725.92
826.42	5120.13
826.60	4173.97
826.78	4236.84
826.97	3846.70
827.15	4018.73
827.33	3414.99
827.51	3384.47
827.69	3185.82
827.87	3097.55
828.05	2848.72
828.23	2551.36
828.41	2816.37
828.60	2659.90
828.78	2124.56
828.96	2254.81
829.14	2112.07
829.32	2118.21
829.50	1947.62
829.68	1941.06
829.86	1994.11
830.04	2148.52
830.22	2039.37
830.41	1842.97
830.59	2033.02
830.77	2155.08
830.95	1859.15
831.13	1874.71
831.31	1915.47
831.49	2182.11
831.67	2038.75
831.85	2014.38
832.03	1979.57
832.21	2141.97
832.39	1749.78
832.57	1797.50
832.76	2181.70
832.94	1976.70
833.12	1724.80
833.30	1896.83
833.48	2234.54
833.66	2076.85
833.84	1861.60
834.02	1915.26
834.20	2172.49
834.38	2161.63
834.56	1746.51
834.74	1809.99
834.92	1816.96
835.10	2344.31
835.28	1918.95
835.46	1929.60
835.64	1991.85
835.82	1922.63
836.01	2179.24
836.19	2062.71
836.37	1975.68
836.55	1893.14
836.73	1840.10
836.91	1829.45
837.09	2130.71
837.27	2283.89
837.45	1787.67
837.63	1826.79
837.81	1867.13
837.99	2069.47
838.17	1935.74
838.35	1852.18
838.53	2418.86
838.71	2176.79
838.89	1895.40
839.07	1877.37
839.25	2124.97
839.43	2309.49
839.61	2542.14
839.79	4271.65
839.97	6278.05
840.15	7367.98
840.33	8251.06
840.51	8811.39
840.69	8530.81
840.87	6995.66
841.05	6159.47
841.23	6775.70
841.41	8971.13
841.59	12645.80
841.77	14328.82
841.95	15829.36
842.13	16900.66
842.31	16144.75
842.49	12798.17
842.67	10660.91
842.85	10628.34
843.03	9190.46
843.21	8597.37
843.39	7937.11
843.57	7122.02
843.75	6431.65
843.93	5401.11
844.11	4857.78
844.29	4555.50
844.47	4118.47
844.65	3815.37
844.83	3331.02
845.01	3034.07
845.19	2903.81
845.36	2422.34
845.54	2280.41
845.72	2252.15
845.90	2276.11
846.08	1913.42
846.26	2024.21
846.44	2164.29
846.62	2156.92
846.80	1991.04
846.98	1864.88
847.16	2007.62
847.34	2056.98
847.52	1857.51
847.70	1790.95
847.88	1991.44
848.06	2263.82
848.24	2002.71
848.41	1793.41
848.59	2181.29
848.77	2115.96
848.95	1891.71
849.13	1865.49
849.31	2194.60
849.49	2045.72
849.67	1819.83
849.85	1801.39
850.03	2061.28
850.21	2056.57
850.39	1813.68
850.57	2005.99
850.74	2290.24
850.92	2436.47
851.10	2750.01
851.28	3499.98
851.46	4221.27
851.64	4934.17
851.82	4664.45
852.00	4733.88
852.18	4464.16
852.36	3853.87
852.53	3565.51
852.71	3435.47
852.89	3434.24
853.07	3341.88
853.25	2938.63
853.43	2709.67
853.61	2858.15
853.79	2715.20
853.97	2342.88
854.14	2295.36
854.32	2630.82
854.50	2437.90
854.68	2099.58
854.86	2023.39
855.04	1985.30
855.22	2213.44
855.40	1782.35
855.57	1824.13
855.75	2152.21
855.93	2116.37
856.11	1728.90
856.29	1834.37
856.47	1929.60
856.65	2061.49
856.82	1799.35
857.00	1739.34
857.18	1969.12
857.36	1949.87
857.54	1931.23
857.72	2023.80
857.89	2128.25
858.07	2026.87
858.25	2069.88
858.43	1762.07
858.61	1979.16
858.79	2011.11
858.97	1819.83
859.14	1916.08
859.32	1966.66
859.50	1940.04
859.68	1951.71
859.86	1801.19
860.03	2035.89
860.21	2140.33
860.39	1859.15
860.57	1984.89
860.75	2094.66
860.93	2330.59
861.10	2068.24
861.28	1830.06
861.46	2103.26
861.64	2118.42
861.82	1865.49
861.99	1984.69
862.17	2193.78
862.35	2176.58
862.53	1887.00
862.71	1900.31
862.88	2078.07
863.06	2099.99
863.24	1884.54
863.42	1839.69
863.60	1970.97
863.77	2110.02
863.95	1704.52
864.13	1878.19
864.31	1959.29
864.49	2157.13
864.66	1778.46
864.84	1831.29
865.02	2059.64
865.20	2475.38
865.37	1943.93
865.55	1842.76
865.73	1926.93
865.91	2371.96
866.09	2297.41
866.26	2327.52
866.44	2590.48
866.62	2441.59
866.80	2175.76
866.97	2169.62
867.15	2244.37
867.33	2275.70
867.51	2214.47
867.68	2113.71
867.86	2132.35
868.04	2081.35
868.22	1808.15
868.39	1928.78
868.57	2130.91
868.75	2308.68
868.93	1801.80
869.10	1871.02
869.28	2353.53
869.46	2267.10
869.64	1891.50
869.81	1858.53
869.99	2061.08
870.17	2039.37
870.35	1797.09
870.52	1847.68
870.70	2148.52
870.88	1914.24
871.05	1766.17
871.23	1672.99
871.41	1996.77
871.59	1988.17
871.76	1827.20
871.94	1770.47
872.12	2025.24
872.29	1793.82
872.47	1837.23
872.65	1774.97
872.83	2014.38
873.00	2241.71
873.18	1853.82
873.36	1805.90
873.53	2116.58
873.71	1779.48
873.89	1740.16
874.06	1848.29
874.24	2085.86
874.42	2181.91
874.60	1987.96
874.77	1908.71
874.95	1884.54
875.13	2206.89
875.30	1816.96
875.48	1797.50
875.66	2253.18
875.83	1912.80
876.01	1833.34
876.19	1954.79
876.36	1831.91
876.54	2022.78
876.72	1771.49
876.89	1928.37
877.07	2131.32
877.25	1735.45
877.42	1876.55
877.60	1847.88
877.78	2317.89
877.95	1942.50
878.13	1806.92
878.31	1967.28
878.48	2121.90
878.66	2110.64
878.84	1812.86
879.01	1838.87
879.19	2062.71
879.37	2085.86
879.54	1854.44
879.72	1721.73
879.90	1719.27
880.07	2147.50
880.25	1633.46
880.42	1980.39
880.60	2042.23
880.78	2099.78
880.95	1862.01
881.13	1894.17
881.31	1984.69
881.48	1896.01
881.66	1801.19
881.83	1943.52
882.01	1884.75
882.19	1804.67
882.36	1842.76
882.54	1843.38
882.72	2116.58
882.89	2017.86
883.07	1791.77
883.24	1836.00
883.42	2125.79
883.60	2026.26
883.77	1738.52
883.95	1850.34
884.12	2183.75
884.30	2015.20
884.48	1983.66
884.65	1869.59
884.83	2036.70
885.00	2054.93
885.18	1736.06
885.36	1820.44
885.53	2068.24
885.71	2208.32
885.88	1737.29
886.06	1825.35
886.23	2109.00
886.41	1949.46
886.59	1825.76
886.76	1768.42
886.94	2123.13
887.11	2460.22
887.29	1879.22
887.47	1759.82
887.64	2198.49
887.82	2213.85
887.99	1679.74
888.17	1875.94
888.34	1958.27
888.52	1855.05
888.69	1817.57
888.87	1742.21
889.05	1950.69
889.22	1929.39
889.40	1804.87
889.57	2046.13
889.75	2233.11
889.92	1930.01
890.10	1766.78
890.27	1874.71
890.45	1908.91
890.62	1751.22
890.80	1774.56
890.98	1666.84
891.15	2270.17
891.33	2170.03
891.50	1795.04
891.68	1707.80
891.85	2138.69
892.03	2122.92
892.20	1764.94
892.38	1746.51
892.55	2121.90
892.73	2104.90
892.90	1693.67
893.08	1795.04
893.25	1939.22
893.43	1911.16
893.60	1885.97
893.78	1665.41
893.95	2072.75
894.13	1982.84
894.30	1808.56
894.48	1862.63
894.65	2150.37
894.83	2041.82
895.00	1664.18
895.18	1666.43
895.35	2136.03
895.53	2098.55
895.70	1715.58
895.88	1926.32
896.05	2050.43
896.23	1803.03
896.40	1802.62
896.58	1887.82
896.75	2117.39
896.93	2207.10
897.10	1801.39
897.28	1706.78
897.45	2038.14
897.63	2084.83
897.80	1910.96
897.98	1818.39
898.15	2058.41
898.33	1899.08
898.50	1867.34
898.67	1823.92
898.85	1942.50
899.02	2075.21
899.20	2046.13
899.37	1840.30
899.55	2010.08
899.72	2212.83
899.90	1816.55
900.07	1799.55
900.25	2075.41
900.42	2209.96
900.59	1814.50
900.77	1915.06
900.94	2089.13
901.12	2049.40
901.29	1819.42
901.47	1933.08
901.64	2095.48
901.82	2010.08
901.99	1630.80
902.16	1756.54
902.34	2184.98
902.51	2050.02
902.69	1780.71
902.86	1862.22
903.03	2596.21
903.21	1991.24
903.38	1837.03
903.56	1790.13
903.73	2180.27
903.91	1946.80
904.08	1755.52
904.25	1667.05
904.43	1891.91
904.60	2145.66
904.78	1808.97
904.95	1742.82
905.12	1968.71
905.30	2261.57
905.47	1897.65
905.65	1997.79
905.82	1982.84
905.99	2089.95
906.17	1825.56
906.34	1798.32
906.52	1877.37
906.69	2075.62
906.86	1919.97
907.04	1919.36
907.21	2172.69
907.38	2178.42
907.56	1789.52
907.73	1770.67
907.91	2245.60
908.08	2201.36
908.25	1828.43
908.43	1752.86
908.60	2106.95
908.77	2058.41
908.95	1859.97
909.12	1751.83
909.30	2120.47
909.47	1794.23
909.64	1854.85
909.82	2018.27
909.99	2009.88
910.16	2029.54
910.34	1791.56
910.51	1843.58
910.68	2067.63
910.86	2050.43
911.03	1954.99
911.20	2657.44
911.38	4830.54
911.55	7647.32
911.72	8903.13
911.90	9850.32
912.07	10906.25
912.24	10558.71
912.42	8035.41
912.59	5750.49
912.76	5534.23
912.94	4577.21
913.11	4042.69
913.28	3574.73
913.46	3503.26
913.63	3459.43
913.80	3403.52
913.98	2952.35
914.15	3202.61
914.32	3160.63
914.49	2814.52
914.67	2627.13
914.84	2878.83
915.01	2926.14
915.19	2638.40
915.36	2408.21
915.53	2659.08
915.71	2449.58
915.88	2152.42
916.05	1968.30
916.22	2279.59
916.40	2132.55
916.57	1797.30
916.74	2004.55
916.92	2293.11
917.09	1930.01
917.26	1796.27
917.43	1736.88
917.61	1940.25
917.78	1769.45
917.95	1761.46
918.13	1743.03
918.30	2370.93
918.47	2034.04
918.64	1806.72
918.82	1768.42
918.99	2012.13
919.16	2304.78
919.33	1881.88
919.51	1861.81
919.68	2016.23
919.85	2221.43
920.02	1723.98
920.20	1856.89
920.37	2276.11
920.54	2132.14
920.71	1786.85
920.89	1837.44
921.06	2307.04
921.23	1895.60
921.40	1945.98
921.58	2512.04
921.75	3496.50
921.92	3096.53
922.09	3189.51
922.27	3224.73
922.44	3244.80
922.61	2911.39
922.78	2330.18
922.96	2281.85
923.13	2325.06
923.30	2469.44
923.47	1980.80
923.64	2033.02
923.82	2322.40
923.99	2246.01
924.16	2081.76
924.33	1924.48
924.50	2179.24
924.68	2397.76
924.85	1913.21
925.02	1951.92
925.19	2251.54
925.36	2145.25
925.54	1963.80
925.71	1980.80
925.88	2577.37
926.05	2000.66
926.22	1781.12
926.40	1928.78
926.57	2056.37
926.74	2108.38
926.91	1788.90
927.08	1976.70
927.26	2168.59
927.43	2015.20
927.60	1790.95
927.77	1855.46
927.94	2267.51
928.11	2172.89
928.29	1712.51
928.46	1873.28
928.63	1904.82
928.80	1957.65
928.97	1919.36
929.14	1795.45
929.32	2390.59
929.49	2009.26
929.66	1756.13
929.83	1723.78
930.00	1928.57
930.17	2055.55
930.35	1735.24
930.52	1794.23
930.69	2246.01
930.86	1808.56
931.03	1883.31
931.20	1625.88
931.37	2149.34
931.55	1996.16
931.72	1869.39
931.89	1711.90
932.06	1836.00
932.23	2267.51
932.40	1908.71
932.57	1920.79
932.74	2203.41
932.92	2172.89
933.09	1974.86
933.26	1547.85
933.43	1910.75
933.60	2044.49
933.77	1870.00
933.94	1911.16
934.11	1946.39
934.29	1998.82
934.46	1775.79
934.63	1910.55
934.80	1843.79
934.97	2058.41
935.14	1898.88
935.31	1758.80
935.48	1917.92
935.65	2080.33
935.82	1866.11
936.00	1720.91
936.17	2240.48
936.34	1969.12
936.51	1888.02
936.68	1733.61
936.85	2069.68
937.02	2001.68
937.19	1899.08
937.36	1836.82
937.53	2051.45
937.70	2107.56
937.87	1813.48
938.05	1913.83
938.22	2020.73
938.39	1847.88
938.56	1829.45
938.73	1719.47
938.90	1965.85
939.07	1899.29
939.24	1882.49
939.41	1651.89
939.58	2055.34
939.75	2068.65
939.92	1765.14
940.09	2050.02
940.26	1942.29
940.43	2146.48
940.60	1833.96
940.77	1802.83
940.95	2058.82
941.12	2140.74
941.29	1818.39
941.46	1841.33
941.63	2187.44
941.80	2244.98
941.97	1680.77
942.14	1660.49
942.31	2089.54
942.48	1970.35
942.65	1915.26
942.82	1845.42
942.99	2070.09
943.16	2020.53
943.33	1725.62
943.50	1780.50
943.67	2104.49
943.84	2184.98
944.01	1799.75
944.18	1765.35
944.35	2214.26
944.52	1867.95
944.69	1869.18
944.86	1712.51
945.03	2115.14
945.20	2379.33
945.37	1644.93
945.54	1787.88
945.71	2182.11
945.88	2282.67
946.05	1736.47
946.22	1725.00
946.39	2211.60
946.56	1978.34
946.73	1668.68
946.90	1740.77
947.07	1898.88
947.24	1969.33
947.41	1648.21
947.58	1927.14
947.75	2117.80
947.92	2047.76
948.09	1591.68
948.26	1699.20
948.43	2020.94
948.60	2281.23
948.77	1769.04
948.94	1805.69
949.11	2112.48
949.27	2058.82
949.44	1758.39
949.61	1708.01
949.78	2065.38
949.95	2184.57
950.12	1705.34
950.29	1681.18
950.46	1899.29
950.63	2190.71
950.80	1772.52
950.97	1784.60
951.14	2182.32
951.31	1947.21
951.48	1761.25
951.65	1698.59
951.82	2301.51
951.99	2053.09
952.15	1684.25
952.32	1778.25
952.49	1919.15
952.66	1918.54
952.83	1774.97
953.00	1740.77
953.17	1992.06
953.34	2134.60
953.51	1851.57
953.68	1819.42
953.85	2172.49
954.02	2210.37
954.18	1832.32
954.35	1815.93
954.52	1862.63
954.69	2040.39
954.86	1666.43
955.03	1860.99
955.20	2109.00
955.37	1983.25
955.54	1773.34
955.71	1748.15
955.87	2042.64
956.04	2279.80
956.21	1778.46
956.38	1731.56
956.55	2033.63
956.72	2419.47
956.89	1832.11
957.06	1718.66
957.23	1911.98
957.39	2196.04
957.56	1806.92
957.73	1691.21
957.90	1667.66
958.07	2314.82
958.24	1822.90
958.41	1779.89
958.57	2121.08
958.74	1987.96
958.91	1695.72
959.08	1738.11
959.25	2090.57
959.42	1954.17
959.59	1827.40
959.75	1808.97
959.92	2209.96
960.09	2135.62
960.26	1745.89
960.43	1849.52
960.60	2042.85
960.76	1969.12
960.93	1684.86
961.10	1843.99
961.27	2176.58
961.44	1948.23
961.61	1672.17
961.77	1676.47
961.94	2023.80
962.11	2130.30
962.28	1775.18
962.45	1713.95
962.62	1945.16
962.78	2119.65
962.95	1680.15
963.12	1749.58
963.29	2124.15
963.46	2485.01
963.62	1870.00
963.79	1766.78
963.96	2440.77
964.13	1981.61
964.30	1896.62
964.46	1804.26
964.63	1885.77
964.80	2532.11
964.97	1895.19
965.14	2292.29
965.30	2551.56
965.47	2659.49
965.64	2470.26
965.81	2389.57
965.98	2634.92
966.14	2335.30
966.31	2014.18
966.48	1995.34
966.65	2392.85
966.81	2255.43
966.98	1980.59
967.15	1975.27
967.32	2115.55
967.49	2007.42
967.65	1801.60
967.82	1751.63
967.99	2080.12
968.16	1880.24
968.32	2023.39
968.49	1841.53
968.66	2047.97
968.83	2313.18
968.99	1941.27
969.16	1808.77
969.33	2262.39
969.50	2137.87
969.66	1972.40
969.83	2066.61
970.00	2172.69
970.17	2082.78
970.33	1814.50
970.50	1720.91
970.67	2259.73
970.84	2240.27
971.00	1741.18
971.17	1709.44
971.34	2099.78
971.50	1981.20
971.67	1860.58
971.84	1803.85
972.01	1794.23
972.17	1672.99
972.34	1686.50
972.51	1915.26
972.67	2165.11
972.84	2055.75
973.01	1748.35
973.18	1751.63
973.34	2122.51
973.51	1855.25
973.68	1801.19
973.84	1812.04
974.01	2006.60
974.18	2263.01
974.34	1812.66
974.51	1864.47
974.68	1879.42
974.85	2323.63
975.01	1896.01
975.18	1771.29
975.35	2017.86
975.51	1844.81
975.68	1645.13
975.85	1947.82
976.01	1876.96
976.18	2242.94
976.35	1778.66
976.51	1794.64
976.68	2255.63
976.85	2178.22
977.01	1801.19
977.18	1885.97
977.35	2106.13
977.51	1848.09
977.68	1653.53
977.85	1736.88
978.01	2229.01
978.18	2153.64
978.35	1874.51
978.51	1903.18
978.68	2199.72
978.85	2268.33
979.01	1829.86
979.18	1847.68
979.34	1966.25
979.51	2052.68
979.68	1760.23
979.84	1854.03
980.01	2434.01
980.18	2059.23
980.34	1739.14
980.51	1894.58
980.67	2136.44
980.84	2125.79
981.01	1818.39
981.17	1862.22
981.34	1747.33
981.51	2099.78
981.67	1724.59
981.84	1892.53
982.00	2105.31
982.17	1978.34
982.34	1668.07
982.50	1524.71
982.67	2262.60
982.83	1932.26
983.00	1684.66
983.17	1576.53
983.33	2197.47
983.50	1760.84
983.66	1675.03
983.83	1589.02
984.00	1940.66
984.16	2016.02
984.33	1584.92
984.49	1564.03
984.66	1866.93
984.83	2144.84
984.99	1616.87
985.16	1568.54
985.32	2086.06
985.49	2136.24
985.65	1689.16
985.82	1574.07
985.99	2223.27
986.15	2020.53
986.32	1711.49
986.48	1617.90
986.65	1903.79
986.81	2079.71
986.98	1586.56
987.14	1663.57
987.31	2005.37
987.48	1796.68
987.64	1522.26
987.81	1520.41
987.97	2354.14
988.14	1842.15
988.30	1612.37
988.47	1455.90
988.63	2040.39
988.80	1815.52
988.96	1665.00
989.13	1696.74
989.30	1931.44
989.46	2150.37
989.63	1523.48
989.79	1564.65
989.96	1992.06
990.12	2227.58
990.29	1591.07
990.45	1665.20
990.62	1996.77
990.78	2192.15
990.95	1709.44
991.11	1630.39
991.28	1886.59
991.44	2055.75
991.61	1508.33
991.77	1663.16
991.94	2020.12
992.10	2187.44
992.27	1665.82
992.43	1649.43
992.60	2097.94
992.76	1931.85
992.93	1796.07
993.09	1542.53
993.26	2183.95
993.42	2310.72
993.59	1611.75
993.75	1518.57
993.92	1852.18
994.08	1881.06
994.25	1679.95
994.41	1595.37
994.58	2099.58
994.74	2246.62
994.91	1591.48
995.07	1714.15
995.24	1942.09
995.40	1954.38
995.56	1740.36
995.73	1680.97
995.89	2270.38
996.06	1977.11
996.22	1599.46
996.39	1531.68
996.55	1958.68
996.72	2049.20
996.88	1560.14
997.05	1558.09
997.21	2293.52
997.37	2094.05
997.54	1719.06
997.70	1597.21
997.87	2050.02
998.03	1953.35
998.20	1514.88
998.36	1530.04
998.52	2103.06
998.69	2139.31
998.85	1549.90
999.02	1626.91
999.18	2121.08
999.35	2144.84
999.51	1657.83
999.67	1631.41
999.84	1799.96
1000.00	2109.82
1000.17	1683.23
1000.33	1591.89
1000.49	1927.75
1000.66	1967.89
1000.82	1593.11
1000.99	1668.89
1001.15	2207.51
1001.31	1955.81
1001.48	1636.12
1001.64	1690.39
1001.81	1962.77
1001.97	2336.53
1002.13	1616.67
1002.30	1657.63
1002.46	2189.07
1002.63	1930.21
1002.79	1722.96
1002.95	1570.18
1003.12	2131.32
1003.28	2058.41
1003.45	1598.23
1003.61	1551.95
1003.77	2002.71
1003.94	1789.11
1004.10	1624.86
1004.26	1704.11
1004.43	2082.99
1004.59	2284.92
1004.75	1620.35
1004.92	1565.26
1005.08	1921.20
1005.25	2041.62
1005.41	1603.76
1005.57	1668.28
1005.74	2180.27
1005.90	1919.56
1006.06	1706.78
1006.23	1602.74
1006.39	2104.49
1006.55	2429.30
1006.72	1758.80
1006.88	1543.96
1007.04	1852.59
1007.21	1970.76
1007.37	1632.03
1007.53	1591.07
1007.70	2249.90
1007.86	2106.34
1008.02	1687.53
1008.19	1567.72
1008.35	2018.89
1008.51	1862.01
1008.68	1597.62
1008.84	1574.07
1009.00	1828.84
1009.17	2170.44
1009.33	1780.30
1009.49	1694.90
1009.65	1876.96
1009.82	2051.04
1009.98	1666.02
1010.14	1503.82
1010.31	2111.25
1010.47	2081.35
1010.63	1691.62
1010.80	1663.16
1010.96	2061.49
1011.12	1973.42
1011.28	1636.94
1011.45	1598.85
1011.61	2434.22
1011.77	1841.12
1011.94	1578.78
1012.10	1568.33
1012.26	1845.83
1012.42	1912.39
1012.59	1666.64
1012.75	1655.17
1012.91	1977.52
1013.07	2095.28
1013.24	1567.11
1013.40	1600.28
1013.56	2022.57
1013.72	1962.16
1013.89	1675.85
1014.05	1709.03
1014.21	2311.54
1014.37	2400.01
1014.54	1661.52
1014.70	1572.02
1014.86	1937.38
1015.02	1806.10
1015.19	1627.32
1015.35	1566.49
1015.51	1947.00
1015.67	1908.30
1015.84	1612.98
1016.00	1622.20
1016.16	2169.82
1016.32	2124.97
1016.49	1603.76
1016.65	1543.14
1016.81	1970.56
1016.97	2061.08
1017.14	1769.44
1017.30	1628.75
1017.46	1921.61
1017.62	2023.19
1017.78	1691.42
1017.95	1601.51
1018.11	2118.62
1018.27	2378.31
1018.43	1780.09
1018.59	1693.06
1018.76	2116.37
1018.92	2418.45
1019.08	1604.38
1019.24	1636.53
1019.40	2228.19
1019.57	2055.55
1019.73	1720.29
1019.89	1638.58
1020.05	2023.39
1020.21	2316.46
1020.38	1592.09
1020.54	1785.62
1020.70	2106.75
1020.86	2104.70
1021.02	1611.34
1021.18	1594.75
1021.35	1932.05
1021.51	2064.56
1021.67	1802.21
1021.83	1667.25
1021.99	1989.81
1022.15	2062.51
1022.32	1706.98
1022.48	1685.27
1022.64	2255.02
1022.80	2245.39
1022.96	1677.08
1023.12	1541.71
1023.29	2164.50
1023.45	2060.05
1023.61	1614.82
1023.77	1863.45
1023.93	2026.47
1024.09	1859.35
1024.25	1604.58
1024.42	1546.42
1024.58	1930.62
1024.74	2008.03
1024.90	1647.80
1025.06	1702.89
1025.22	1906.04
1025.38	2269.56
1025.54	1586.15
1025.71	1718.66
1025.87	2092.61
1026.03	2068.24
1026.19	1570.38
1026.35	1776.20
1026.51	2100.60
1026.67	1990.83
1026.83	1684.45
1026.99	1788.90
1027.16	2107.77
1027.32	1941.88
1027.48	1625.68
1027.64	1581.65
1027.80	2082.17
1027.96	2013.15
1028.12	1639.40
1028.28	1602.54
1028.44	2053.50
1028.60	2247.44
1028.77	1768.83
1028.93	1659.06
1029.09	1933.49
1029.25	1822.90
1029.41	1690.60
1029.57	1728.69
1029.73	2030.15
1029.89	2242.53
1030.05	1725.62
1030.21	1700.43
1030.37	2368.27
1030.53	2097.94
1030.69	1663.36
1030.85	1533.93
1031.02	1874.51
1031.18	1995.75
1031.34	1648.21
1031.50	1723.78
1031.66	1884.75
1031.82	2231.26
1031.98	1669.91
1032.14	1573.04
1032.30	1849.93
1032.46	2119.03
1032.62	1750.60
1032.78	1555.43
1032.94	1921.61
1033.10	1918.54
1033.26	1693.26
1033.42	1761.66
1033.58	2352.09
1033.74	1909.73
1033.90	1607.04
1034.06	1807.13
1034.22	2382.20
1034.38	2175.76
1034.54	1668.89
1034.70	1655.78
1034.86	2324.65
>>>>>End Processed Spectral Data<<<<<
