SpectraSuite Data File
++++++++++++++++++++++++++++++++++++
Date: Thu Mar 30 16:05:28 PDT 2017
User: UCSD _CER
Dark Spectrum Present: No
Reference Spectrum Present: No
Number of Sampled Component Spectra: 1
Spectrometers: USB4C00073
Integration Time (usec): 250000 (USB4C00073)
Spectra Averaged: 10 (USB4C00073)
Boxcar Smoothing: 0 (USB4C00073)
Correct for Electrical Dark: No (USB4C00073)
Strobe/Lamp Enabled: No (USB4C00073)
Correct for Detector Non-linearity: No (USB4C00073)
Correct for Stray Light: No (USB4C00073)
Number of Pixels in Processed Spectrum: 3648
>>>>>Begin Processed Spectral Data<<<<<
345.37	1290.63
345.58	1290.63
345.80	1290.63
346.01	1262.57
346.22	1274.25
346.43	1974.86
346.65	1759.41
346.86	2141.56
347.07	2104.49
347.28	1800.37
347.50	1760.84
347.71	1947.82
347.92	1698.99
348.13	1799.14
348.35	1736.88
348.56	1936.76
348.77	1777.43
348.98	1811.43
349.20	1660.08
349.41	1923.66
349.62	1991.65
349.83	1865.49
350.05	1718.25
350.26	1943.73
350.47	2067.83
350.68	1780.91
350.90	1712.72
351.11	2086.68
351.32	2070.70
351.53	1812.86
351.75	1726.03
351.96	1931.23
352.17	1913.21
352.38	1861.60
352.60	1880.85
352.81	1898.67
353.02	2110.64
353.23	1751.83
353.44	1806.72
353.66	1830.68
353.87	1875.53
354.08	1890.68
354.29	1824.33
354.51	1821.46
354.72	1902.15
354.93	1783.99
355.14	1729.51
355.35	1747.12
355.57	2046.33
355.78	1833.55
355.99	1887.41
356.20	1916.69
356.42	1926.32
356.63	1904.41
356.84	1833.34
357.05	2003.12
357.26	2172.08
357.48	1888.84
357.69	1845.63
357.90	1939.02
358.11	1875.32
358.32	1781.12
358.54	1879.22
358.75	1837.44
358.96	1975.27
359.17	1776.20
359.38	1802.83
359.60	1993.29
359.81	1899.70
360.02	1794.64
360.23	1775.79
360.44	1824.33
360.66	2039.57
360.87	1778.66
361.08	1764.94
361.29	1978.13
361.50	1915.67
361.72	1768.42
361.93	1835.39
362.14	1918.33
362.35	1746.71
362.56	1897.44
362.77	1732.99
362.99	1977.11
363.20	1922.63
363.41	1860.58
363.62	1690.80
363.83	2002.09
364.05	2028.10
364.26	1712.10
364.47	1757.77
364.68	2067.01
364.89	1803.85
365.10	1731.15
365.32	1808.97
365.53	1806.92
365.74	1837.23
365.95	1800.16
366.16	1695.10
366.37	1882.90
366.59	1897.65
366.80	1822.28
367.01	1693.06
367.22	2168.59
367.43	2258.30
367.64	1794.84
367.86	1776.61
368.07	1978.75
368.28	2053.09
368.49	1735.45
368.70	1838.05
368.91	1873.69
369.12	1904.82
369.34	1707.39
369.55	1729.51
369.76	1917.92
369.97	1845.02
370.18	1729.30
370.39	1723.16
370.60	1737.91
370.82	1780.09
371.03	1830.68
371.24	1746.30
371.45	2010.90
371.66	1964.00
371.87	1808.56
372.08	1773.95
372.30	1764.73
372.51	2007.01
372.72	1886.79
372.93	1787.47
373.14	2088.93
373.35	1824.54
373.56	1763.92
373.78	1812.25
373.99	2009.88
374.20	2282.05
374.41	1768.01
374.62	1809.18
374.83	2081.56
375.04	1854.64
375.25	1800.98
375.47	1762.07
375.68	1844.61
375.89	1998.41
376.10	1837.23
376.31	1874.51
376.52	1975.68
376.73	1947.21
376.94	1813.89
377.15	1788.29
377.37	1917.31
377.58	1871.64
377.79	1680.36
378.00	1744.25
378.21	1942.09
378.42	1981.61
378.63	1815.52
378.84	1870.41
379.05	2025.65
379.27	1906.45
379.48	1918.95
379.69	1739.75
379.90	2045.31
380.11	1653.73
380.32	1806.10
380.53	1898.47
380.74	2049.40
380.95	1943.11
381.16	1797.91
381.37	1781.94
381.59	2071.52
381.80	2004.14
382.01	1738.93
382.22	1696.74
382.43	1974.04
382.64	1893.76
382.85	1756.54
383.06	1870.82
383.27	2002.50
383.48	1868.57
383.69	1833.75
383.91	1725.00
384.12	1969.33
384.33	1985.10
384.54	1818.60
384.75	1679.33
384.96	2250.72
385.17	1992.06
385.38	1777.02
385.59	1754.49
385.80	1991.65
386.01	2085.45
386.22	1876.35
386.43	1808.36
386.64	2173.10
386.86	1876.55
387.07	1918.74
387.28	1716.81
387.49	1854.64
387.70	2059.03
387.91	1861.60
388.12	1714.76
388.33	1959.29
388.54	1830.27
388.75	1763.10
388.96	1839.69
389.17	1843.58
389.38	1883.93
389.59	1861.60
389.80	1836.41
390.01	1880.65
390.22	1853.41
390.43	1902.77
390.64	1676.47
390.86	1956.83
391.07	2028.72
391.28	1807.13
391.49	1831.70
391.70	1756.54
391.91	1815.32
392.12	1806.72
392.33	1799.14
392.54	1910.55
392.75	1870.82
392.96	1869.18
393.17	1742.21
393.38	2194.40
393.59	2033.02
393.80	1752.04
394.01	1867.13
394.22	1962.36
394.43	2272.43
394.64	1881.88
394.85	2001.68
395.06	1969.94
395.27	1971.17
395.48	1823.51
395.69	1740.16
395.90	1887.41
396.11	1910.55
396.32	1781.12
396.53	1903.18
396.74	1876.55
396.95	2037.52
397.16	1746.92
397.37	1713.95
397.58	1992.88
397.79	1912.39
398.00	1869.59
398.21	1827.61
398.42	1952.74
398.63	2168.18
398.84	1807.13
399.05	1789.52
399.26	2044.90
399.47	1981.61
399.68	1650.66
399.89	1755.93
400.10	1789.72
400.31	1830.47
400.52	1805.08
400.73	1763.30
400.94	1729.30
401.15	1942.91
401.36	1789.92
401.57	1827.81
401.78	2056.16
401.99	1996.36
402.20	1728.08
402.41	1928.98
402.62	2107.36
402.83	1868.36
403.04	1743.44
403.25	1928.98
403.46	1967.89
403.67	2170.85
403.88	1923.25
404.09	1931.85
404.30	2000.05
404.51	1959.91
404.72	1844.20
404.93	1970.35
405.14	1843.38
405.35	1903.38
405.56	1796.27
405.77	1788.29
405.98	1923.66
406.19	1896.21
406.40	1749.17
406.61	1798.12
406.82	1822.08
407.03	2179.65
407.24	1726.85
407.45	1820.64
407.66	1939.63
407.87	2006.80
408.08	1865.49
408.29	1866.52
408.49	1991.44
408.70	1897.65
408.91	1822.08
409.12	1880.65
409.33	1782.55
409.54	2061.69
409.75	1766.99
409.96	1809.99
410.17	2013.36
410.38	1877.99
410.59	1788.70
410.80	1873.07
411.01	1886.38
411.22	1871.64
411.43	1838.26
411.64	1738.32
411.85	1814.91
412.06	1793.82
412.27	1632.85
412.47	1794.02
412.68	1891.91
412.89	1964.62
413.10	1786.65
413.31	1706.37
413.52	2169.82
413.73	2141.77
413.94	1747.74
414.15	1921.40
414.36	1851.16
414.57	1832.32
414.78	1793.82
414.99	2177.20
415.19	2650.28
415.40	2756.57
415.61	2945.59
415.82	2753.90
416.03	2706.60
416.24	2482.14
416.45	2181.70
416.66	1978.75
416.87	1822.08
417.08	2063.33
417.29	1821.26
417.50	1966.46
417.70	2104.49
417.91	2134.39
418.12	2070.91
418.33	2177.20
418.54	2332.23
418.75	2483.16
418.96	2573.89
419.17	2785.85
419.38	3301.94
419.59	3326.72
419.79	3218.18
420.00	3049.22
420.21	3127.66
420.42	2467.19
420.63	2152.01
420.84	2063.12
421.05	1967.48
421.26	1953.56
421.47	1755.11
421.67	2034.45
421.88	1793.20
422.09	1761.46
422.30	1958.06
422.51	1812.45
422.72	2116.17
422.93	1991.04
423.14	1804.26
423.35	1692.65
423.55	1727.05
423.76	1816.96
423.97	1818.19
424.18	1715.58
424.39	1925.09
424.60	2081.76
424.81	1875.73
425.02	2067.22
425.22	2142.38
425.43	2169.00
425.64	2359.67
425.85	2311.54
426.06	2636.96
426.27	2499.55
426.48	2494.02
426.68	2444.87
426.89	2560.17
427.10	2609.52
427.31	2173.92
427.52	1962.57
427.73	2100.81
427.94	2033.63
428.14	1928.98
428.35	1813.27
428.56	2057.39
428.77	2018.27
428.98	1901.74
429.19	2029.33
429.40	2143.61
429.60	2198.90
429.81	2275.70
430.02	2182.52
430.23	2080.74
430.44	2168.18
430.65	1863.04
430.85	1895.19
431.06	1985.10
431.27	1732.58
431.48	1800.37
431.69	1842.56
431.90	1887.41
432.10	1921.81
432.31	1868.16
432.52	1910.14
432.73	2539.48
432.94	2479.68
433.15	2373.80
433.35	2271.40
433.56	2419.47
433.77	2159.79
433.98	2109.61
434.19	2005.78
434.40	2051.25
434.60	2013.56
434.81	1863.24
435.02	1873.89
435.23	1908.09
435.44	1862.01
435.64	1700.84
435.85	1756.13
436.06	1866.93
436.27	1845.02
436.48	1733.20
436.68	1770.47
436.89	2101.22
437.10	1994.72
437.31	1846.24
437.52	1875.53
437.73	1928.16
437.93	1935.54
438.14	1870.00
438.35	1657.42
438.56	1823.31
438.77	1891.30
438.97	1936.97
439.18	1765.35
439.39	2025.03
439.60	1761.25
439.80	1700.63
440.01	1812.25
440.22	1848.91
440.43	1969.12
440.64	1719.88
440.84	1816.14
441.05	1773.75
441.26	2257.07
441.47	1860.99
441.68	1772.93
441.88	1868.57
442.09	1902.97
442.30	1941.88
442.51	1853.21
442.71	1853.00
442.92	1929.80
443.13	1746.30
443.34	1745.28
443.55	1808.77
443.75	1969.33
443.96	1759.21
444.17	1739.75
444.38	2025.24
444.58	1806.51
444.79	1872.87
445.00	1826.38
445.21	1906.04
445.41	1865.29
445.62	1626.50
445.83	1876.55
446.04	1918.95
446.24	1743.23
446.45	1653.73
446.66	1792.59
446.87	1946.59
447.07	1832.32
447.28	2019.09
447.49	1795.86
447.70	2032.20
447.90	2039.37
448.11	1807.13
448.32	1901.13
448.53	2058.00
448.73	2076.03
448.94	1799.55
449.15	1945.78
449.36	1930.21
449.56	1949.26
449.77	1783.17
449.98	1721.52
450.19	1898.88
450.39	1974.65
450.60	2005.37
450.81	1999.23
451.02	2058.62
451.22	2179.65
451.43	1865.09
451.64	1871.02
451.84	1967.28
452.05	2166.55
452.26	1925.30
452.47	1868.36
452.67	1871.64
452.88	2105.52
453.09	1790.33
453.30	1729.92
453.50	1984.07
453.71	2110.23
453.92	1811.22
454.12	1902.56
454.33	1820.64
454.54	1869.39
454.75	1776.82
454.95	1730.33
455.16	1938.40
455.37	1974.65
455.57	1857.10
455.78	1809.99
455.99	1911.16
456.19	1901.95
456.40	1735.04
456.61	1842.76
456.82	1876.14
457.02	2005.17
457.23	1855.46
457.44	1993.08
457.64	1832.93
457.85	1950.69
458.06	1821.87
458.26	1993.29
458.47	1927.14
458.68	2063.12
458.89	1772.11
459.09	1988.37
459.30	2244.16
459.51	1984.48
459.71	1765.14
459.92	1863.45
460.13	2006.60
460.33	2225.32
460.54	1780.09
460.75	1817.16
460.95	1763.51
461.16	1969.33
461.37	1799.14
461.57	1847.27
461.78	1914.44
461.99	1808.77
462.19	2029.95
462.40	1829.66
462.61	2371.75
462.81	2093.64
463.02	1785.21
463.23	1794.23
463.43	2029.13
463.64	1871.64
463.85	2759.64
464.05	1832.52
464.26	2331.00
464.47	2115.55
464.67	1991.85
464.88	1867.95
465.09	1826.58
465.29	1916.08
465.50	1918.74
465.71	1821.05
465.91	1832.32
466.12	1920.59
466.33	1883.93
466.53	1811.63
466.74	2076.44
466.94	1856.07
467.15	1814.30
467.36	2008.65
467.56	1808.56
467.77	1935.94
467.98	1869.18
468.18	1777.64
468.39	1846.86
468.60	2152.01
468.80	1859.15
469.01	1784.19
469.21	1994.93
469.42	2091.80
469.63	1884.13
469.83	1833.14
470.04	2091.80
470.25	2207.30
470.45	1935.54
470.66	1824.54
470.86	1981.00
471.07	1911.37
471.28	1939.63
471.48	1993.49
471.69	1943.11
471.90	2367.86
472.10	1832.32
472.31	1844.81
472.51	1809.99
472.72	1825.35
472.93	1759.82
473.13	1938.20
473.34	1940.25
473.54	1919.36
473.75	1842.15
473.96	1999.43
474.16	1923.66
474.37	2014.18
474.57	1924.07
474.78	1840.92
474.99	2030.77
475.19	2029.95
475.40	1838.87
475.60	1775.18
475.81	2091.80
476.02	1926.73
476.22	1924.48
476.43	2037.93
476.63	1958.47
476.84	2149.34
477.05	1759.21
477.25	1806.10
477.46	2291.47
477.66	1939.02
477.87	1732.58
478.08	1838.26
478.28	2030.15
478.49	1874.51
478.69	1786.24
478.90	1843.38
479.10	1997.59
479.31	2115.76
479.52	1893.55
479.72	1974.65
479.93	1995.75
480.13	1860.78
480.34	1810.81
480.54	1912.80
480.75	1807.54
480.96	2061.08
481.16	1775.79
481.37	1920.79
481.57	2014.59
481.78	1940.25
481.98	2004.96
482.19	1891.09
482.40	2157.13
482.60	1980.18
482.81	1933.49
483.01	1864.47
483.22	2088.52
483.42	2094.66
483.63	1979.16
483.83	1921.40
484.04	1833.75
484.24	2029.54
484.45	1897.65
484.66	1770.06
484.86	1962.36
485.07	1818.39
485.27	1912.80
485.48	1819.21
485.68	2080.53
485.89	1840.92
486.09	1902.56
486.30	1828.84
486.50	1927.96
486.71	1961.54
486.91	1972.60
487.12	2055.75
487.33	2256.04
487.53	2290.04
487.74	2010.49
487.94	2005.78
488.15	2130.71
488.35	2221.43
488.56	2091.59
488.76	2037.32
488.97	2103.67
489.17	2123.33
489.38	1947.41
489.58	1906.04
489.79	2029.54
489.99	2015.82
490.20	1888.84
490.40	1950.28
490.61	1992.06
490.81	1883.31
491.02	1887.20
491.22	1929.80
491.43	2061.49
491.63	1948.85
491.84	2024.62
492.04	1767.19
492.25	2017.25
492.45	1902.97
492.66	1842.56
492.86	1749.37
493.07	1896.83
493.27	2193.37
493.48	1709.64
493.68	1868.57
493.89	1923.86
494.09	2037.93
494.30	1836.82
494.50	2074.80
494.71	1997.18
494.91	1853.82
495.12	1956.01
495.32	2018.89
495.53	2015.82
495.73	1791.97
495.94	1869.80
496.14	1712.31
496.35	2180.47
496.55	1892.94
496.76	1847.68
496.96	1903.38
497.17	1942.91
497.37	1997.79
497.58	1831.29
497.78	1796.48
497.98	1912.19
498.19	1925.50
498.39	1930.82
498.60	1945.78
498.80	1782.35
499.01	2024.62
499.21	1798.94
499.42	1858.94
499.62	1861.81
499.83	2201.36
500.03	1731.15
500.24	1899.90
500.44	2102.04
500.64	2055.34
500.85	1845.02
501.05	1939.02
501.26	1730.94
501.46	2098.14
501.67	1814.71
501.87	1773.13
502.08	1822.28
502.28	1904.61
502.48	1934.92
502.69	1994.11
502.89	1809.18
503.10	1909.32
503.30	1928.16
503.51	1927.34
503.71	1783.78
503.92	2047.35
504.12	2006.60
504.32	1955.81
504.53	2131.73
504.73	2193.78
504.94	2113.09
505.14	2232.90
505.35	2244.57
505.55	2246.01
505.75	2149.14
505.96	2239.25
506.16	2350.45
506.37	2016.63
506.57	1930.21
506.78	2005.37
506.98	2126.00
507.18	1853.21
507.39	1874.71
507.59	1913.83
507.80	1911.78
508.00	2008.44
508.20	2060.46
508.41	1953.76
508.61	2136.44
508.82	2068.45
509.02	1983.46
509.22	1801.80
509.43	1793.20
509.63	1856.07
509.84	1860.17
510.04	1787.26
510.24	2108.79
510.45	2035.89
510.65	1778.46
510.86	1925.50
511.06	1808.36
511.26	2079.71
511.47	2010.49
511.67	1890.07
511.88	2052.68
512.08	2073.36
512.28	1794.64
512.49	1976.09
512.69	1993.08
512.90	1957.65
513.10	1828.02
513.30	1884.13
513.51	1976.90
513.71	2111.87
513.91	1949.87
514.12	1963.80
514.32	2103.88
514.53	1974.04
514.73	2106.34
514.93	2028.51
515.14	2147.91
515.34	2392.23
515.54	2257.48
515.75	2353.73
515.95	2478.45
516.15	2525.15
516.36	2215.90
516.56	2149.34
516.77	1787.88
516.97	2128.45
517.17	1982.43
517.38	2074.39
517.58	2243.55
517.78	2113.30
517.99	2300.07
518.19	2370.93
518.39	2615.05
518.60	2461.66
518.80	2281.64
519.00	2262.39
519.21	2138.69
519.41	2306.01
519.61	1930.82
519.82	2018.89
520.02	2028.51
520.22	2024.01
520.43	1975.47
520.63	2029.74
520.83	1953.76
521.04	1886.18
521.24	2240.27
521.44	2242.32
521.65	2334.48
521.85	2548.70
522.05	2287.38
522.26	2165.52
522.46	2402.88
522.66	2175.15
522.87	1941.47
523.07	2096.71
523.27	1986.32
523.48	2219.79
523.68	2024.62
523.88	2023.60
524.09	2167.37
524.29	2092.20
524.49	1937.58
524.70	2247.65
524.90	2370.93
525.10	2295.36
525.31	2052.27
525.51	1957.86
525.71	2116.58
525.91	2040.19
526.12	1879.01
526.32	1786.03
526.52	1877.99
526.73	1846.65
526.93	1957.24
527.13	1771.70
527.34	1940.04
527.54	1952.53
527.74	1898.26
527.94	1821.26
528.15	1897.24
528.35	1973.83
528.55	1989.19
528.76	1967.69
528.96	1746.30
529.16	2044.90
529.36	2028.51
529.57	1778.25
529.77	2056.98
529.97	1812.45
530.18	1976.29
530.38	1876.55
530.58	2008.03
530.78	1965.85
530.99	1895.19
531.19	1984.69
531.39	1866.11
531.60	1960.52
531.80	1871.43
532.00	2006.19
532.20	1971.37
532.41	1846.04
532.61	1855.87
532.81	1891.09
533.01	1893.14
533.22	1988.37
533.42	1995.34
533.62	1692.03
533.82	2086.27
534.03	1912.19
534.23	1948.03
534.43	1842.76
534.63	1909.12
534.84	1976.49
535.04	1918.54
535.24	1922.63
535.44	2245.39
535.65	1879.22
535.85	1826.17
536.05	1824.94
536.25	1944.96
536.46	1834.37
536.66	2089.34
536.86	1990.83
537.06	2107.56
537.27	2164.29
537.47	2027.69
537.67	1884.54
537.87	2126.41
538.08	1919.77
538.28	1831.29
538.48	1838.05
538.68	1950.49
538.88	2052.27
539.09	1813.07
539.29	1907.89
539.49	2089.75
539.69	1987.35
539.90	1956.83
540.10	1849.32
540.30	2155.08
540.50	1934.92
540.70	1864.06
540.91	1966.05
541.11	2162.45
541.31	2275.91
541.51	2169.82
541.72	2222.66
541.92	2223.68
542.12	2045.31
542.32	2022.37
542.52	1946.59
542.73	1937.38
542.93	2061.28
543.13	1945.16
543.33	2060.46
543.53	2193.58
543.74	2208.12
543.94	2074.59
544.14	2265.46
544.34	2401.65
544.54	2277.55
544.75	2415.17
544.95	2566.51
545.15	2448.76
545.35	2474.97
545.55	2270.99
545.75	2066.40
545.96	2385.27
546.16	1960.32
546.36	2008.85
546.56	2009.26
546.76	2157.74
546.97	2230.24
547.17	1965.03
547.37	2017.66
547.57	1904.61
547.77	2033.63
547.97	1971.78
548.18	1969.53
548.38	2023.39
548.58	2527.19
548.78	2603.38
548.98	2951.12
549.18	3305.01
549.39	3470.08
549.59	3044.51
549.79	2778.89
549.99	2842.58
550.19	2657.24
550.39	2517.36
550.60	2292.09
550.80	2247.65
551.00	2231.06
551.20	2029.13
551.40	1988.37
551.60	2082.17
551.80	2066.40
552.01	2081.35
552.21	2006.39
552.41	2075.82
552.61	2222.25
552.81	2018.27
553.01	1869.39
553.21	2033.63
553.42	1889.25
553.62	1871.84
553.82	1864.68
554.02	2137.06
554.22	2059.23
554.42	1817.78
554.62	1992.47
554.83	2351.27
555.03	2623.04
555.23	2570.41
555.43	2986.14
555.63	2934.94
555.83	2823.12
556.03	2509.99
556.23	2340.42
556.44	2502.00
556.64	2539.89
556.84	2153.64
557.04	2366.02
557.24	2394.89
557.44	2244.78
557.64	2121.29
557.84	1979.36
558.04	2017.45
558.25	2117.60
558.45	1917.10
558.65	2026.47
558.85	2059.64
559.05	1885.97
559.25	2028.92
559.45	2188.05
559.65	2583.72
559.85	3104.72
560.05	2541.73
560.26	2696.56
560.46	2701.27
560.66	2480.50
560.86	2322.81
561.06	2185.39
561.26	2427.46
561.46	2249.49
561.66	2053.09
561.86	2195.01
562.06	1996.16
562.26	2045.92
562.47	2017.04
562.67	1849.93
562.87	2079.92
563.07	1830.06
563.27	2024.21
563.47	2036.91
563.67	1964.21
563.87	2156.72
564.07	2047.76
564.27	2150.16
564.47	2269.56
564.67	2357.21
564.87	2227.37
565.08	2291.47
565.28	2122.92
565.48	2239.25
565.68	2146.27
565.88	2102.04
566.08	2250.92
566.28	2026.26
566.48	1830.27
566.68	1920.38
566.88	1910.96
567.08	2053.50
567.28	1943.93
567.48	1976.49
567.68	2081.56
567.88	1932.67
568.08	2106.75
568.28	2176.38
568.48	2038.96
568.68	2231.06
568.89	2071.52
569.09	1847.88
569.29	2130.71
569.49	2093.43
569.69	1860.58
569.89	1836.21
570.09	1731.35
570.29	1862.01
570.49	1761.46
570.69	1836.82
570.89	2034.86
571.09	2188.66
571.29	1755.93
571.49	2011.72
571.69	1969.12
571.89	1975.06
572.09	1842.35
572.29	1831.50
572.49	2020.53
572.69	1995.54
572.89	1959.09
573.09	1788.70
573.29	2084.01
573.49	2157.94
573.69	2119.65
573.89	2200.95
574.09	2009.26
574.29	2191.12
574.49	1913.01
574.69	1868.98
574.89	1823.72
575.09	1842.97
575.29	1826.38
575.49	1915.87
575.69	1951.51
575.89	1789.52
576.09	1934.92
576.29	1931.85
576.49	1862.22
576.69	1946.59
576.89	1956.83
577.09	1997.38
577.29	1813.89
577.49	2221.02
577.69	1860.99
577.89	2013.36
578.09	1977.31
578.29	1801.39
578.49	1913.83
578.69	1853.62
578.89	2064.15
579.09	1961.13
579.29	1868.57
579.49	2053.50
579.69	1922.02
579.89	2214.06
580.09	1776.61
580.29	1748.15
580.49	1869.18
580.69	1826.38
580.89	1875.73
581.09	1883.93
581.29	1861.60
581.49	1885.56
581.69	1803.24
581.89	1806.92
582.09	1825.56
582.28	1817.16
582.48	2048.58
582.68	2161.63
582.88	2196.04
583.08	2031.58
583.28	1998.20
583.48	1992.88
583.68	1901.95
583.88	1978.54
584.08	1966.46
584.28	1915.26
584.48	2179.45
584.68	2010.90
584.88	1902.15
585.08	2082.99
585.28	2078.28
585.48	2114.94
585.68	2046.54
585.87	2050.02
586.07	2006.80
586.27	1967.89
586.47	2026.47
586.67	1942.70
586.87	1927.96
587.07	1922.02
587.27	1833.96
587.47	2005.17
587.67	2309.70
587.87	2643.31
588.07	2471.49
588.27	2480.70
588.46	2748.37
588.66	2775.41
588.86	2457.97
589.06	2383.22
589.26	2379.33
589.46	2252.77
589.66	1977.31
589.86	1949.87
590.06	2061.69
590.26	2230.03
590.46	2162.45
590.66	2314.82
590.85	2239.25
591.05	2327.31
591.25	2078.28
591.45	2116.37
591.65	2210.17
591.85	2216.93
592.05	2197.27
592.25	2348.61
592.45	2415.58
592.64	2272.22
592.84	2205.05
593.04	2040.80
593.24	2466.78
593.44	2085.45
593.64	2158.76
593.84	2174.33
594.04	2096.71
594.24	2312.77
594.43	1986.94
594.63	2013.56
594.83	2124.15
595.03	2102.65
595.23	1850.34
595.43	1773.13
595.63	1894.58
595.83	2060.67
596.02	1731.76
596.22	1951.51
596.42	2041.42
596.62	1979.77
596.82	1922.43
597.02	2066.40
597.22	2128.04
597.41	2022.57
597.61	1932.05
597.81	2091.18
598.01	2147.91
598.21	2024.21
598.41	2020.53
598.61	1962.77
598.80	2041.42
599.00	2101.22
599.20	2174.53
599.40	2003.73
599.60	2043.46
599.80	2145.25
599.99	2166.96
600.19	2008.85
600.39	2078.28
600.59	2107.36
600.79	2035.68
600.99	2021.55
601.19	2235.77
601.38	2275.29
601.58	2077.05
601.78	1862.63
601.98	2340.21
602.18	3105.54
602.37	3851.41
602.57	4100.65
602.77	4496.11
602.97	4643.36
603.17	4350.30
603.37	4119.08
603.56	4109.66
603.76	4004.39
603.96	3860.83
604.16	3588.04
604.36	3388.36
604.56	3096.94
604.75	2703.32
604.95	2644.54
605.15	2693.49
605.35	2540.30
605.55	2296.18
605.74	2231.06
605.94	2358.65
606.14	2148.73
606.34	2110.23
606.54	2034.25
606.73	1957.86
606.93	2061.89
607.13	1879.42
607.33	1962.77
607.53	2177.61
607.72	2080.74
607.92	2032.20
608.12	2058.00
608.32	1930.42
608.51	2073.57
608.71	1952.94
608.91	2102.04
609.11	2186.41
609.31	2122.31
609.50	2291.06
609.70	2470.06
609.90	2449.58
610.10	2430.53
610.29	2286.15
610.49	2154.46
610.69	2298.64
610.89	2164.29
611.09	2167.57
611.28	2190.92
611.48	2186.21
611.68	1997.38
611.88	1966.46
612.07	1951.10
612.27	2137.46
612.47	1917.51
612.67	2031.99
612.86	2086.06
613.06	1965.03
613.26	1779.48
613.46	1964.21
613.65	2064.76
613.85	2501.80
614.05	2285.12
614.25	2255.43
614.44	2133.78
614.64	2147.09
614.84	2103.88
615.04	2077.05
615.23	2088.11
615.43	2191.33
615.63	2172.69
615.83	1983.05
616.02	1981.82
616.22	2334.27
616.42	2212.22
616.62	2261.57
616.81	2379.33
617.01	2388.96
617.21	2339.19
617.41	2129.27
617.60	2153.23
617.80	2207.30
618.00	2137.06
618.19	2088.93
618.39	2056.98
618.59	2033.63
618.79	1962.77
618.98	1753.88
619.18	1896.83
619.38	2207.30
619.57	1901.33
619.77	1882.29
619.97	1905.02
620.17	1919.97
620.36	1947.41
620.56	2240.68
620.76	2065.99
620.95	2156.51
621.15	2220.82
621.35	2102.04
621.54	2114.12
621.74	2116.17
621.94	1986.12
622.14	1938.81
622.33	1849.73
622.53	1977.11
622.73	1953.56
622.92	1790.95
623.12	1926.93
623.32	2165.32
623.51	2022.78
623.71	1758.18
623.91	2044.49
624.10	1808.77
624.30	1957.65
624.50	1801.80
624.69	1787.88
624.89	2430.73
625.09	1858.33
625.29	1696.74
625.48	1795.86
625.68	1930.62
625.88	2026.26
626.07	1954.38
626.27	1786.03
626.47	1842.35
626.66	1700.84
626.86	1875.53
627.06	1879.01
627.25	1907.89
627.45	2112.07
627.64	1879.22
627.84	2047.97
628.04	1811.63
628.23	2178.83
628.43	1803.03
628.63	1877.37
628.82	1965.44
629.02	2283.28
629.22	2171.05
629.41	2237.20
629.61	2138.90
629.81	2452.03
630.00	2118.42
630.20	2088.72
630.40	2244.37
630.59	2273.04
630.79	2128.66
630.98	2073.57
631.18	2041.21
631.38	2021.35
631.57	2121.90
631.77	1816.96
631.97	1953.56
632.16	1993.29
632.36	1922.02
632.56	1930.82
632.75	1927.96
632.95	2008.85
633.14	1732.17
633.34	2035.48
633.54	1715.58
633.73	1838.87
633.93	1830.27
634.12	1720.91
634.32	2186.82
634.52	1901.33
634.71	1783.17
634.91	1937.79
635.11	1741.59
635.30	1803.44
635.50	1938.81
635.69	1813.07
635.89	2176.38
636.09	2100.40
636.28	1878.60
636.48	1906.04
636.67	2087.29
636.87	2054.11
637.07	1999.43
637.26	1891.71
637.46	2044.69
637.65	2169.82
637.85	2035.89
638.04	1937.38
638.24	2001.89
638.44	2051.86
638.63	1961.95
638.83	1933.49
639.02	2006.80
639.22	2033.43
639.42	1863.65
639.61	1904.61
639.81	1927.34
640.00	1908.91
640.20	1961.34
640.39	1991.24
640.59	2450.60
640.79	2443.23
640.98	2478.66
641.18	2517.16
641.37	2564.47
641.57	2380.97
641.76	2308.68
641.96	2048.17
642.15	2216.11
642.35	2130.50
642.55	2120.47
642.74	1945.78
642.94	2139.51
643.13	2154.87
643.33	1937.58
643.52	1849.52
643.72	1877.37
643.91	1887.61
644.11	1826.79
644.31	1809.38
644.50	1841.74
644.70	2050.43
644.89	1869.39
645.09	1941.27
645.28	1896.01
645.48	1971.78
645.67	1796.68
645.87	1722.55
646.06	1898.47
646.26	1973.42
646.45	1710.26
646.65	1702.27
646.84	2148.52
647.04	1879.22
647.24	1769.24
647.43	1920.79
647.63	1931.85
647.82	2089.95
648.02	1744.66
648.21	1820.64
648.41	2082.17
648.60	1880.85
648.80	1980.80
648.99	1906.04
649.19	1816.96
649.38	1730.94
649.58	1893.76
649.77	1919.77
649.97	2020.32
650.16	1957.45
650.36	1673.19
650.55	2007.62
650.75	1916.69
650.94	2118.83
651.14	1901.95
651.33	1910.96
651.53	2093.43
651.72	1805.90
651.92	1878.60
652.11	1680.36
652.31	1975.88
652.50	1957.65
652.70	1928.78
652.89	1793.82
653.09	2129.89
653.28	1935.13
653.48	1756.34
653.67	1768.63
653.87	2314.00
654.06	1943.52
654.25	2029.13
654.45	1858.33
654.64	1867.95
654.84	1905.63
655.03	1679.33
655.23	1978.54
655.42	1982.43
655.62	2130.30
655.81	1904.00
656.01	1782.35
656.20	1992.67
656.40	2085.65
656.59	1916.90
656.79	2035.07
656.98	1927.96
657.17	2003.32
657.37	1893.55
657.56	1818.19
657.76	1957.45
657.95	2007.21
658.15	1575.30
658.34	1888.02
658.54	1910.55
658.73	1776.20
658.92	1835.59
659.12	1901.95
659.31	2016.02
659.51	1872.46
659.70	2035.27
659.90	1931.64
660.09	2142.18
660.29	2016.02
660.48	1868.57
660.67	2071.73
660.87	1882.29
661.06	1999.23
661.26	2019.71
661.45	2004.55
661.65	1972.60
661.84	1874.10
662.03	1836.82
662.23	1855.87
662.42	2166.55
662.62	1772.93
662.81	1782.35
663.00	1851.77
663.20	1903.18
663.39	1947.62
663.59	1934.31
663.78	1826.79
663.97	1850.95
664.17	2005.17
664.36	1738.73
664.56	1796.48
664.75	2003.12
664.94	1992.06
665.14	1920.18
665.33	1921.81
665.53	1983.05
665.72	1992.06
665.91	2073.16
666.11	1939.02
666.30	1977.52
666.50	1925.91
666.69	1964.00
666.88	1880.65
667.08	1970.15
667.27	1905.63
667.47	1927.14
667.66	1867.34
667.85	2043.26
668.05	1909.12
668.24	1817.16
668.43	2021.75
668.63	1836.00
668.82	2038.96
669.02	1980.39
669.21	1908.91
669.40	1772.11
669.60	2162.25
669.79	1782.55
669.98	2347.18
670.18	1844.40
670.37	1787.26
670.56	1857.10
670.76	1930.01
670.95	1927.96
671.15	2081.35
671.34	1976.49
671.53	1957.86
671.73	1889.05
671.92	1874.71
672.11	1809.79
672.31	1893.14
672.50	1979.98
672.69	1800.98
672.89	1675.65
673.08	1857.10
673.27	2016.02
673.47	1938.20
673.66	1934.92
673.85	1800.57
674.05	2072.54
674.24	2331.82
674.43	2435.85
674.63	2857.74
674.82	3216.54
675.01	2714.38
675.21	2820.46
675.40	2583.72
675.59	2492.99
675.79	2722.36
675.98	2385.27
676.17	2499.96
676.37	2365.61
676.56	2216.31
676.75	2164.70
676.95	2080.74
677.14	2007.21
677.33	2119.44
677.52	1838.05
677.72	1863.04
677.91	1968.51
678.10	1772.52
678.30	1794.23
678.49	1768.01
678.68	2182.73
678.88	1701.25
679.07	2022.78
679.26	1831.29
679.45	2156.72
679.65	2059.44
679.84	1695.72
680.03	1727.87
680.23	1872.46
680.42	2248.26
680.61	1767.40
680.81	1842.76
681.00	1918.54
681.19	1999.43
681.38	1975.68
681.58	1960.11
681.77	1876.76
681.96	2011.11
682.15	1875.32
682.35	1964.82
682.54	2027.49
682.73	1800.78
682.93	1844.40
683.12	1804.47
683.31	1992.26
683.50	2258.50
683.70	1806.10
683.89	1898.06
684.08	1788.29
684.27	2021.35
684.47	1730.53
684.66	1916.28
684.85	2154.26
685.04	2090.98
685.24	1831.09
685.43	1901.33
685.62	1713.54
685.81	1979.16
686.01	2119.85
686.20	2177.81
686.39	2251.33
686.58	2785.65
686.78	2595.39
686.97	2538.87
687.16	2488.49
687.35	2393.46
687.55	2245.60
687.74	2283.08
687.93	2141.97
688.12	2253.18
688.32	2214.47
688.51	2042.85
688.70	2150.57
688.89	1915.06
689.08	1872.87
689.28	1895.80
689.47	1990.22
689.66	1949.67
689.85	2006.39
690.05	1862.01
690.24	1829.45
690.43	1936.15
690.62	1925.09
690.81	1813.89
691.01	1936.97
691.20	1866.52
691.39	1808.56
691.58	1922.43
691.77	2131.32
691.97	1941.47
692.16	1946.59
692.35	1882.08
692.54	1884.75
692.73	2105.52
692.93	2092.20
693.12	2181.50
693.31	2209.76
693.50	2208.94
693.69	2192.76
693.89	2023.60
694.08	2226.35
694.27	2241.91
694.46	1978.95
694.65	2025.44
694.85	2112.48
695.04	2133.98
695.23	2069.27
695.42	2600.31
695.61	3003.96
695.80	3312.59
696.00	3626.95
696.19	3731.40
696.38	3250.74
696.57	3000.89
696.76	2961.57
696.95	2734.86
697.15	2862.86
697.34	2734.65
697.53	2435.44
697.72	2374.21
697.91	2252.97
698.10	2363.56
698.30	2065.99
698.49	2007.01
698.68	2065.99
698.87	1958.47
699.06	1811.63
699.25	1910.75
699.45	2068.65
699.64	1974.24
699.83	2000.66
700.02	1810.81
700.21	1974.45
700.40	1870.82
700.59	1859.15
700.79	1842.76
700.98	1965.23
701.17	1820.03
701.36	1825.35
701.55	1835.39
701.74	2131.94
701.93	2094.46
702.12	2454.90
702.32	2532.31
702.51	2906.48
702.70	2920.81
702.89	2674.03
703.08	2387.52
703.27	2579.21
703.46	2474.15
703.65	2287.79
703.85	2149.55
704.04	2152.62
704.23	2328.54
704.42	2031.58
704.61	2008.03
704.80	2184.77
704.99	1875.32
705.18	1987.35
705.37	1932.87
705.57	2366.22
705.76	3004.78
705.95	3143.63
706.14	3702.93
706.33	3961.59
706.52	4029.58
706.71	3297.23
706.90	2975.08
707.09	2986.76
707.28	2890.09
707.47	2603.58
707.67	2666.05
707.86	2418.24
708.05	2568.36
708.24	2295.36
708.43	2181.29
708.62	2054.52
708.81	1940.25
709.00	1841.74
709.19	1893.76
709.38	2058.00
709.57	1837.64
709.76	2015.61
709.96	1949.05
710.15	2196.65
710.34	2038.34
710.53	2142.38
710.72	2015.82
710.91	2130.91
711.10	2056.57
711.29	2063.12
711.48	1930.62
711.67	1884.54
711.86	2066.40
712.05	1856.28
712.24	1913.01
712.43	2056.98
712.62	2140.95
712.81	1950.08
713.00	2071.11
713.19	1796.07
713.39	1945.37
713.58	1811.84
713.77	1953.97
713.96	2078.89
714.15	1966.25
714.34	1969.74
714.53	1859.35
714.72	2242.12
714.91	1913.01
715.10	2041.82
715.29	1936.97
715.48	2439.34
715.67	2172.89
715.86	2053.91
716.05	1988.78
716.24	1944.75
716.43	1896.83
716.62	1861.81
716.81	1830.68
717.00	1914.85
717.19	2168.59
717.38	1935.54
717.57	1890.68
717.76	1739.54
717.95	2007.42
718.14	1896.83
718.33	1858.74
718.52	1728.49
718.71	1749.99
718.90	1757.57
719.09	1838.46
719.28	1880.04
719.47	2022.98
719.66	2082.17
719.85	2125.59
720.04	2070.91
720.23	2156.92
720.42	2058.21
720.61	2136.24
720.80	1888.23
720.99	2067.01
721.18	1942.09
721.37	1908.09
721.56	1923.66
721.75	2063.74
721.94	1883.72
722.13	1919.97
722.32	1911.37
722.51	2016.84
722.70	1894.37
722.89	1937.38
723.08	1916.69
723.27	2022.78
723.46	1922.22
723.65	1843.38
723.84	1833.55
724.03	2081.15
724.22	1734.63
724.41	1920.99
724.60	1880.44
724.79	2008.24
724.98	1936.97
725.16	1845.83
725.35	1971.78
725.54	1805.28
725.73	1909.53
725.92	1911.78
726.11	2014.79
726.30	2252.15
726.49	2120.06
726.68	2250.72
726.87	2371.34
727.06	2427.05
727.25	2138.49
727.44	2193.99
727.63	2154.46
727.82	2070.29
728.01	2103.47
728.20	2152.21
728.38	2230.44
728.57	1993.08
728.76	2026.87
728.95	2056.78
729.14	1827.20
729.33	1818.80
729.52	1696.33
729.71	1825.97
729.90	1827.81
730.09	1912.19
730.28	1975.47
730.47	1995.54
730.66	2274.27
730.84	2166.96
731.03	2142.38
731.22	2144.84
731.41	2107.97
731.60	2086.27
731.79	1860.37
731.98	1896.21
732.17	2111.66
732.36	2049.40
732.55	1904.20
732.73	1826.58
732.92	2089.34
733.11	2001.28
733.30	1889.46
733.49	1729.71
733.68	2009.06
733.87	1962.36
734.06	1894.99
734.25	2020.53
734.43	2194.19
734.62	2388.96
734.81	2369.30
735.00	2349.02
735.19	2294.34
735.38	2256.45
735.57	2053.50
735.76	2229.62
735.94	2374.82
736.13	2927.98
736.32	2953.38
736.51	3060.69
736.70	3486.67
736.89	3502.03
737.08	3352.12
737.27	3665.45
737.45	4484.64
737.64	4623.29
737.83	5063.60
738.02	5195.08
738.21	5037.59
738.40	4403.75
738.59	3980.64
738.77	3812.09
738.96	3500.18
739.15	3365.84
739.34	3206.10
739.53	2974.47
739.72	2930.64
739.90	2738.34
740.09	2364.38
740.28	2345.33
740.47	2332.23
740.66	2208.12
740.85	2004.14
741.03	2036.50
741.22	1905.02
741.41	2006.19
741.60	1858.74
741.79	2038.14
741.98	2187.03
742.16	2286.76
742.35	2124.15
742.54	2158.76
742.73	2485.21
742.92	2218.97
743.10	2133.57
743.29	2164.09
743.48	2516.54
743.67	2077.25
743.86	1969.53
744.05	1953.35
744.23	1946.18
744.42	1939.84
744.61	1987.55
744.80	1875.53
744.99	1932.67
745.17	1751.22
745.36	1800.37
745.55	1953.76
745.74	1895.60
745.93	1814.09
746.11	1827.40
746.30	1797.09
746.49	2007.01
746.68	1775.18
746.86	1867.95
747.05	1874.30
747.24	1988.99
747.43	2026.26
747.62	1822.08
747.80	1935.33
747.99	2192.15
748.18	2153.03
748.37	2042.44
748.56	2059.44
748.74	2145.66
748.93	2040.19
749.12	2269.15
749.31	2929.41
749.49	3447.76
749.68	3817.00
749.87	4236.84
750.06	4295.41
750.24	4358.90
750.43	4664.66
750.62	5110.91
750.81	5419.33
750.99	5752.74
751.18	5805.17
751.37	4914.10
751.56	4408.46
751.74	4526.22
751.93	4285.37
752.12	3534.59
752.31	3278.80
752.49	3122.33
752.68	3165.75
752.87	2753.70
753.06	2548.08
753.24	2390.80
753.43	2416.19
753.62	2087.49
753.81	2029.74
753.99	2226.35
754.18	2058.62
754.37	1882.49
754.55	1948.23
754.74	2174.53
754.93	1744.05
755.12	1899.49
755.30	1820.23
755.49	2017.25
755.68	1934.51
755.86	1943.52
756.05	1775.38
756.24	2068.04
756.43	1792.59
756.61	1791.77
756.80	1932.67
756.99	2076.03
757.17	1908.91
757.36	1791.15
757.55	1887.00
757.74	1966.25
757.92	1897.65
758.11	1778.25
758.30	1702.89
758.48	1881.88
758.67	1779.89
758.86	1883.93
759.04	1783.78
759.23	1849.73
759.42	1926.93
759.60	1813.07
759.79	1875.53
759.98	1863.24
760.16	1811.22
760.35	1771.49
760.54	1748.15
760.73	1934.31
760.91	1735.65
761.10	1897.03
761.29	1938.20
761.47	1919.56
761.66	2186.41
761.85	1958.47
762.03	2128.25
762.22	2812.68
762.41	5018.34
762.59	7431.05
762.78	8692.19
762.97	10432.56
763.15	11023.81
763.34	10196.43
763.52	7769.38
763.71	7280.53
763.90	6849.43
764.08	6366.11
764.27	5946.48
764.46	5722.84
764.64	5062.78
764.83	4652.99
765.02	4275.34
765.20	3798.37
765.39	3373.00
765.58	2784.21
765.76	2563.65
765.95	2329.15
766.13	2179.24
766.32	2061.08
766.51	2055.55
766.69	2596.01
766.88	2043.87
767.07	1828.43
767.25	1725.62
767.44	2094.25
767.62	2088.52
767.81	1842.56
768.00	1946.59
768.18	1947.00
768.37	1880.85
768.56	1782.14
768.74	1848.91
768.93	1804.87
769.11	1986.53
769.30	1908.09
769.49	1814.30
769.67	1891.50
769.86	1858.33
770.04	1838.87
770.23	1874.30
770.42	2052.06
770.60	1918.13
770.79	1779.48
770.97	1882.49
771.16	2336.94
771.35	2920.61
771.53	3492.61
771.72	3850.18
771.90	4421.36
772.09	4728.56
772.27	4275.13
772.46	3508.78
772.65	3567.97
772.83	3368.29
773.02	3268.76
773.20	2945.18
773.39	3016.25
773.58	2891.53
773.76	2517.57
773.95	2495.86
774.13	2467.19
774.32	2270.38
774.50	2056.37
774.69	2064.97
774.87	1973.22
775.06	2223.89
775.25	1853.62
775.43	1896.83
775.62	1918.13
775.80	1988.37
775.99	1934.31
776.17	1821.26
776.36	1960.11
776.54	2046.54
776.73	1839.90
776.92	1924.07
777.10	2010.08
777.29	1947.41
777.47	1803.65
777.66	1857.10
777.84	1922.63
778.03	1896.01
778.21	1799.75
778.40	1894.99
778.58	1936.35
778.77	2015.00
778.95	1736.27
779.14	1809.38
779.32	2123.95
779.51	2031.18
779.70	1851.57
779.88	1754.29
780.07	1863.24
780.25	2219.38
780.44	1838.87
780.62	2009.67
780.81	1974.65
780.99	1954.79
781.18	1809.79
781.36	1840.92
781.55	1866.31
781.73	2077.66
781.92	1767.60
782.10	1752.04
782.29	1957.65
782.47	2094.25
782.66	1888.23
782.84	1735.24
783.03	1806.92
783.21	2053.50
783.40	1834.16
783.58	1816.96
783.77	1830.27
783.95	1856.89
784.14	1777.02
784.32	1874.71
784.51	2059.85
784.69	1834.98
784.88	1785.62
785.06	1905.84
785.24	1796.48
785.43	2059.64
785.61	1982.23
785.80	1819.01
785.98	2014.59
786.17	1934.10
786.35	1782.35
786.54	1973.63
786.72	2039.57
786.91	2040.39
787.09	1887.61
787.28	1796.89
787.46	1925.71
787.65	2028.10
787.83	1771.49
788.01	1901.33
788.20	1800.37
788.38	1977.93
788.57	1900.72
788.75	1956.83
788.94	2208.32
789.12	2125.18
789.31	1941.47
789.49	2019.09
789.67	1863.86
789.86	1970.76
790.04	1841.12
790.23	1759.61
790.41	2265.05
790.60	1944.34
790.78	1943.32
790.96	1910.35
791.15	2056.78
791.33	1949.87
791.52	1875.32
791.70	1810.20
791.89	1931.85
792.07	2026.47
792.25	1880.44
792.44	1773.13
792.62	2063.12
792.81	1812.04
792.99	1904.00
793.17	1818.80
793.36	1829.25
793.54	2265.87
793.73	2617.30
793.91	3002.94
794.10	3530.90
794.28	3894.83
794.46	3863.90
794.65	3800.21
794.83	3216.54
795.01	3117.01
795.20	3164.52
795.38	2972.42
795.57	2900.33
795.75	2804.28
795.93	2582.08
796.12	2557.50
796.30	2550.13
796.49	2441.38
796.67	2162.25
796.85	2269.76
797.04	2120.47
797.22	2137.06
797.40	1861.60
797.59	1987.14
797.77	1942.91
797.96	1841.12
798.14	1838.46
798.32	1833.96
798.51	2015.61
798.69	2162.25
798.87	1900.31
799.06	1865.70
799.24	1752.04
799.42	2193.78
799.61	2408.41
799.79	2665.43
799.98	3145.68
800.16	3151.00
800.34	3741.23
800.53	4426.89
800.71	4690.67
800.89	5431.21
801.08	5465.00
801.26	5479.14
801.44	4689.03
801.63	4083.24
801.81	3998.25
801.99	3770.31
802.18	3582.92
802.36	3468.85
802.54	3270.40
802.73	2923.27
802.91	2859.58
803.09	2718.47
803.28	2586.38
803.46	2462.48
803.64	2514.91
803.83	2073.77
804.01	1992.88
804.19	1907.27
804.38	2118.83
804.56	2065.17
804.74	1957.65
804.92	2007.62
805.11	1873.69
805.29	2079.10
805.47	1889.66
805.66	1808.77
805.84	1809.59
806.02	2054.73
806.21	1897.24
806.39	2033.02
806.57	2064.97
806.76	2071.11
806.94	1947.82
807.12	1882.49
807.30	1917.10
807.49	2009.26
807.67	1997.38
807.85	2068.45
808.04	2094.25
808.22	2227.78
808.40	1827.40
808.58	1827.40
808.77	2056.78
808.95	2195.01
809.13	2267.72
809.31	3399.22
809.50	4503.07
809.68	5049.06
809.86	5439.20
810.05	5878.28
810.23	6460.32
810.41	8021.28
810.59	12263.03
810.78	14982.73
810.96	17200.68
811.14	18640.61
811.32	18204.19
811.51	14861.90
811.69	12143.02
811.87	11991.68
812.05	10553.59
812.24	9979.75
812.42	9319.90
812.60	8449.92
812.78	7195.13
812.97	6238.52
813.15	5896.31
813.33	5080.40
813.51	4518.64
813.70	3769.49
813.88	3240.71
814.06	2907.91
814.24	2548.29
814.42	2197.47
814.61	2214.47
814.79	2306.22
814.97	1862.22
815.15	1936.56
815.34	2009.47
815.52	2069.06
815.70	1817.37
815.88	1858.74
816.06	1808.15
816.25	1862.42
816.43	1804.26
816.61	1976.49
816.79	2113.30
816.98	1768.42
817.16	1879.42
817.34	1849.73
817.52	2005.58
817.70	2157.54
817.89	1910.35
818.07	1817.78
818.25	1941.88
818.43	1955.40
818.61	1911.37
818.80	1867.95
818.98	2140.54
819.16	1941.27
819.34	1780.91
819.52	2074.39
819.70	1819.01
819.89	1890.48
820.07	1755.31
820.25	1736.68
820.43	1933.90
820.61	2008.24
820.80	1883.72
820.98	1773.95
821.16	1727.46
821.34	1736.88
821.52	1838.67
821.70	1892.12
821.89	1903.79
822.07	1837.44
822.25	1843.58
822.43	1788.08
822.61	2072.13
822.79	1908.30
822.98	1846.65
823.16	1680.97
823.34	1922.43
823.52	2053.70
823.70	1959.91
823.88	1712.10
824.06	1973.63
824.25	1863.24
824.43	1966.05
824.61	1817.16
824.79	1951.30
824.97	2005.58
825.15	2126.82
825.33	2395.51
825.52	2768.44
825.70	2905.25
825.88	3055.16
826.06	3239.07
826.24	3312.18
826.42	3136.87
826.60	2759.64
826.78	2775.00
826.97	2590.07
827.15	2710.08
827.33	2367.04
827.51	2462.27
827.69	2285.74
827.87	2307.65
828.05	2270.38
828.23	2049.61
828.41	2251.33
828.60	2162.65
828.78	1873.89
828.96	2003.94
829.14	1893.55
829.32	1894.99
829.50	1849.73
829.68	1859.97
829.86	1867.95
830.04	1975.06
830.22	1912.60
830.41	1769.65
830.59	1881.47
830.77	2001.68
830.95	1800.98
831.13	1795.66
831.31	1818.39
831.49	2012.74
831.67	1998.61
831.85	1957.86
832.03	1849.73
832.21	1990.42
832.39	1769.24
832.57	1779.07
832.76	2017.66
832.94	1880.04
833.12	1738.32
833.30	1854.64
833.48	2042.03
833.66	1947.82
833.84	1797.09
834.02	1886.79
834.20	2015.41
834.38	1976.70
834.56	1717.84
834.74	1759.61
834.92	1749.99
835.10	2118.62
835.28	1925.91
835.46	1868.36
835.64	1884.95
835.82	1835.39
836.01	2074.80
836.19	1996.97
836.37	1851.16
836.55	1783.37
836.73	1775.18
836.91	1762.28
837.09	1986.53
837.27	2080.74
837.45	1724.39
837.63	1759.82
837.81	1768.63
837.99	1937.58
838.17	1886.59
838.35	1833.34
838.53	2258.09
838.71	2063.12
838.89	1917.10
839.07	1901.95
839.25	2006.60
839.43	2112.48
839.61	2136.65
839.79	2959.31
839.97	3701.50
840.15	4138.13
840.33	4412.76
840.51	4805.97
840.69	4555.50
840.87	3943.77
841.05	3700.47
841.23	3771.74
841.41	4548.54
841.59	6061.37
841.77	6662.25
841.95	7201.48
842.13	7756.48
842.31	7348.32
842.49	6080.83
842.67	5348.07
842.85	5309.56
843.03	4675.10
843.21	4455.36
843.39	4340.67
843.57	3983.50
843.75	3752.90
843.93	3316.28
844.11	3062.33
844.29	2942.32
844.47	2730.56
844.65	2731.99
844.83	2414.96
845.01	2306.01
845.19	2300.69
845.36	2075.21
845.54	2074.80
845.72	1999.84
845.90	2004.96
846.08	1834.37
846.26	1869.18
846.44	1972.81
846.62	1976.29
846.80	1870.41
846.98	1802.21
847.16	1879.63
847.34	1893.96
847.52	1714.15
847.70	1752.65
847.88	1887.20
848.06	2065.17
848.24	1906.04
848.41	1703.09
848.59	2024.21
848.77	1949.05
848.95	1828.63
849.13	1825.15
849.31	1970.76
849.49	1937.99
849.67	1762.28
849.85	1726.03
850.03	1944.55
850.21	1927.96
850.39	1799.55
850.57	1942.29
850.74	2063.74
850.92	2106.34
851.10	2151.39
851.28	2396.33
851.46	2651.91
851.64	3042.26
851.82	2825.99
852.00	2839.92
852.18	2826.20
852.36	2608.70
852.53	2398.79
852.71	2427.66
852.89	2416.19
853.07	2365.61
853.25	2150.57
853.43	2036.09
853.61	2182.52
853.79	2142.38
853.97	1953.56
854.14	1924.27
854.32	2188.66
854.50	2098.14
854.68	1897.03
854.86	1876.35
855.04	1815.32
855.22	2012.54
855.40	1744.87
855.57	1821.67
855.75	2001.89
855.93	1958.88
856.11	1691.62
856.29	1797.09
856.47	1799.96
856.65	1922.02
856.82	1771.90
857.00	1711.28
857.18	1863.45
857.36	1826.99
857.54	1897.24
857.72	1981.20
857.89	1957.65
858.07	1901.54
858.25	1994.52
858.43	1722.34
858.61	1865.90
858.79	1837.64
858.97	1779.28
859.14	1871.43
859.32	1870.21
859.50	1853.00
859.68	1919.97
859.86	1827.20
860.03	1948.44
860.21	1998.61
860.39	1851.77
860.57	1944.96
860.75	1949.05
860.93	2155.90
861.10	2030.15
861.28	1817.98
861.46	1967.89
861.64	1984.89
861.82	1849.11
861.99	1932.46
862.17	2026.47
862.35	2032.81
862.53	1878.40
862.71	1873.48
862.88	1940.04
863.06	1982.43
863.24	1830.06
863.42	1814.30
863.60	1872.05
863.77	1941.27
863.95	1659.88
864.13	1860.99
864.31	1865.29
864.49	1979.16
864.66	1709.85
864.84	1818.19
865.02	1896.42
865.20	2201.57
865.37	1865.49
865.55	1845.02
865.73	1769.45
865.91	2008.85
866.09	2012.95
866.26	2003.53
866.44	2118.21
866.62	2044.49
866.80	1882.90
866.97	1982.02
867.15	1957.04
867.33	1993.08
867.51	2003.53
867.68	1927.96
867.86	1903.79
868.04	1865.29
868.22	1751.42
868.39	1849.32
868.57	1955.40
868.75	2074.18
868.93	1730.53
869.10	1815.52
869.28	2143.81
869.46	2068.65
869.64	1853.41
869.81	1822.49
869.99	1894.17
870.17	1887.82
870.35	1767.60
870.52	1759.82
870.70	2000.25
870.88	1821.05
871.05	1743.64
871.23	1634.69
871.41	1891.30
871.59	1868.57
871.76	1812.45
871.94	1782.35
872.12	1864.47
872.29	1706.37
872.47	1784.80
872.65	1759.41
872.83	1907.68
873.00	2056.98
873.18	1838.05
873.36	1815.11
873.53	1993.90
873.71	1753.06
873.89	1789.92
874.06	1853.41
874.24	1934.10
874.42	2055.34
874.60	1973.22
874.77	1873.48
874.95	1803.85
875.13	2003.73
875.30	1767.40
875.48	1831.91
875.66	2118.42
875.83	1819.62
876.01	1850.95
876.19	1978.13
876.36	1770.88
876.54	1880.24
876.72	1760.23
876.89	1904.00
877.07	1964.21
877.25	1669.91
877.42	1894.37
877.60	1854.44
877.78	2113.50
877.95	1836.62
878.13	1804.87
878.31	1921.61
878.48	1994.72
878.66	1966.25
878.84	1818.80
879.01	1844.20
879.19	1921.20
879.37	1961.95
879.54	1825.15
879.72	1726.64
879.90	1677.90
880.07	1968.51
880.25	1590.04
880.42	1933.49
880.60	1904.61
880.78	1950.28
880.95	1800.37
881.13	1851.77
881.31	1873.89
881.48	1797.30
881.66	1732.38
881.83	1866.52
882.01	1762.07
882.19	1731.76
882.36	1876.35
882.54	1828.02
882.72	1967.69
882.89	1887.20
883.07	1743.85
883.24	1818.19
883.42	1987.76
883.60	1924.89
883.77	1759.21
883.95	1846.65
884.12	2007.42
884.30	1968.71
884.48	2033.84
884.65	1928.37
884.83	1986.73
885.00	2015.82
885.18	1780.30
885.36	1865.09
885.53	1993.90
885.71	2050.43
885.88	1761.66
886.06	1841.53
886.23	1972.81
886.41	1854.23
886.59	1801.60
886.76	1792.18
886.94	1963.59
887.11	2210.58
887.29	1846.65
887.47	1704.32
887.64	2024.83
887.82	2046.13
887.99	1688.76
888.17	1859.35
888.34	1833.55
888.52	1762.28
888.69	1865.90
888.87	1748.56
889.05	1852.80
889.22	1812.86
889.40	1781.53
889.57	1973.42
889.75	2029.33
889.92	1830.47
890.10	1749.78
890.27	1799.55
890.45	1809.99
890.62	1674.01
890.80	1751.01
890.98	1677.90
891.15	2054.93
891.33	1987.55
891.50	1800.98
891.68	1715.79
891.85	1960.11
892.03	1942.29
892.20	1787.26
892.38	1727.87
892.55	1968.51
892.73	1946.18
892.90	1737.70
893.08	1803.44
893.25	1788.70
893.43	1819.42
893.60	1926.73
893.78	1649.43
893.95	1905.23
894.13	1871.64
894.30	1731.97
894.48	1837.03
894.65	1954.99
894.83	1895.19
895.00	1658.85
895.18	1670.32
895.35	1969.94
895.53	1975.88
895.70	1731.35
895.88	1921.61
896.05	1927.55
896.23	1745.89
896.40	1795.86
896.58	1845.22
896.75	1948.03
896.93	2072.13
897.10	1800.37
897.28	1734.42
897.45	1889.46
897.63	1959.09
897.80	1916.69
897.98	1845.42
898.15	1928.37
898.33	1775.38
898.50	1894.17
898.67	1836.00
898.85	1841.53
899.02	1932.87
899.20	1991.44
899.37	1807.33
899.55	1898.67
899.72	2052.88
899.90	1763.71
900.07	1752.04
900.25	1913.62
900.42	2048.99
900.59	1797.09
900.77	1902.97
900.94	1949.67
901.12	1935.13
901.29	1781.73
901.47	1901.33
901.64	1962.77
901.82	1878.19
901.99	1607.45
902.16	1748.15
902.34	2007.21
902.51	1898.88
902.69	1811.63
902.86	1845.42
903.03	2321.17
903.21	1875.94
903.38	1825.15
903.56	1751.01
903.73	1991.65
903.91	1834.57
904.08	1719.88
904.25	1650.46
904.43	1755.72
904.60	1973.01
904.78	1808.56
904.95	1747.33
905.12	1836.00
905.30	2082.99
905.47	1926.93
905.65	1950.08
905.82	1879.22
905.99	1999.43
906.17	1906.45
906.34	1842.56
906.52	1855.46
906.69	2023.80
906.86	1998.00
907.04	1933.49
907.21	2085.24
907.38	2073.77
907.56	1822.90
907.73	1829.25
907.91	2106.54
908.08	2058.41
908.25	1807.13
908.43	1769.24
908.60	1972.60
908.77	1922.22
908.95	1819.42
909.12	1753.47
909.30	1977.93
909.47	1711.69
909.64	1850.54
909.82	1943.93
909.99	1861.81
910.16	1910.14
910.34	1765.76
910.51	1806.51
910.68	1900.31
910.86	1888.23
911.03	1773.13
911.20	1961.75
911.38	2571.63
911.55	3431.17
911.72	3766.42
911.90	3891.35
912.07	4290.70
912.24	4255.47
912.42	3487.08
912.59	2854.25
912.76	2877.60
912.94	2577.37
913.11	2386.50
913.28	2251.33
913.46	2173.92
913.63	2221.43
913.80	2392.85
913.98	2090.77
914.15	2244.98
914.32	2278.37
914.49	2093.23
914.67	1949.05
914.84	2098.76
915.01	2153.44
915.19	2036.91
915.36	1927.75
915.53	2086.88
915.71	2022.57
915.88	1967.69
916.05	1820.44
916.22	2000.66
916.40	1900.72
916.57	1770.88
916.74	1913.21
916.92	2090.77
917.09	1773.95
917.26	1769.85
917.43	1733.20
917.61	1821.46
917.78	1701.25
917.95	1665.41
918.13	1760.02
918.30	2170.85
918.47	1887.82
918.64	1777.84
918.82	1782.14
918.99	1914.03
919.16	2155.49
919.33	1908.71
919.51	1866.72
919.68	1961.34
919.85	2142.79
920.02	1735.65
920.20	1835.80
920.37	2105.72
920.54	2017.66
920.71	1784.40
920.89	1807.54
921.06	2107.16
921.23	1807.54
921.40	1794.84
921.58	2052.88
921.75	2599.28
921.92	2220.41
922.09	2289.22
922.27	2292.91
922.44	2285.33
922.61	2225.53
922.78	2022.57
922.96	1971.99
923.13	1953.15
923.30	2093.43
923.47	1801.39
923.64	1884.54
923.82	2002.09
923.99	1963.80
924.16	1916.28
924.33	1786.24
924.50	1911.78
924.68	2110.84
924.85	1755.11
925.02	1820.44
925.19	2017.45
925.36	1927.96
925.54	1871.43
925.71	1854.23
925.88	2278.98
926.05	1853.62
926.22	1748.56
926.40	1884.95
926.57	1930.82
926.74	1957.86
926.91	1780.30
927.08	1976.90
927.26	2021.35
927.43	1893.55
927.60	1763.30
927.77	1823.92
927.94	2070.91
928.11	2015.41
928.29	1708.62
928.46	1864.27
928.63	1780.50
928.80	1842.35
928.97	1902.97
929.14	1731.15
929.32	2152.21
929.49	1886.18
929.66	1759.61
929.83	1728.08
930.00	1816.75
930.17	1928.37
930.35	1704.11
930.52	1779.28
930.69	2077.05
930.86	1769.85
931.03	1883.52
931.20	1640.83
931.37	2010.29
931.55	1884.34
931.72	1855.87
931.89	1697.15
932.06	1745.69
932.23	2071.52
932.40	1903.59
932.57	1902.97
932.74	2049.61
932.92	2004.14
933.09	1920.99
933.26	1556.66
933.43	1834.37
933.60	1927.55
933.77	1814.50
933.94	1877.37
934.11	1867.13
934.29	1888.02
934.46	1723.57
934.63	1879.42
934.80	1714.56
934.97	1878.81
935.14	1848.70
935.31	1713.33
935.48	1804.47
935.65	1937.99
935.82	1875.94
936.00	1734.02
936.17	2076.03
936.34	1855.25
936.51	1887.82
936.68	1719.27
936.85	1922.22
937.02	1913.21
937.19	1898.47
937.36	1814.50
937.53	1931.85
937.70	1987.96
937.87	1829.25
938.05	1894.78
938.22	1889.46
938.39	1728.90
938.56	1824.74
938.73	1725.41
938.90	1849.52
939.07	1791.36
939.24	1834.78
939.41	1670.53
939.58	1922.43
939.75	1938.20
939.92	1753.47
940.09	1922.22
940.26	1845.63
940.43	1992.06
940.60	1737.50
940.77	1797.91
940.95	1904.61
941.12	1965.64
941.29	1779.68
941.46	1846.24
941.63	2015.61
941.80	2067.83
941.97	1685.68
942.14	1702.89
942.31	1962.57
942.48	1836.00
942.65	1894.58
942.82	1814.30
942.99	1954.99
943.16	1870.82
943.33	1754.09
943.50	1765.96
943.67	1993.29
943.84	2014.79
944.01	1809.59
944.18	1725.41
944.35	2050.02
944.52	1773.13
944.69	1837.23
944.86	1700.22
945.03	1978.34
945.20	2200.13
945.37	1677.29
945.54	1846.65
945.71	2050.84
945.88	2116.99
946.05	1754.90
946.22	1723.16
946.39	2036.30
946.56	1873.28
946.73	1706.37
946.90	1736.68
947.07	1822.49
947.24	1845.83
947.41	1681.38
947.58	1909.53
947.75	1975.06
947.92	1925.30
948.09	1616.26
948.26	1694.49
948.43	1926.11
948.60	2098.96
948.77	1733.40
948.94	1789.11
949.11	1988.99
949.27	1915.87
949.44	1759.82
949.61	1750.19
949.78	1928.98
949.95	2024.83
950.12	1743.44
950.29	1711.90
950.46	1819.01
950.63	1981.00
950.80	1766.17
950.97	1797.30
951.14	1987.55
951.31	1849.52
951.48	1742.41
951.65	1715.79
951.82	2106.34
951.99	1885.56
952.15	1665.82
952.32	1786.44
952.49	1799.75
952.66	1809.99
952.83	1757.57
953.00	1746.92
953.17	1861.60
953.34	1929.39
953.51	1805.28
953.68	1820.44
953.85	1978.95
954.02	2016.43
954.18	1804.67
954.35	1823.31
954.52	1780.71
954.69	1904.61
954.86	1628.75
955.03	1825.35
955.20	1976.49
955.37	1870.00
955.54	1775.38
955.71	1763.30
955.87	1932.67
956.04	2105.52
956.21	1804.67
956.38	1714.56
956.55	1877.58
956.72	2214.26
956.89	1813.89
957.06	1757.57
957.23	1789.92
957.39	2031.18
957.56	1792.38
957.73	1730.94
957.90	1613.18
958.07	2114.94
958.24	1825.97
958.41	1777.02
958.57	1962.98
958.74	1852.18
958.91	1707.60
959.08	1769.04
959.25	1947.21
959.42	1844.40
959.59	1833.96
959.75	1801.19
959.92	2030.15
960.09	1978.54
960.26	1732.17
960.43	1838.26
960.60	1890.48
960.76	1846.24
960.93	1687.73
961.10	1840.92
961.27	1969.74
961.44	1834.16
961.61	1691.42
961.77	1716.40
961.94	1870.00
962.11	1972.40
962.28	1783.37
962.45	1698.59
962.62	1865.90
962.78	1969.53
962.95	1725.21
963.12	1765.96
963.29	1965.85
963.46	2252.97
963.62	1848.09
963.79	1766.78
963.96	2180.47
964.13	1857.10
964.30	1856.69
964.46	1763.92
964.63	1774.36
964.80	2218.15
964.97	1673.60
965.14	1936.35
965.30	2037.73
965.47	2105.93
965.64	2027.90
965.81	2006.19
965.98	2160.61
966.14	1986.32
966.31	1852.80
966.48	1817.78
966.65	2075.00
966.81	1973.01
966.98	1828.43
967.15	1844.61
967.32	1918.54
967.49	1810.20
967.65	1662.95
967.82	1652.30
967.99	1897.85
968.16	1713.95
968.32	1965.85
968.49	1781.94
968.66	1868.77
968.83	2097.32
968.99	1851.36
969.16	1725.62
969.33	2066.40
969.50	1966.05
969.66	1900.11
969.83	1990.22
970.00	1966.05
970.17	1927.34
970.33	1790.74
970.50	1726.85
970.67	2075.62
970.84	2047.15
971.00	1726.23
971.17	1728.49
971.34	1984.69
971.50	1873.48
971.67	1883.72
971.84	1841.33
972.01	1739.75
972.17	1641.04
972.34	1735.24
972.51	1867.75
972.67	2021.96
972.84	1893.35
973.01	1716.20
973.18	1746.10
973.34	2001.48
973.51	1773.75
973.68	1775.79
973.84	1826.79
974.01	1850.95
974.18	2093.02
974.34	1864.47
974.51	1855.46
974.68	1784.19
974.85	2148.52
975.01	1913.21
975.18	1783.99
975.35	1889.87
975.51	1763.92
975.68	1658.65
975.85	1887.20
976.01	1807.33
976.18	2048.38
976.35	1786.44
976.51	1744.87
976.68	2081.76
976.85	2015.00
977.01	1835.18
977.18	1871.64
977.35	1941.68
977.51	1733.61
977.68	1628.75
977.85	1701.25
978.01	2003.12
978.18	1986.53
978.35	1824.94
978.51	1840.51
978.68	2004.96
978.85	2093.64
979.01	1768.42
979.18	1831.91
979.34	1868.98
979.51	1916.69
979.68	1730.94
979.84	1817.78
980.01	2212.83
980.18	1884.95
980.34	1748.97
980.51	1833.55
980.67	1980.59
980.84	1948.03
981.01	1798.53
981.17	1868.57
981.34	1670.73
981.51	1968.30
981.67	1738.93
981.84	1886.59
982.00	1954.99
982.17	1871.84
982.34	1652.30
982.50	1590.25
982.67	2078.07
982.83	1844.81
983.00	1689.37
983.17	1576.12
983.33	1999.43
983.50	1705.34
983.66	1703.71
983.83	1568.33
984.00	1836.00
984.16	1857.10
984.33	1632.85
984.49	1593.93
984.66	1787.06
984.83	1996.97
984.99	1644.11
985.16	1580.21
985.32	1950.49
985.49	1970.97
985.65	1744.87
985.82	1619.74
985.99	2053.29
986.15	1875.73
986.32	1708.21
986.48	1678.92
986.65	1809.79
986.81	1977.93
986.98	1615.85
987.14	1671.76
987.31	1875.94
987.48	1701.04
987.64	1543.96
987.81	1586.97
987.97	2157.33
988.14	1749.78
988.30	1638.38
988.47	1538.43
988.63	1910.96
988.80	1754.09
988.96	1694.28
989.13	1716.81
989.30	1812.45
989.46	1984.69
989.63	1580.21
989.79	1598.64
989.96	1889.87
990.12	2042.23
990.29	1652.92
990.45	1690.60
990.62	1877.58
990.78	2000.25
990.95	1726.23
991.11	1681.18
991.28	1800.57
991.44	1920.59
991.61	1545.19
991.77	1705.14
991.94	1896.83
992.10	2009.47
992.27	1715.38
992.43	1664.18
992.60	1934.72
992.76	1829.04
992.93	1790.54
993.09	1579.60
993.26	1976.09
993.42	2095.07
993.59	1620.35
993.75	1539.46
993.92	1791.15
994.08	1788.90
994.25	1723.98
994.41	1615.64
994.58	1938.81
994.74	2066.81
994.91	1602.13
995.07	1705.34
995.24	1843.99
995.40	1878.81
995.56	1774.36
995.73	1723.78
995.89	2060.05
996.06	1816.14
996.22	1667.05
996.39	1568.74
996.55	1843.58
996.72	1893.76
996.88	1561.58
997.05	1605.20
997.21	2095.89
997.37	1941.68
997.54	1696.74
997.70	1685.68
997.87	1907.07
998.03	1873.69
998.20	1567.72
998.36	1586.97
998.52	1946.80
998.69	1980.80
998.85	1566.70
999.02	1679.54
999.18	1995.13
999.35	1952.94
999.51	1672.58
999.67	1674.21
999.84	1766.17
1000.00	1958.06
1000.17	1734.42
1000.33	1600.49
1000.49	1803.44
1000.66	1854.64
1000.82	1634.89
1000.99	1707.60
1001.15	2022.78
1001.31	1820.44
1001.48	1670.32
1001.64	1716.20
1001.81	1830.27
1001.97	2120.06
1002.13	1632.85
1002.30	1674.62
1002.46	2029.74
1002.63	1853.00
1002.79	1732.17
1002.95	1646.36
1003.12	2002.50
1003.28	1967.07
1003.45	1639.81
1003.61	1610.52
1003.77	1903.38
1003.94	1711.69
1004.10	1663.97
1004.26	1718.25
1004.43	1939.84
1004.59	2101.42
1004.75	1642.47
1004.92	1612.16
1005.08	1819.62
1005.25	1917.51
1005.41	1680.15
1005.57	1734.02
1005.74	2010.90
1005.90	1828.63
1006.06	1761.46
1006.23	1668.89
1006.39	1969.53
1006.55	2215.29
1006.72	1809.18
1006.88	1622.61
1007.04	1765.35
1007.21	1862.01
1007.37	1667.46
1007.53	1628.34
1007.70	2071.73
1007.86	1972.19
1008.02	1699.61
1008.19	1642.06
1008.35	1922.84
1008.51	1753.47
1008.68	1650.66
1008.84	1592.50
1009.00	1798.53
1009.17	1985.30
1009.33	1782.55
1009.49	1721.93
1009.65	1761.46
1009.82	1931.85
1009.98	1718.45
1010.14	1561.37
1010.31	1966.05
1010.47	1933.28
1010.63	1727.67
1010.80	1704.93
1010.96	1933.08
1011.12	1837.23
1011.28	1672.99
1011.45	1610.11
1011.61	2206.89
1011.77	1752.45
1011.94	1616.67
1012.10	1599.05
1012.26	1745.07
1012.42	1808.77
1012.59	1696.13
1012.75	1696.33
1012.91	1813.48
1013.07	1961.95
1013.24	1595.16
1013.40	1651.89
1013.56	1908.09
1013.72	1842.97
1013.89	1711.49
1014.05	1717.02
1014.21	2131.94
1014.37	2167.57
1014.54	1691.42
1014.70	1605.40
1014.86	1870.41
1015.02	1755.72
1015.19	1646.77
1015.35	1619.12
1015.51	1858.74
1015.67	1803.03
1015.84	1637.56
1016.00	1651.69
1016.16	1976.09
1016.32	1942.70
1016.49	1632.03
1016.65	1612.78
1016.81	1852.39
1016.97	1933.28
1017.14	1774.16
1017.30	1665.20
1017.46	1814.71
1017.62	1901.33
1017.78	1694.28
1017.95	1607.04
1018.11	1967.89
1018.27	2168.18
1018.43	1773.95
1018.59	1709.64
1018.76	1939.84
1018.92	2182.73
1019.08	1617.69
1019.24	1655.17
1019.40	2022.37
1019.57	1897.03
1019.73	1729.30
1019.89	1641.65
1020.05	1927.96
1020.21	2117.80
1020.38	1646.36
1020.54	1799.14
1020.70	1956.63
1020.86	1965.03
1021.02	1647.18
1021.18	1634.69
1021.35	1816.55
1021.51	1937.38
1021.67	1784.60
1021.83	1657.42
1021.99	1862.83
1022.15	1904.20
1022.32	1721.93
1022.48	1711.49
1022.64	2051.45
1022.80	2074.18
1022.96	1699.20
1023.12	1581.85
1023.29	1974.65
1023.45	1915.47
1023.61	1638.78
1023.77	1806.51
1023.93	1888.02
1024.09	1779.48
1024.25	1648.61
1024.42	1580.62
1024.58	1846.45
1024.74	1923.25
1024.90	1660.49
1025.06	1704.32
1025.22	1809.18
1025.38	2088.31
1025.54	1613.80
1025.71	1745.07
1025.87	1961.54
1026.03	1920.18
1026.19	1608.27
1026.35	1803.24
1026.51	1943.93
1026.67	1881.26
1026.83	1695.31
1026.99	1737.29
1027.16	1925.30
1027.32	2018.68
1027.48	1692.24
1027.64	1620.15
1027.80	1981.00
1027.96	1886.38
1028.12	1656.19
1028.28	1587.18
1028.44	1875.32
1028.60	2041.82
1028.77	1763.51
1028.93	1682.20
1029.09	1818.80
1029.25	1781.32
1029.41	1685.48
1029.57	1747.53
1029.73	1935.54
1029.89	2043.67
1030.05	1783.37
1030.21	1740.16
1030.37	2176.99
1030.53	1967.48
1030.69	1688.76
1030.85	1596.19
1031.02	1746.30
1031.18	1870.82
1031.34	1679.74
1031.50	1722.55
1031.66	1769.45
1031.82	2077.46
1031.98	1686.71
1032.14	1620.97
1032.30	1770.47
1032.46	1987.96
1032.62	1778.25
1032.78	1616.46
1032.94	1814.91
1033.10	1815.32
1033.26	1724.39
1033.42	1763.92
1033.58	2156.51
1033.74	1813.07
1033.90	1627.11
1034.06	1839.08
1034.22	2139.92
1034.38	1997.38
1034.54	1691.01
1034.70	1720.91
1034.86	2086.06
>>>>>End Processed Spectral Data<<<<<
