SpectraSuite Data File
++++++++++++++++++++++++++++++++++++
Date: Thu Mar 30 16:28:05 PDT 2017
User: UCSD _CER
Dark Spectrum Present: No
Reference Spectrum Present: No
Number of Sampled Component Spectra: 1
Spectrometers: USB4C00073
Integration Time (usec): 250000 (USB4C00073)
Spectra Averaged: 10 (USB4C00073)
Boxcar Smoothing: 0 (USB4C00073)
Correct for Electrical Dark: No (USB4C00073)
Strobe/Lamp Enabled: No (USB4C00073)
Correct for Detector Non-linearity: No (USB4C00073)
Correct for Stray Light: No (USB4C00073)
Number of Pixels in Processed Spectrum: 3648
>>>>>Begin Processed Spectral Data<<<<<
345.37	1278.96
345.58	1278.96
345.80	1278.96
346.01	1264.83
346.22	1283.87
346.43	1964.21
346.65	1786.44
346.86	2147.30
347.07	2057.39
347.28	1805.08
347.50	1799.35
347.71	1923.86
347.92	1714.76
348.13	1829.86
348.35	1708.21
348.56	1927.75
348.77	1790.33
348.98	1816.55
349.20	1672.78
349.41	1907.89
349.62	2010.90
349.83	1853.82
350.05	1734.02
350.26	1946.39
350.47	2079.71
350.68	1754.49
350.90	1723.57
351.11	2088.93
351.32	2082.99
351.53	1836.41
351.75	1710.46
351.96	1957.86
352.17	1873.28
352.38	1855.66
352.60	1844.20
352.81	1920.59
353.02	2134.80
353.23	1768.01
353.44	1812.45
353.66	1833.34
353.87	1901.54
354.08	1898.67
354.29	1830.88
354.51	1817.37
354.72	1898.47
354.93	1782.14
355.14	1734.22
355.35	1721.52
355.57	2068.65
355.78	1798.53
355.99	1873.89
356.20	1933.49
356.42	1896.21
356.63	1899.08
356.84	1833.96
357.05	2021.96
357.26	2189.07
357.48	1883.93
357.69	1838.87
357.90	1951.30
358.11	1847.88
358.32	1809.18
358.54	1850.34
358.75	1849.73
358.96	2018.68
359.17	1788.29
359.38	1807.74
359.60	2001.28
359.81	1912.19
360.02	1821.46
360.23	1791.36
360.44	1827.61
360.66	2013.15
360.87	1769.85
361.08	1744.05
361.29	1974.24
361.50	1904.82
361.72	1773.34
361.93	1851.77
362.14	1926.32
362.35	1713.33
362.56	1886.79
362.77	1739.54
362.99	1997.38
363.20	1941.06
363.41	1867.13
363.62	1697.36
363.83	1986.32
364.05	2033.63
364.26	1694.49
364.47	1769.85
364.68	2038.55
364.89	1815.11
365.10	1729.92
365.32	1829.66
365.53	1811.43
365.74	1839.49
365.95	1781.12
366.16	1694.69
366.37	1916.69
366.59	1874.71
366.80	1798.73
367.01	1675.44
367.22	2155.69
367.43	2260.34
367.64	1821.46
367.86	1797.91
368.07	1964.62
368.28	2044.69
368.49	1748.97
368.70	1845.83
368.91	1874.71
369.12	1872.25
369.34	1722.34
369.55	1752.24
369.76	1905.02
369.97	1841.94
370.18	1765.14
370.39	1742.62
370.60	1745.89
370.82	1770.47
371.03	1820.64
371.24	1753.68
371.45	1995.13
371.66	1972.19
371.87	1809.79
372.08	1784.60
372.30	1763.71
372.51	2020.32
372.72	1887.41
372.93	1780.50
373.14	2080.53
373.35	1797.50
373.56	1758.18
373.78	1807.74
373.99	2021.75
374.20	2264.64
374.41	1795.86
374.62	1815.93
374.83	2097.53
375.04	1881.47
375.25	1816.55
375.47	1761.25
375.68	1862.01
375.89	2001.89
376.10	1820.44
376.31	1896.01
376.52	1989.40
376.73	1954.99
376.94	1820.03
377.15	1783.99
377.37	1901.54
377.58	1866.11
377.79	1685.68
378.00	1739.95
378.21	1962.57
378.42	1969.53
378.63	1835.18
378.84	1868.16
379.05	2015.41
379.27	1935.13
379.48	1913.62
379.69	1753.88
379.90	2047.35
380.11	1654.35
380.32	1831.70
380.53	1879.22
380.74	2065.17
380.95	1923.45
381.16	1805.28
381.37	1814.91
381.59	2068.65
381.80	2017.86
382.01	1748.76
382.22	1708.83
382.43	1979.57
382.64	1903.59
382.85	1724.80
383.06	1875.12
383.27	1985.92
383.48	1890.48
383.69	1847.27
383.91	1748.35
384.12	1980.80
384.33	1963.39
384.54	1823.31
384.75	1701.04
384.96	2272.63
385.17	1996.16
385.38	1798.12
385.59	1763.30
385.80	1998.61
386.01	2114.12
386.22	1898.67
386.43	1829.25
386.64	2192.35
386.86	1883.72
387.07	1916.90
387.28	1704.93
387.49	1835.39
387.70	2065.38
387.91	1875.32
388.12	1740.36
388.33	1960.11
388.54	1815.73
388.75	1776.61
388.96	1853.41
389.17	1847.06
389.38	1873.69
389.59	1863.04
389.80	1834.37
390.01	1924.89
390.22	1857.92
390.43	1899.08
390.64	1673.80
390.86	1948.85
391.07	2021.35
391.28	1805.08
391.49	1839.28
391.70	1757.16
391.91	1813.68
392.12	1798.12
392.33	1799.55
392.54	1908.71
392.75	1867.75
392.96	1891.30
393.17	1751.63
393.38	2200.34
393.59	2049.61
393.80	1747.33
394.01	1860.58
394.22	1954.79
394.43	2222.25
394.64	1850.13
394.85	1988.99
395.06	1968.71
395.27	1974.45
395.48	1824.74
395.69	1730.53
395.90	1890.28
396.11	1906.45
396.32	1745.48
396.53	1877.17
396.74	1877.78
396.95	2039.37
397.16	1754.09
397.37	1706.57
397.58	2036.91
397.79	1874.10
398.00	1861.40
398.21	1803.03
398.42	1932.26
398.63	2165.52
398.84	1806.92
399.05	1792.38
399.26	2069.06
399.47	1974.45
399.68	1634.48
399.89	1760.64
400.10	1771.49
400.31	1847.47
400.52	1854.44
400.73	1775.38
400.94	1723.16
401.15	1941.88
401.36	1785.62
401.57	1845.63
401.78	2053.50
401.99	2032.81
402.20	1736.06
402.41	1939.63
402.62	2098.55
402.83	1891.50
403.04	1764.73
403.25	1934.92
403.46	1984.28
403.67	2162.04
403.88	1904.82
404.09	1893.76
404.30	1944.14
404.51	1928.78
404.72	1814.50
404.93	1938.20
405.14	1849.52
405.35	1891.71
405.56	1808.77
405.77	1778.25
405.98	1937.79
406.19	1900.11
406.40	1765.96
406.61	1785.01
406.82	1825.35
407.03	2191.53
407.24	1727.46
407.45	1808.77
407.66	1945.57
407.87	1996.77
408.08	1861.81
408.29	1874.10
408.49	2003.73
408.70	1899.70
408.91	1803.03
409.12	1898.67
409.33	1791.97
409.54	2094.05
409.75	1787.88
409.96	1799.14
410.17	2029.33
410.38	1879.01
410.59	1782.96
410.80	1878.40
411.01	1923.86
411.22	1862.22
411.43	1883.72
411.64	1762.48
411.85	1805.08
412.06	1798.12
412.27	1640.63
412.47	1787.88
412.68	1899.29
412.89	1955.20
413.10	1792.59
413.31	1715.58
413.52	2171.46
413.73	2160.81
413.94	1767.81
414.15	1902.77
414.36	1845.22
414.57	1814.30
414.78	1789.92
414.99	2111.05
415.19	2601.74
415.40	2699.02
415.61	2811.04
415.82	2672.19
416.03	2616.69
416.24	2408.82
416.45	2123.74
416.66	1964.21
416.87	1811.02
417.08	2021.96
417.29	1842.56
417.50	1932.26
417.70	2093.43
417.91	2109.61
418.12	2022.16
418.33	2121.29
418.54	2280.82
418.75	2428.69
418.96	2469.03
419.17	2662.15
419.38	3158.38
419.59	3175.38
419.79	3016.45
420.00	2883.54
420.21	2994.95
420.42	2380.56
420.63	2105.31
420.84	2054.52
421.05	1952.53
421.26	1925.91
421.47	1743.85
421.67	2056.16
421.88	1806.72
422.09	1785.21
422.30	1944.14
422.51	1790.13
422.72	2132.96
422.93	2004.55
423.14	1816.75
423.35	1684.04
423.55	1718.45
423.76	1809.59
423.97	1822.28
424.18	1727.87
424.39	1921.40
424.60	2071.52
424.81	1871.84
425.02	2030.36
425.22	2133.57
425.43	2129.89
425.64	2277.55
425.85	2279.59
426.06	2550.13
426.27	2408.21
426.48	2426.23
426.68	2406.36
426.89	2513.68
427.10	2581.87
427.31	2139.92
427.52	1911.98
427.73	2130.71
427.94	2025.65
428.14	1948.23
428.35	1839.49
428.56	2082.99
428.77	2043.87
428.98	1911.37
429.19	1993.90
429.40	2113.09
429.60	2182.32
429.81	2223.48
430.02	2152.62
430.23	2072.54
430.44	2110.84
430.65	1855.87
430.85	1913.83
431.06	1997.18
431.27	1734.83
431.48	1833.14
431.69	1858.12
431.90	1939.84
432.10	1926.32
432.31	1865.29
432.52	1906.45
432.73	2499.14
432.94	2432.17
433.15	2294.95
433.35	2210.37
433.56	2352.09
433.77	2161.02
433.98	2086.68
434.19	1970.35
434.40	2029.74
434.60	1978.75
434.81	1851.98
435.02	1897.03
435.23	1911.78
435.44	1853.82
435.64	1715.58
435.85	1777.64
436.06	1873.28
436.27	1851.98
436.48	1710.46
436.68	1771.29
436.89	2123.74
437.10	1995.95
437.31	1822.49
437.52	1891.71
437.73	1929.19
437.93	1928.16
438.14	1856.48
438.35	1698.59
438.56	1853.62
438.77	1880.04
438.97	1922.84
439.18	1758.59
439.39	2039.98
439.60	1731.97
439.80	1704.11
440.01	1809.38
440.22	1807.13
440.43	1977.11
440.64	1727.05
440.84	1842.15
441.05	1782.14
441.26	2257.68
441.47	1851.77
441.68	1772.11
441.88	1867.34
442.09	1875.94
442.30	1932.46
442.51	1856.69
442.71	1866.11
442.92	1945.57
443.13	1768.83
443.34	1732.99
443.55	1796.89
443.75	1981.41
443.96	1741.80
444.17	1766.58
444.38	2050.02
444.58	1787.06
444.79	1867.54
445.00	1830.68
445.21	1880.85
445.41	1892.12
445.62	1608.47
445.83	1906.45
446.04	1927.55
446.24	1751.22
446.45	1647.39
446.66	1798.53
446.87	1947.62
447.07	1846.65
447.28	1985.51
447.49	1845.63
447.70	2031.79
447.90	2007.83
448.11	1839.90
448.32	1899.49
448.53	2093.64
448.73	2054.11
448.94	1812.86
449.15	1950.28
449.36	1909.12
449.56	1984.07
449.77	1793.41
449.98	1714.97
450.19	1924.48
450.39	1999.84
450.60	1977.72
450.81	1977.72
451.02	2027.90
451.22	2175.15
451.43	1835.18
451.64	1887.00
451.84	1948.44
452.05	2134.39
452.26	1941.06
452.47	1843.99
452.67	1893.76
452.88	2104.08
453.09	1780.30
453.30	1762.07
453.50	2021.55
453.71	2100.40
453.92	1795.86
454.12	1900.72
454.33	1842.97
454.54	1886.38
454.75	1767.81
454.95	1761.46
455.16	1915.67
455.37	1924.68
455.57	1842.35
455.78	1827.40
455.99	1901.33
456.19	1914.03
456.40	1738.73
456.61	1842.15
456.82	1897.44
457.02	1985.30
457.23	1849.93
457.44	1993.70
457.64	1856.48
457.85	1979.57
458.06	1840.30
458.26	1973.01
458.47	1935.74
458.68	2038.34
458.89	1786.03
459.09	1986.53
459.30	2226.55
459.51	1984.28
459.71	1739.14
459.92	1809.59
460.13	1987.35
460.33	2228.39
460.54	1810.40
460.75	1836.41
460.95	1788.08
461.16	1942.09
461.37	1796.48
461.57	1817.16
461.78	1932.67
461.99	1804.87
462.19	2038.96
462.40	1813.27
462.61	2227.58
462.81	2083.19
463.02	1766.37
463.23	1803.65
463.43	2012.54
463.64	1880.44
463.85	2745.10
464.05	1808.97
464.26	2350.04
464.47	2110.23
464.67	2006.60
464.88	1886.38
465.09	1830.88
465.29	1931.03
465.50	1957.24
465.71	1844.61
465.91	1830.47
466.12	1892.73
466.33	1898.88
466.53	1820.44
466.74	2075.21
466.94	1883.72
467.15	1827.40
467.36	1994.11
467.56	1806.31
467.77	1956.22
467.98	1856.69
468.18	1798.32
468.39	1866.72
468.60	2147.70
468.80	1862.01
469.01	1778.46
469.21	1982.23
469.42	2076.85
469.63	1875.94
469.83	1833.96
470.04	2073.57
470.25	2183.34
470.45	1903.18
470.66	1848.09
470.86	1991.04
471.07	1895.60
471.28	1939.02
471.48	1996.56
471.69	1962.77
471.90	2402.27
472.10	1795.45
472.31	1827.40
472.51	1804.67
472.72	1805.69
472.93	1754.70
473.13	1946.80
473.34	1953.97
473.54	1910.75
473.75	1850.34
473.96	2005.17
474.16	1912.60
474.37	2005.37
474.57	1927.75
474.78	1852.80
474.99	2032.61
475.19	2015.20
475.40	1816.75
475.60	1752.86
475.81	2111.05
476.02	1916.90
476.22	1948.44
476.43	2042.03
476.63	1957.65
476.84	2173.71
477.05	1737.50
477.25	1840.51
477.46	2282.05
477.66	1936.76
477.87	1736.27
478.08	1839.49
478.28	2051.45
478.49	1907.48
478.69	1775.18
478.90	1815.11
479.10	1991.04
479.31	2132.96
479.52	1895.19
479.72	1946.59
479.93	1975.88
480.13	1863.45
480.34	1793.00
480.54	1928.78
480.75	1816.75
480.96	2064.56
481.16	1782.35
481.37	1942.91
481.57	2008.65
481.78	1957.04
481.98	2035.48
482.19	1889.46
482.40	2137.67
482.60	2018.48
482.81	1943.93
483.01	1841.94
483.22	2117.80
483.42	2088.11
483.63	1985.30
483.83	1923.45
484.04	1874.30
484.24	2017.45
484.45	1908.50
484.66	1741.59
484.86	2009.88
485.07	1834.16
485.27	1890.48
485.48	1784.40
485.68	2107.16
485.89	1853.21
486.09	1910.14
486.30	1839.08
486.50	1943.73
486.71	1984.89
486.91	1982.43
487.12	2074.80
487.33	2250.51
487.53	2306.83
487.74	2121.90
487.94	2033.22
488.15	2137.26
488.35	2196.04
488.56	2095.89
488.76	2050.84
488.97	2051.45
489.17	2123.54
489.38	1990.22
489.58	1914.03
489.79	2014.38
489.99	1994.11
490.20	1891.30
490.40	1979.57
490.61	1963.18
490.81	1849.11
491.02	1893.35
491.22	1944.96
491.43	2036.30
491.63	1957.65
491.84	2024.62
492.04	1793.20
492.25	2018.27
492.45	1900.72
492.66	1812.45
492.86	1737.29
493.07	1906.25
493.27	2202.39
493.48	1729.51
493.68	1865.09
493.89	1899.49
494.09	2034.04
494.30	1814.30
494.50	2082.58
494.71	2029.33
494.91	1831.70
495.12	1930.82
495.32	2044.90
495.53	2029.13
495.73	1799.55
495.94	1871.02
496.14	1732.17
496.35	2146.68
496.55	1879.83
496.76	1848.09
496.96	1932.67
497.17	1944.14
497.37	2013.97
497.58	1824.13
497.78	1788.29
497.98	1896.01
498.19	1921.40
498.39	1924.27
498.60	1955.61
498.80	1765.55
499.01	2056.37
499.21	1836.62
499.42	1888.84
499.62	1899.29
499.83	2222.25
500.03	1764.94
500.24	1943.11
500.44	2099.37
500.64	2058.82
500.85	1836.82
501.05	1945.98
501.26	1734.42
501.46	2091.39
501.67	1804.87
501.87	1781.32
502.08	1805.49
502.28	1878.40
502.48	1954.79
502.69	2007.83
502.89	1816.14
503.10	1868.36
503.30	1897.65
503.51	1932.26
503.71	1806.31
503.92	2061.49
504.12	1989.60
504.32	1966.05
504.53	2152.62
504.73	2182.11
504.94	2141.15
505.14	2253.18
505.35	2235.15
505.55	2207.92
505.75	2150.78
505.96	2224.71
506.16	2367.04
506.37	2000.05
506.57	1924.27
506.78	2025.03
506.98	2188.25
507.18	1848.50
507.39	1858.53
507.59	1934.10
507.80	1910.14
508.00	1989.40
508.20	2086.47
508.41	1930.01
508.61	2155.08
508.82	2066.20
509.02	2002.71
509.22	1795.04
509.43	1802.01
509.63	1875.53
509.84	1895.80
510.04	1764.73
510.24	2131.94
510.45	2018.89
510.65	1799.35
510.86	1900.92
511.06	1829.04
511.26	2067.83
511.47	2022.98
511.67	1855.05
511.88	2045.10
512.08	2112.27
512.28	1775.79
512.49	1978.34
512.69	1950.28
512.90	1988.78
513.10	1840.10
513.30	1878.40
513.51	1986.32
513.71	2130.71
513.91	1939.02
514.12	1947.00
514.32	2111.46
514.53	1984.07
514.73	2092.61
514.93	2027.08
515.14	2142.99
515.34	2371.55
515.54	2251.54
515.75	2366.02
515.95	2481.73
516.15	2526.99
516.36	2244.57
516.56	2159.58
516.77	1816.34
516.97	2106.54
517.17	1999.23
517.38	2038.34
517.58	2240.48
517.78	2105.52
517.99	2279.80
518.19	2363.56
518.39	2618.74
518.60	2477.02
518.80	2286.56
519.00	2252.56
519.21	2122.72
519.41	2319.53
519.61	1913.21
519.82	2022.16
520.02	2008.24
520.22	2006.39
520.43	1969.94
520.63	1985.30
520.83	1939.84
521.04	1906.86
521.24	2218.77
521.44	2250.10
521.65	2354.14
521.85	2529.45
522.05	2310.72
522.26	2166.14
522.46	2368.68
522.66	2163.88
522.87	1971.58
523.07	2133.98
523.27	1995.54
523.48	2214.47
523.68	2028.10
523.88	2025.24
524.09	2202.59
524.29	2120.47
524.49	1938.40
524.70	2249.69
524.90	2401.04
525.10	2286.15
525.31	2040.60
525.51	1931.23
525.71	2132.14
525.91	2081.15
526.12	1879.63
526.32	1811.63
526.52	1896.62
526.73	1862.42
526.93	1938.20
527.13	1764.33
527.34	1945.16
527.54	1954.58
527.74	1903.59
527.94	1828.63
528.15	1881.06
528.35	1981.41
528.55	2004.55
528.76	1962.36
528.96	1749.17
529.16	2057.18
529.36	2004.76
529.57	1789.72
529.77	2079.51
529.97	1826.38
530.18	1974.04
530.38	1851.57
530.58	2014.59
530.78	1957.24
530.99	1877.99
531.19	1983.87
531.39	1867.95
531.60	1947.41
531.80	1879.63
532.00	2016.23
532.20	1981.20
532.41	1834.57
532.61	1865.49
532.81	1870.41
533.01	1904.82
533.22	1966.66
533.42	1995.75
533.62	1715.38
533.82	2098.96
534.03	1917.10
534.23	1968.51
534.43	1825.76
534.63	1883.31
534.84	1973.22
535.04	1921.61
535.24	1909.32
535.44	2262.60
535.65	1878.19
535.85	1801.80
536.05	1808.36
536.25	1888.64
536.46	1864.06
536.66	2094.25
536.86	1978.95
537.06	2075.21
537.27	2134.39
537.47	2012.74
537.67	1878.40
537.87	2147.30
538.08	1913.62
538.28	1824.74
538.48	1833.75
538.68	1966.87
538.88	2072.75
539.09	1818.19
539.29	1902.97
539.49	2089.13
539.69	1977.52
539.90	1954.79
540.10	1845.63
540.30	2171.05
540.50	1926.32
540.70	1884.13
540.91	1991.04
541.11	2135.42
541.31	2302.33
541.51	2137.26
541.72	2213.65
541.92	2237.61
542.12	2055.34
542.32	2038.14
542.52	1960.93
542.73	1940.04
542.93	2040.19
543.13	1930.01
543.33	2039.37
543.53	2177.61
543.74	2209.55
543.94	2070.70
544.14	2263.21
544.34	2395.30
544.54	2282.05
544.75	2376.67
544.95	2572.04
545.15	2448.14
545.35	2471.28
545.55	2272.22
545.75	2061.69
545.96	2378.51
546.16	1958.68
546.36	2026.47
546.56	2016.02
546.76	2210.99
546.97	2261.37
547.17	1965.23
547.37	2022.57
547.57	1899.70
547.77	2068.04
547.97	1959.91
548.18	1998.20
548.38	2028.92
548.58	2541.94
548.78	2574.09
548.98	2954.40
549.18	3285.56
549.39	3479.91
549.59	3132.98
549.79	2772.34
549.99	2861.83
550.19	2676.90
550.39	2503.85
550.60	2298.64
550.80	2259.32
551.00	2266.90
551.20	2051.04
551.40	1988.58
551.60	2070.50
551.80	2064.56
552.01	2113.71
552.21	2007.83
552.41	2061.89
552.61	2236.18
552.81	1984.69
553.01	1860.99
553.21	2034.86
553.42	1862.01
553.62	1902.15
553.82	1849.32
554.02	2155.69
554.22	2049.40
554.42	1824.13
554.62	1980.39
554.83	2347.59
555.03	2615.05
555.23	2583.51
555.43	2978.57
555.63	2928.60
555.83	2771.72
556.03	2526.17
556.23	2337.76
556.44	2499.96
556.64	2526.58
556.84	2132.35
557.04	2346.15
557.24	2361.51
557.44	2223.07
557.64	2127.63
557.84	1960.73
558.04	2010.70
558.25	2129.07
558.45	1918.13
558.65	2045.92
558.85	2058.21
559.05	1870.61
559.25	2027.28
559.45	2177.20
559.65	2572.86
559.85	3097.76
560.05	2532.72
560.26	2647.82
560.46	2662.15
560.66	2460.22
560.86	2297.21
561.06	2132.75
561.26	2391.41
561.46	2220.61
561.66	2053.70
561.86	2167.98
562.06	2008.85
562.26	2023.19
562.47	2015.41
562.67	1868.77
562.87	2063.53
563.07	1834.37
563.27	2011.72
563.47	2035.27
563.67	1969.12
563.87	2143.20
564.07	2016.43
564.27	2151.60
564.47	2244.37
564.67	2318.71
564.87	2245.60
565.08	2267.10
565.28	2127.63
565.48	2237.00
565.68	2159.58
565.88	2122.11
566.08	2285.74
566.28	2022.98
566.48	1842.76
566.68	1925.50
566.88	1931.44
567.08	2057.39
567.28	1934.92
567.48	1967.07
567.68	2087.90
567.88	1924.48
568.08	2119.85
568.28	2216.52
568.48	2079.30
568.68	2240.89
568.89	2053.09
569.09	1863.65
569.29	2122.31
569.49	2099.99
569.69	1888.84
569.89	1857.71
570.09	1740.36
570.29	1873.69
570.49	1764.73
570.69	1843.58
570.89	2035.89
571.09	2197.47
571.29	1764.33
571.49	2027.49
571.69	1960.52
571.89	1991.65
572.09	1857.71
572.29	1819.42
572.49	2030.97
572.69	2019.71
572.89	1936.35
573.09	1774.77
573.29	2074.59
573.49	2142.79
573.69	2132.55
573.89	2189.89
574.09	2023.60
574.29	2177.61
574.49	1931.23
574.69	1883.93
574.89	1807.95
575.09	1823.92
575.29	1822.90
575.49	1916.69
575.69	1984.48
575.89	1800.37
576.09	1905.63
576.29	1959.70
576.49	1863.24
576.69	1967.28
576.89	1897.65
577.09	1979.16
577.29	1809.59
577.49	2226.55
577.69	1889.87
577.89	2001.28
578.09	1970.35
578.29	1776.20
578.49	1934.51
578.69	1838.46
578.89	2073.36
579.09	1950.49
579.29	1844.20
579.49	2068.86
579.69	1945.37
579.89	2221.02
580.09	1782.55
580.29	1761.87
580.49	1891.50
580.69	1822.49
580.89	1898.88
581.09	1868.77
581.29	1861.60
581.49	1895.40
581.69	1783.58
581.89	1828.84
582.09	1813.68
582.28	1829.45
582.48	2070.91
582.68	2144.22
582.88	2215.70
583.08	2058.00
583.28	2024.42
583.48	2017.86
583.68	1925.09
583.88	1988.37
584.08	1940.25
584.28	1934.31
584.48	2189.48
584.68	2007.83
584.88	1867.75
585.08	2053.09
585.28	2080.94
585.48	2126.20
585.68	2056.98
585.87	2047.35
586.07	2026.06
586.27	1970.35
586.47	2023.80
586.67	1924.27
586.87	1935.94
587.07	1906.45
587.27	1805.49
587.47	1984.89
587.67	2319.12
587.87	2647.00
588.07	2481.52
588.27	2475.58
588.46	2722.57
588.66	2747.76
588.86	2435.65
589.06	2381.99
589.26	2377.69
589.46	2234.74
589.66	1986.94
589.86	1951.30
590.06	2037.52
590.26	2236.79
590.46	2111.05
590.66	2277.55
590.85	2218.97
591.05	2318.10
591.25	2063.74
591.45	2069.27
591.65	2214.88
591.85	2185.80
592.05	2141.36
592.25	2317.69
592.45	2419.88
592.64	2232.90
592.84	2216.93
593.04	2033.43
593.24	2445.07
593.44	2077.46
593.64	2148.73
593.84	2188.87
594.04	2078.48
594.24	2280.41
594.43	1959.09
594.63	2033.84
594.83	2150.98
595.03	2094.25
595.23	1859.35
595.43	1792.59
595.63	1879.83
595.83	2040.19
596.02	1739.75
596.22	2003.73
596.42	2036.91
596.62	1994.93
596.82	1924.48
597.02	2048.79
597.22	2124.15
597.41	2012.54
597.61	1899.08
597.81	2091.80
598.01	2157.33
598.21	2010.49
598.41	2005.37
598.61	1971.99
598.80	2070.09
599.00	2115.55
599.20	2161.02
599.40	2015.41
599.60	2033.84
599.80	2176.38
599.99	2155.08
600.19	2000.05
600.39	2019.30
600.59	2099.99
600.79	2062.51
600.99	2051.45
601.19	2230.85
601.38	2253.99
601.58	2081.97
601.78	1858.74
601.98	2356.39
602.18	3062.53
602.37	3804.51
602.57	4041.26
602.77	4474.81
602.97	4586.43
603.17	4336.57
603.37	4062.97
603.56	4100.85
603.76	3989.03
603.96	3798.57
604.16	3612.21
604.36	3385.70
604.56	3090.18
604.75	2684.48
604.95	2605.43
605.15	2639.01
605.35	2538.87
605.55	2292.70
605.74	2179.04
605.94	2368.48
606.14	2133.98
606.34	2095.28
606.54	2023.19
606.73	1958.27
606.93	2099.37
607.13	1888.84
607.33	1972.60
607.53	2155.08
607.72	2109.00
607.92	2028.72
608.12	2084.22
608.32	1989.60
608.51	2064.97
608.71	1928.78
608.91	2089.13
609.11	2164.91
609.31	2135.01
609.50	2252.15
609.70	2452.65
609.90	2420.49
610.10	2427.87
610.29	2283.08
610.49	2153.03
610.69	2283.28
610.89	2192.35
611.09	2145.86
611.28	2203.20
611.48	2187.23
611.68	2015.41
611.88	1984.89
612.07	1945.16
612.27	2141.15
612.47	1931.44
612.67	2013.15
612.86	2077.87
613.06	1987.96
613.26	1786.85
613.46	1961.13
613.65	2085.65
613.85	2488.90
614.05	2266.69
614.25	2235.36
614.44	2120.06
614.64	2134.60
614.84	2080.33
615.04	2049.61
615.23	2059.64
615.43	2211.81
615.63	2179.65
615.83	1960.93
616.02	1987.96
616.22	2327.11
616.42	2208.12
616.62	2258.09
616.81	2379.53
617.01	2421.11
617.21	2301.10
617.41	2118.62
617.60	2162.86
617.80	2185.59
618.00	2184.77
618.19	2080.74
618.39	2041.01
618.59	2060.05
618.79	1970.56
618.98	1756.34
619.18	1903.79
619.38	2203.41
619.57	1877.78
619.77	1894.37
619.97	1899.29
620.17	1911.16
620.36	1920.99
620.56	2252.56
620.76	2090.77
620.95	2142.58
621.15	2223.07
621.35	2090.57
621.54	2104.08
621.74	2135.83
621.94	2008.03
622.14	1901.74
622.33	1863.65
622.53	1976.90
622.73	1937.79
622.92	1805.69
623.12	1922.02
623.32	2170.23
623.51	2005.37
623.71	1768.63
623.91	2045.72
624.10	1806.10
624.30	1951.92
624.50	1814.09
624.69	1793.20
624.89	2435.85
625.09	1908.71
625.29	1689.78
625.48	1798.53
625.68	1933.08
625.88	2042.03
626.07	1944.55
626.27	1801.39
626.47	1851.16
626.66	1735.86
626.86	1875.12
627.06	1875.94
627.25	1926.73
627.45	2115.76
627.64	1887.20
627.84	2052.06
628.04	1794.84
628.23	2190.71
628.43	1802.42
628.63	1875.73
628.82	1974.24
629.02	2305.81
629.22	2157.54
629.41	2235.97
629.61	2134.60
629.81	2432.37
630.00	2085.04
630.20	2075.00
630.40	2258.09
630.59	2272.63
630.79	2095.07
630.98	2028.10
631.18	2063.74
631.38	2033.22
631.57	2110.43
631.77	1847.88
631.97	1973.63
632.16	1978.95
632.36	1915.87
632.56	1918.13
632.75	1946.39
632.95	2032.61
633.14	1786.03
633.34	2049.61
633.54	1712.31
633.73	1837.64
633.93	1827.40
634.12	1738.11
634.32	2237.00
634.52	1891.91
634.71	1781.73
634.91	1927.14
635.11	1773.34
635.30	1825.15
635.50	1934.92
635.69	1783.78
635.89	2202.18
636.09	2107.97
636.28	1887.41
636.48	1908.30
636.67	2074.39
636.87	2052.88
637.07	2015.00
637.26	1897.24
637.46	2009.47
637.65	2134.19
637.85	2009.26
638.04	1942.09
638.24	1969.94
638.44	2046.94
638.63	1979.36
638.83	1905.43
639.02	2024.21
639.22	2010.49
639.42	1906.86
639.61	1894.58
639.81	1916.08
640.00	1929.39
640.20	1999.64
640.39	2030.36
640.59	2428.69
640.79	2358.85
640.98	2445.07
641.18	2459.82
641.37	2497.91
641.57	2326.29
641.76	2277.14
641.96	2038.96
642.15	2214.06
642.35	2124.15
642.55	2131.94
642.74	1925.50
642.94	2107.56
643.13	2154.87
643.33	1923.45
643.52	1856.28
643.72	1842.76
643.91	1918.74
644.11	1816.55
644.31	1788.29
644.50	1812.04
644.70	2054.11
644.89	1901.33
645.09	1931.23
645.28	1916.08
645.48	1968.71
645.67	1805.69
645.87	1727.05
646.06	1887.82
646.26	1969.74
646.45	1701.66
646.65	1693.47
646.84	2172.28
647.04	1888.23
647.24	1762.69
647.43	1914.03
647.63	1916.28
647.82	2092.61
648.02	1775.79
648.21	1822.49
648.41	2062.92
648.60	1868.16
648.80	2006.80
648.99	1924.89
649.19	1832.52
649.38	1727.26
649.58	1883.11
649.77	1919.15
649.97	2031.18
650.16	1975.06
650.36	1717.63
650.55	1991.85
650.75	1946.80
650.94	2120.06
651.14	1877.78
651.33	1910.35
651.53	2109.00
651.72	1841.74
651.92	1873.69
652.11	1690.60
652.31	1968.71
652.50	1944.75
652.70	1927.96
652.89	1780.50
653.09	2101.01
653.28	1936.76
653.48	1756.95
653.67	1742.21
653.87	2331.00
654.06	1939.22
654.25	2043.46
654.45	1836.21
654.64	1866.72
654.84	1883.93
655.03	1668.28
655.23	1972.81
655.42	1971.58
655.62	2123.13
655.81	1907.48
656.01	1778.05
656.20	1996.16
656.40	2099.99
656.59	1899.70
656.79	2019.91
656.98	1936.97
657.17	2012.54
657.37	1896.01
657.56	1827.61
657.76	1948.03
657.95	2038.55
658.15	1559.53
658.34	1872.66
658.54	1900.31
658.73	1774.16
658.92	1850.75
659.12	1913.01
659.31	2028.92
659.51	1851.36
659.70	2033.02
659.90	1931.44
660.09	2111.87
660.29	1999.02
660.48	1866.93
660.67	2100.40
660.87	1922.02
661.06	1996.36
661.26	2008.03
661.45	1998.61
661.65	1966.66
661.84	1857.92
662.03	1839.28
662.23	1843.17
662.42	2175.35
662.62	1794.64
662.81	1815.11
663.00	1836.41
663.20	1924.07
663.39	1955.20
663.59	1963.39
663.78	1819.42
663.97	1845.83
664.17	1992.88
664.36	1734.02
664.56	1796.27
664.75	2011.72
664.94	1967.69
665.14	1936.76
665.33	1915.06
665.53	1984.69
665.72	1999.23
665.91	2066.20
666.11	1935.33
666.30	1967.28
666.50	1918.54
666.69	1965.64
666.88	1895.80
667.08	1957.86
667.27	1888.84
667.47	1894.78
667.66	1839.69
667.85	2004.96
668.05	1939.84
668.24	1812.25
668.43	2040.19
668.63	1879.42
668.82	2063.94
669.02	1980.80
669.21	1911.57
669.40	1831.29
669.60	2162.45
669.79	1768.63
669.98	2361.10
670.18	1817.37
670.37	1811.43
670.56	1882.29
670.76	1928.98
670.95	1917.31
671.15	2066.40
671.34	1987.96
671.53	1943.52
671.73	1905.63
671.92	1881.67
672.11	1810.61
672.31	1867.34
672.50	1948.64
672.69	1801.39
672.89	1684.45
673.08	1862.22
673.27	2021.55
673.47	1930.01
673.66	1936.97
673.85	1810.40
674.05	2041.01
674.24	2300.48
674.43	2353.12
674.63	2734.04
674.82	3097.96
675.01	2607.06
675.21	2753.90
675.40	2507.74
675.59	2459.61
675.79	2663.18
675.98	2345.54
676.17	2421.31
676.37	2347.38
676.56	2126.82
676.75	2112.89
676.95	2069.88
677.14	1999.23
677.33	2132.75
677.52	1835.80
677.72	1872.05
677.91	1970.15
678.10	1740.36
678.30	1803.44
678.49	1770.06
678.68	2196.24
678.88	1710.05
679.07	2025.03
679.26	1847.68
679.45	2139.51
679.65	2065.79
679.84	1668.68
680.03	1732.38
680.23	1873.48
680.42	2243.75
680.61	1780.09
680.81	1829.45
681.00	1905.63
681.19	1990.22
681.38	1998.41
681.58	1976.09
681.77	1901.74
681.96	2034.66
682.15	1880.44
682.35	1967.07
682.54	2000.87
682.73	1809.18
682.93	1810.81
683.12	1819.21
683.31	1994.52
683.50	2251.74
683.70	1823.92
683.89	1913.42
684.08	1790.13
684.27	2051.66
684.47	1730.94
684.66	1894.78
684.85	2155.28
685.04	2068.45
685.24	1829.66
685.43	1896.01
685.62	1689.57
685.81	1967.69
686.01	2082.17
686.20	2140.95
686.39	2199.93
686.58	2688.16
686.78	2486.44
686.97	2438.72
687.16	2408.21
687.35	2344.31
687.55	2228.39
687.74	2232.29
687.93	2077.46
688.12	2205.66
688.32	2196.86
688.51	1981.20
688.70	2128.04
688.89	1925.91
689.08	1855.05
689.28	1879.63
689.47	1980.80
689.66	1963.59
689.85	1999.02
690.05	1862.63
690.24	1857.92
690.43	1937.58
690.62	1898.67
690.81	1845.83
691.01	1899.08
691.20	1857.10
691.39	1788.90
691.58	1928.98
691.77	2137.87
691.97	1931.64
692.16	1940.66
692.35	1883.11
692.54	1892.32
692.73	2055.75
692.93	2077.87
693.12	2124.56
693.31	2189.07
693.50	2160.61
693.69	2158.35
693.89	2034.66
694.08	2210.78
694.27	2224.50
694.46	1960.52
694.65	2025.65
694.85	2120.88
695.04	2123.13
695.23	2040.60
695.42	2512.24
695.61	2836.23
695.80	3099.40
696.00	3334.71
696.19	3450.83
696.38	3036.93
696.57	2841.15
696.76	2819.03
696.95	2620.17
697.15	2727.69
697.34	2651.71
697.53	2332.64
697.72	2311.34
697.91	2213.65
698.10	2347.79
698.30	2037.52
698.49	1992.88
698.68	2043.26
698.87	1955.40
699.06	1865.09
699.25	1926.52
699.45	2097.32
699.64	1962.36
699.83	2022.16
700.02	1802.21
700.21	1970.97
700.40	1846.04
700.59	1856.48
700.79	1845.02
700.98	1986.12
701.17	1811.84
701.36	1832.93
701.55	1826.17
701.74	2144.43
701.93	2071.52
702.12	2379.33
702.32	2460.43
702.51	2826.61
702.70	2785.44
702.89	2587.40
703.08	2331.82
703.27	2527.60
703.46	2394.69
703.65	2248.67
703.85	2087.29
704.04	2148.52
704.23	2313.80
704.42	1985.92
704.61	1981.20
704.80	2198.08
704.99	1887.00
705.18	1986.94
705.37	1927.14
705.57	2305.19
705.76	2855.07
705.95	2912.42
706.14	3427.89
706.33	3707.85
706.52	3816.39
706.71	3091.61
706.90	2834.39
707.09	2837.26
707.28	2739.36
707.47	2475.79
707.67	2584.74
707.86	2342.26
708.05	2482.75
708.24	2249.90
708.43	2153.23
708.62	2024.01
708.81	1897.24
709.00	1815.52
709.19	1868.98
709.38	2055.34
709.57	1824.94
709.76	2011.51
709.96	1942.09
710.15	2194.81
710.34	2058.62
710.53	2120.88
710.72	2013.15
710.91	2135.21
711.10	2046.94
711.29	2058.62
711.48	1919.97
711.67	1846.04
711.86	2050.02
712.05	1851.77
712.24	1902.36
712.43	2037.93
712.62	2139.10
712.81	1970.97
713.00	2064.56
713.19	1791.56
713.39	1988.99
713.58	1790.74
713.77	1946.39
713.96	2063.74
714.15	1960.93
714.34	1944.96
714.53	1854.03
714.72	2232.90
714.91	1899.29
715.10	2013.56
715.29	1906.86
715.48	2422.13
715.67	2115.76
715.86	1996.56
716.05	1924.07
716.24	1955.20
716.43	1910.14
716.62	1817.98
716.81	1809.79
717.00	1932.05
717.19	2156.10
717.38	1947.62
717.57	1907.48
717.76	1746.10
717.95	2045.10
718.14	1899.29
718.33	1854.03
718.52	1719.27
718.71	1726.03
718.90	1763.51
719.09	1846.45
719.28	1903.18
719.47	2060.87
719.66	2085.45
719.85	2092.41
720.04	2055.96
720.23	2146.48
720.42	2020.94
720.61	2100.40
720.80	1863.45
720.99	2054.73
721.18	1938.40
721.37	1911.98
721.56	1935.13
721.75	2056.98
721.94	1867.13
722.13	1928.98
722.32	1906.25
722.51	2027.49
722.70	1896.83
722.89	1932.67
723.08	1882.70
723.27	2047.35
723.46	1927.34
723.65	1848.29
723.84	1847.47
724.03	2063.94
724.22	1749.17
724.41	1923.25
724.60	1859.15
724.79	2033.43
724.98	1936.56
725.16	1838.87
725.35	2003.73
725.54	1791.97
725.73	1897.85
725.92	1933.90
726.11	1984.28
726.30	2197.88
726.49	2054.52
726.68	2183.34
726.87	2279.18
727.06	2377.69
727.25	2065.99
727.44	2163.68
727.63	2105.72
727.82	2059.85
728.01	2078.28
728.20	2109.20
728.38	2211.81
728.57	1975.88
728.76	1985.30
728.95	2053.29
729.14	1815.32
729.33	1822.90
729.52	1686.30
729.71	1833.55
729.90	1847.68
730.09	1916.08
730.28	1970.97
730.47	1961.13
730.66	2235.36
730.84	2142.18
731.03	2099.37
731.22	2091.18
731.41	2098.14
731.60	2120.26
731.79	1840.30
731.98	1901.13
732.17	2075.62
732.36	2033.84
732.55	1904.00
732.73	1811.63
732.92	2087.29
733.11	1973.01
733.30	1841.33
733.49	1754.70
733.68	2005.17
733.87	1968.30
734.06	1876.55
734.25	2008.03
734.43	2158.76
734.62	2364.79
734.81	2332.64
735.00	2322.19
735.19	2269.56
735.38	2256.86
735.57	2047.35
735.76	2204.43
735.94	2338.78
736.13	2869.41
736.32	2858.76
736.51	2974.88
736.70	3362.36
736.89	3416.42
737.08	3231.90
737.27	3501.00
737.45	4199.97
737.64	4327.56
737.83	4660.97
738.02	4773.00
738.21	4641.31
738.40	4108.23
738.59	3686.75
738.77	3558.14
738.96	3235.38
739.15	3160.22
739.34	2993.31
739.53	2824.76
739.72	2767.62
739.90	2651.91
740.09	2273.25
740.28	2289.22
740.47	2281.03
740.66	2191.94
740.85	1954.58
741.03	2003.12
741.22	1890.68
741.41	1950.49
741.60	1827.20
741.79	2032.20
741.98	2148.11
742.16	2257.48
742.35	2065.79
742.54	2096.71
742.73	2460.22
742.92	2174.12
743.10	2086.06
743.29	2132.35
743.48	2463.50
743.67	2048.79
743.86	1920.38
744.05	1947.41
744.23	1952.74
744.42	1917.72
744.61	1996.16
744.80	1846.04
744.99	1908.71
745.17	1779.07
745.36	1787.26
745.55	1945.78
745.74	1917.72
745.93	1819.42
746.11	1814.71
746.30	1803.03
746.49	2008.24
746.68	1771.90
746.86	1875.12
747.05	1864.27
747.24	1997.59
747.43	2030.36
747.62	1809.59
747.80	1895.80
747.99	2149.34
748.18	2116.37
748.37	2022.16
748.56	2031.99
748.74	2122.31
748.93	2021.14
749.12	2190.71
749.31	2715.61
749.49	3074.00
749.68	3417.86
749.87	3701.29
750.06	3701.29
750.24	3830.32
750.43	4136.28
750.62	4480.34
750.81	4745.14
750.99	5050.29
751.18	5025.31
751.37	4368.11
751.56	3918.99
751.74	4059.28
751.93	3983.09
752.12	3217.36
752.31	3045.33
752.49	2914.67
752.68	2986.76
752.87	2627.54
753.06	2421.93
753.24	2328.13
753.43	2348.82
753.62	2078.28
753.81	2004.96
753.99	2222.25
754.18	2030.56
754.37	1854.23
754.55	1964.82
754.74	2148.73
754.93	1721.52
755.12	1852.59
755.30	1821.46
755.49	2061.89
755.68	1942.91
755.86	1941.06
756.05	1795.86
756.24	2088.52
756.43	1759.00
756.61	1812.04
756.80	1937.79
756.99	2098.14
757.17	1894.37
757.36	1805.28
757.55	1895.80
757.74	2008.44
757.92	1931.23
758.11	1762.48
758.30	1726.44
758.48	1858.12
758.67	1756.54
758.86	1898.47
759.04	1771.90
759.23	1851.77
759.42	1912.60
759.60	1817.16
759.79	1876.96
759.98	1853.41
760.16	1775.38
760.35	1782.76
760.54	1743.23
760.73	1949.26
760.91	1766.99
761.10	1884.75
761.29	1918.95
761.47	1898.26
761.66	2197.47
761.85	1939.63
762.03	2086.88
762.22	2677.31
762.41	4587.65
762.59	6762.39
762.78	7801.12
762.97	9381.34
763.15	9960.09
763.34	9105.88
763.52	7024.53
763.71	6628.87
763.90	6290.95
764.08	5816.64
764.27	5494.50
764.46	5247.72
764.64	4649.91
764.83	4297.66
765.02	3967.94
765.20	3558.96
765.39	3215.52
765.58	2621.40
765.76	2470.06
765.95	2331.61
766.13	2207.30
766.32	2054.93
766.51	2017.45
766.69	2555.87
766.88	2010.08
767.07	1834.16
767.25	1740.57
767.44	2008.03
767.62	2064.97
767.81	1868.98
768.00	1909.12
768.18	1948.44
768.37	1836.21
768.56	1780.30
768.74	1829.04
768.93	1782.35
769.11	1991.24
769.30	1903.79
769.49	1825.35
769.67	1902.36
769.86	1855.25
770.04	1861.60
770.23	1860.17
770.42	2076.23
770.60	1923.25
770.79	1796.27
770.97	1875.53
771.16	2313.39
771.35	2786.26
771.53	3297.02
771.72	3592.55
771.90	4031.43
772.09	4341.90
772.27	3973.67
772.46	3241.12
772.65	3376.28
772.83	3183.57
773.02	3074.00
773.20	2790.77
773.39	2867.98
773.58	2756.98
773.76	2414.76
773.95	2391.21
774.13	2383.22
774.32	2212.22
774.50	1994.31
774.69	2034.25
774.87	1954.99
775.06	2245.19
775.25	1836.62
775.43	1892.12
775.62	1935.74
775.80	1993.70
775.99	1939.84
776.17	1827.61
776.36	1894.99
776.54	2017.25
776.73	1849.93
776.92	1902.97
777.10	2021.55
777.29	1949.67
777.47	1796.48
777.66	1841.53
777.84	1915.67
778.03	1891.91
778.21	1807.74
778.40	1887.20
778.58	1942.70
778.77	2010.08
778.95	1757.77
779.14	1823.51
779.32	2137.06
779.51	2030.97
779.70	1848.50
779.88	1776.82
780.07	1847.06
780.25	2245.19
780.44	1863.86
780.62	1994.31
780.81	1974.24
780.99	1939.02
781.18	1823.10
781.36	1846.65
781.55	1848.70
781.73	2093.84
781.92	1777.02
782.10	1737.29
782.29	1961.95
782.47	2101.22
782.66	1856.89
782.84	1757.77
783.03	1795.66
783.21	2038.34
783.40	1844.20
783.58	1810.20
783.77	1820.44
783.95	1886.38
784.14	1797.30
784.32	1918.54
784.51	2069.88
784.69	1839.90
784.88	1759.00
785.06	1900.92
785.24	1797.71
785.43	2080.12
785.61	1982.84
785.80	1820.44
785.98	2028.10
786.17	1941.27
786.35	1815.32
786.54	1948.64
786.72	2038.96
786.91	2064.76
787.09	1888.84
787.28	1750.40
787.46	1903.38
787.65	2025.03
787.83	1772.31
788.01	1932.46
788.20	1818.60
788.38	1967.48
788.57	1891.71
788.75	1925.71
788.94	2200.34
789.12	2043.05
789.31	1950.28
789.49	2014.79
789.67	1885.77
789.86	2006.80
790.04	1833.14
790.23	1759.21
790.41	2272.84
790.60	1918.33
790.78	1925.30
790.96	1920.38
791.15	2048.99
791.33	1918.74
791.52	1900.11
791.70	1819.42
791.89	1905.02
792.07	2015.41
792.25	1916.49
792.44	1782.14
792.62	2087.90
792.81	1854.03
792.99	1869.39
793.17	1809.99
793.36	1841.94
793.54	2245.80
793.73	2528.22
793.91	2804.28
794.10	3322.83
794.28	3609.95
794.46	3535.20
794.65	3519.64
794.83	3011.95
795.01	2938.63
795.20	2980.61
795.38	2763.12
795.57	2739.57
795.75	2692.05
795.93	2515.32
796.12	2482.55
796.30	2462.48
796.49	2371.96
796.67	2102.85
796.85	2212.01
797.04	2107.36
797.22	2118.83
797.40	1858.33
797.59	1978.54
797.77	1974.65
797.96	1854.85
798.14	1825.97
798.32	1835.18
798.51	2010.29
798.69	2169.21
798.87	1872.87
799.06	1858.12
799.24	1786.44
799.42	2202.80
799.61	2349.02
799.79	2543.99
799.98	2969.96
800.16	2982.46
800.34	3486.46
800.53	4127.89
800.71	4310.77
800.89	4984.35
801.08	5034.73
801.26	5012.20
801.44	4371.39
801.63	3766.42
801.81	3735.70
801.99	3521.89
802.18	3361.74
802.36	3272.04
802.54	3109.84
802.73	2764.35
802.91	2743.66
803.09	2636.15
803.28	2522.48
803.46	2422.95
803.64	2462.48
803.83	2054.11
804.01	1963.80
804.19	1890.68
804.38	2115.35
804.56	2055.96
804.74	1940.86
804.92	1991.44
805.11	1864.68
805.29	2125.18
805.47	1889.87
805.66	1798.32
805.84	1810.81
806.02	2069.27
806.21	1883.93
806.39	2045.51
806.57	2063.53
806.76	2043.05
806.94	1932.87
807.12	1853.00
807.30	1884.95
807.49	1995.54
807.67	1978.75
807.85	2068.24
808.04	2098.35
808.22	2259.32
808.40	1823.10
808.58	1814.09
808.77	2029.13
808.95	2202.59
809.13	2205.25
809.31	3230.88
809.50	4159.83
809.68	4705.00
809.86	5000.12
810.05	5345.20
810.23	5932.15
810.41	7327.43
810.59	11247.03
810.78	13636.20
810.96	15580.54
811.14	16926.05
811.32	16393.17
811.51	13580.70
811.69	11063.54
811.87	10985.51
812.05	9635.28
812.24	9150.12
812.42	8574.85
812.60	7812.59
812.78	6653.85
812.97	5849.82
813.15	5523.17
813.33	4782.01
813.51	4285.78
813.70	3568.59
813.88	3083.83
814.06	2794.86
814.24	2498.73
814.42	2151.39
814.61	2168.18
814.79	2290.04
814.97	1866.11
815.15	1936.76
815.34	2000.46
815.52	2083.40
815.70	1793.20
815.88	1864.27
816.06	1828.02
816.25	1864.27
816.43	1830.88
816.61	1980.59
816.79	2117.80
816.98	1769.04
817.16	1887.20
817.34	1835.18
817.52	2031.38
817.70	2136.65
817.89	1917.51
818.07	1807.95
818.25	1930.21
818.43	1944.14
818.61	1896.01
818.80	1841.74
818.98	2141.77
819.16	1943.32
819.34	1816.14
819.52	2090.16
819.70	1820.44
819.89	1913.42
820.07	1754.09
820.25	1719.68
820.43	1945.16
820.61	1991.44
820.80	1882.70
820.98	1752.65
821.16	1726.64
821.34	1740.57
821.52	1834.57
821.70	1911.16
821.89	1908.30
822.07	1868.36
822.25	1845.83
822.43	1795.45
822.61	2060.46
822.79	1936.76
822.98	1851.77
823.16	1686.91
823.34	1934.10
823.52	2041.21
823.70	1948.23
823.88	1707.80
824.06	1973.63
824.25	1863.86
824.43	1994.72
824.61	1800.16
824.79	1931.64
824.97	2003.32
825.15	2076.44
825.33	2346.97
825.52	2632.25
825.70	2753.49
825.88	2850.16
826.06	3017.27
826.24	3077.89
826.42	2960.13
826.60	2641.06
826.78	2690.62
826.97	2471.90
827.15	2611.98
827.33	2244.78
827.51	2358.65
827.69	2185.80
827.87	2245.39
828.05	2210.58
828.23	2009.88
828.41	2200.34
828.60	2136.85
828.78	1834.16
828.96	1994.93
829.14	1901.95
829.32	1887.41
829.50	1853.21
829.68	1843.38
829.86	1850.75
830.04	2004.14
830.22	1894.17
830.41	1773.75
830.59	1867.75
830.77	1976.70
830.95	1788.70
831.13	1808.97
831.31	1802.01
831.49	1997.79
831.67	1988.37
831.85	1998.41
832.03	1880.24
832.21	1995.75
832.39	1762.07
832.57	1772.11
832.76	2007.21
832.94	1887.82
833.12	1723.57
833.30	1893.55
833.48	2038.96
833.66	1956.42
833.84	1802.42
834.02	1889.25
834.20	2005.37
834.38	2000.05
834.56	1713.13
834.74	1787.47
834.92	1776.41
835.10	2143.81
835.28	1924.89
835.46	1889.66
835.64	1878.40
835.82	1839.28
836.01	2082.78
836.19	1986.12
836.37	1850.54
836.55	1748.15
836.73	1811.63
836.91	1758.80
837.09	1968.30
837.27	2075.21
837.45	1743.44
837.63	1778.87
837.81	1757.16
837.99	1924.27
838.17	1904.61
838.35	1820.03
838.53	2285.53
838.71	2092.20
838.89	1932.05
839.07	1924.68
839.25	2016.02
839.43	2102.65
839.61	2060.46
839.79	2793.43
839.97	3448.57
840.15	3847.11
840.33	4021.39
840.51	4416.85
840.69	4216.56
840.87	3661.36
841.05	3452.47
841.23	3516.57
841.41	4201.82
841.59	5528.90
841.77	6095.78
841.95	6518.07
842.13	7060.17
842.31	6677.81
842.49	5569.66
842.67	4992.74
842.85	4852.87
843.03	4287.83
843.21	4128.50
843.39	4011.36
843.57	3721.16
843.75	3512.88
843.93	3131.96
844.11	2915.49
844.29	2811.25
844.47	2613.62
844.65	2644.75
844.83	2342.26
845.01	2227.78
845.19	2260.55
845.36	2047.15
845.54	2072.75
845.72	1992.67
845.90	2012.54
846.08	1791.36
846.26	1880.24
846.44	1971.99
846.62	1992.06
846.80	1889.46
846.98	1799.96
847.16	1853.00
847.34	1897.85
847.52	1726.23
847.70	1768.63
847.88	1887.82
848.06	2086.06
848.24	1926.52
848.41	1719.06
848.59	2015.82
848.77	1931.64
848.95	1829.66
849.13	1831.50
849.31	1998.82
849.49	1951.10
849.67	1767.60
849.85	1758.80
850.03	1928.98
850.21	1911.98
850.39	1791.15
850.57	1943.32
850.74	2063.74
850.92	2104.70
851.10	2069.68
851.28	2304.99
851.46	2539.69
851.64	2888.86
851.82	2659.08
852.00	2687.75
852.18	2707.01
852.36	2523.92
852.53	2301.71
852.71	2347.18
852.89	2328.34
853.07	2294.95
853.25	2110.43
853.43	1985.30
853.61	2145.45
853.79	2104.49
853.97	1936.76
854.14	1898.06
854.32	2153.44
854.50	2053.70
854.68	1888.02
854.86	1857.71
855.04	1833.34
855.22	2005.17
855.40	1768.01
855.57	1803.03
855.75	2000.66
855.93	1949.05
856.11	1696.13
856.29	1769.65
856.47	1821.46
856.65	1903.59
856.82	1766.37
857.00	1731.97
857.18	1889.87
857.36	1832.32
857.54	1918.74
857.72	1959.91
857.89	1971.58
858.07	1884.34
858.25	1972.60
858.43	1742.62
858.61	1864.88
858.79	1871.02
858.97	1785.42
859.14	1908.30
859.32	1863.24
859.50	1864.68
859.68	1907.89
859.86	1810.61
860.03	1928.98
860.21	2013.77
860.39	1876.35
860.57	1953.56
860.75	1989.40
860.93	2136.03
861.10	2039.78
861.28	1824.54
861.46	1953.15
861.64	1988.78
861.82	1863.86
861.99	1961.95
862.17	2030.77
862.35	2028.10
862.53	1893.76
862.71	1872.87
862.88	1929.60
863.06	1960.93
863.24	1862.83
863.42	1805.90
863.60	1889.46
863.77	1942.70
863.95	1680.56
864.13	1859.76
864.31	1854.85
864.49	1984.07
864.66	1739.34
864.84	1804.87
865.02	1906.25
865.20	2235.97
865.37	1878.81
865.55	1804.26
865.73	1779.28
865.91	2051.04
866.09	2019.91
866.26	1999.02
866.44	2108.59
866.62	2006.19
866.80	1874.10
866.97	1954.99
867.15	1954.58
867.33	1982.84
867.51	2006.19
867.68	1905.43
867.86	1858.74
868.04	1858.94
868.22	1722.75
868.39	1839.08
868.57	1940.04
868.75	2087.49
868.93	1759.21
869.10	1825.76
869.28	2144.84
869.46	2074.39
869.64	1869.59
869.81	1830.06
869.99	1919.56
870.17	1902.15
870.35	1781.53
870.52	1785.62
870.70	1992.06
870.88	1825.56
871.05	1752.86
871.23	1648.82
871.41	1877.58
871.59	1883.52
871.76	1830.47
871.94	1787.67
872.12	1898.47
872.29	1725.41
872.47	1829.04
872.65	1774.56
872.83	1916.28
873.00	2078.48
873.18	1852.18
873.36	1801.60
873.53	1990.83
873.71	1758.59
873.89	1764.53
874.06	1844.20
874.24	1930.62
874.42	2054.32
874.60	1973.63
874.77	1888.43
874.95	1800.37
875.13	2036.30
875.30	1798.94
875.48	1825.15
875.66	2092.00
875.83	1825.76
876.01	1881.67
876.19	1960.52
876.36	1744.05
876.54	1909.73
876.72	1750.60
876.89	1941.88
877.07	1990.42
877.25	1706.37
877.42	1860.58
877.60	1837.44
877.78	2132.35
877.95	1835.80
878.13	1799.96
878.31	1908.09
878.48	2003.73
878.66	1967.48
878.84	1807.33
879.01	1870.61
879.19	1925.30
879.37	1962.36
879.54	1798.12
879.72	1733.81
879.90	1670.32
880.07	1965.03
880.25	1620.56
880.42	1934.72
880.60	1886.79
880.78	1953.76
880.95	1828.22
881.13	1846.24
881.31	1873.69
881.48	1808.36
881.66	1782.76
881.83	1893.55
882.01	1787.26
882.19	1736.06
882.36	1844.81
882.54	1803.24
882.72	1988.37
882.89	1923.45
883.07	1755.52
883.24	1835.18
883.42	1952.12
883.60	1903.59
883.77	1762.07
883.95	1833.14
884.12	2040.80
884.30	1978.75
884.48	2014.79
884.65	1951.10
884.83	1999.02
885.00	2026.87
885.18	1786.44
885.36	1856.69
885.53	1991.04
885.71	2083.81
885.88	1759.21
886.06	1824.54
886.23	1984.28
886.41	1871.23
886.59	1810.81
886.76	1802.21
886.94	1964.82
887.11	2227.78
887.29	1834.37
887.47	1708.83
887.64	2031.18
887.82	2047.15
887.99	1686.71
888.17	1867.34
888.34	1847.27
888.52	1754.70
888.69	1861.40
888.87	1742.62
889.05	1834.16
889.22	1809.38
889.40	1765.96
889.57	1977.72
889.75	2027.08
889.92	1850.54
890.10	1741.18
890.27	1837.23
890.45	1810.81
890.62	1679.74
890.80	1736.88
890.98	1703.91
891.15	2055.96
891.33	1982.64
891.50	1761.05
891.68	1709.85
891.85	1973.22
892.03	1962.77
892.20	1793.82
892.38	1750.60
892.55	1978.95
892.73	1956.22
892.90	1715.99
893.08	1766.58
893.25	1796.68
893.43	1806.72
893.60	1918.74
893.78	1644.93
893.95	1914.03
894.13	1869.59
894.30	1738.73
894.48	1849.73
894.65	1979.36
894.83	1882.70
895.00	1674.62
895.18	1678.52
895.35	1976.09
895.53	1967.07
895.70	1724.80
895.88	1941.27
896.05	1956.83
896.23	1737.29
896.40	1806.51
896.58	1884.34
896.75	1997.79
896.93	2060.67
897.10	1790.95
897.28	1742.00
897.45	1916.49
897.63	1977.31
897.80	1920.38
897.98	1815.32
898.15	1903.59
898.33	1747.94
898.50	1866.31
898.67	1847.68
898.85	1853.00
899.02	1946.80
899.20	1995.34
899.37	1848.70
899.55	1876.96
899.72	2041.01
899.90	1770.67
900.07	1766.78
900.25	1940.04
900.42	2026.06
900.59	1770.67
900.77	1916.90
900.94	1931.03
901.12	1907.07
901.29	1778.05
901.47	1913.62
901.64	1933.49
901.82	1889.46
901.99	1620.56
902.16	1749.58
902.34	2023.19
902.51	1927.34
902.69	1798.94
902.86	1862.22
903.03	2335.09
903.21	1891.09
903.38	1857.30
903.56	1773.34
903.73	1995.34
903.91	1849.52
904.08	1731.76
904.25	1682.20
904.43	1795.45
904.60	1961.34
904.78	1824.54
904.95	1748.35
905.12	1868.77
905.30	2112.68
905.47	1909.32
905.65	1976.90
905.82	1918.54
905.99	1994.11
906.17	1922.22
906.34	1838.05
906.52	1854.03
906.69	2018.27
906.86	2020.53
907.04	1927.96
907.21	2084.63
907.38	2069.47
907.56	1818.39
907.73	1825.56
907.91	2055.14
908.08	2019.91
908.25	1777.23
908.43	1760.43
908.60	1944.75
908.77	1933.49
908.95	1803.03
909.12	1767.60
909.30	1969.53
909.47	1706.57
909.64	1842.35
909.82	1968.51
909.99	1841.94
910.16	1913.21
910.34	1757.77
910.51	1805.90
910.68	1917.72
910.86	1883.11
911.03	1746.30
911.20	1947.82
911.38	2482.55
911.55	3228.01
911.72	3579.44
911.90	3563.88
912.07	3950.12
912.24	4024.46
912.42	3273.27
912.59	2692.05
912.76	2768.44
912.94	2513.06
913.11	2333.66
913.28	2200.75
913.46	2096.51
913.63	2201.57
913.80	2355.37
913.98	2043.87
914.15	2218.15
914.32	2237.82
914.49	2041.21
914.67	1934.72
914.84	2053.09
915.01	2108.79
915.19	1989.60
915.36	1907.48
915.53	2094.66
915.71	1994.93
915.88	1924.48
916.05	1819.21
916.22	2023.60
916.40	1938.40
916.57	1772.11
916.74	1892.73
916.92	2069.68
917.09	1767.60
917.26	1751.01
917.43	1729.71
917.61	1855.66
917.78	1719.06
917.95	1657.22
918.13	1730.53
918.30	2165.32
918.47	1912.19
918.64	1755.11
918.82	1788.70
918.99	1936.76
919.16	2159.38
919.33	1906.66
919.51	1864.47
919.68	1959.50
919.85	2088.72
920.02	1761.25
920.20	1875.32
920.37	2109.20
920.54	2005.99
920.71	1796.07
920.89	1820.23
921.06	2105.72
921.23	1785.42
921.40	1798.94
921.58	2047.76
921.75	2558.12
921.92	2166.55
922.09	2243.75
922.27	2214.47
922.44	2224.09
922.61	2147.50
922.78	1971.37
922.96	1948.85
923.13	1938.81
923.30	2074.80
923.47	1784.60
923.64	1827.40
923.82	1961.95
923.99	1958.06
924.16	1932.87
924.33	1773.54
924.50	1925.30
924.68	2108.18
924.85	1754.90
925.02	1824.94
925.19	1979.98
925.36	1922.43
925.54	1870.21
925.71	1859.56
925.88	2290.86
926.05	1850.75
926.22	1778.46
926.40	1857.51
926.57	1935.74
926.74	1966.46
926.91	1772.31
927.08	1980.18
927.26	2011.11
927.43	1897.03
927.60	1760.84
927.77	1830.47
927.94	2068.86
928.11	2030.77
928.29	1704.52
928.46	1855.66
928.63	1801.60
928.80	1872.66
928.97	1911.16
929.14	1760.02
929.32	2179.86
929.49	1891.09
929.66	1765.96
929.83	1698.99
930.00	1800.78
930.17	1931.03
930.35	1682.00
930.52	1782.76
930.69	2062.51
930.86	1764.53
931.03	1868.36
931.20	1653.12
931.37	2028.72
931.55	1868.57
931.72	1860.99
931.89	1704.93
932.06	1772.93
932.23	2080.12
932.40	1893.76
932.57	1885.56
932.74	2052.47
932.92	2037.93
933.09	1932.46
933.26	1572.02
933.43	1825.15
933.60	1919.97
933.77	1836.41
933.94	1887.20
934.11	1867.95
934.29	1890.68
934.46	1724.39
934.63	1869.59
934.80	1747.12
934.97	1877.78
935.14	1832.11
935.31	1704.93
935.48	1780.50
935.65	1945.16
935.82	1877.78
936.00	1733.40
936.17	2067.22
936.34	1865.70
936.51	1892.12
936.68	1727.46
936.85	1917.92
937.02	1907.07
937.19	1878.81
937.36	1810.81
937.53	1906.25
937.70	1985.51
937.87	1824.94
938.05	1908.09
938.22	1891.50
938.39	1781.94
938.56	1841.53
938.73	1755.52
938.90	1852.59
939.07	1786.03
939.24	1840.71
939.41	1662.13
939.58	1935.94
939.75	1952.74
939.92	1767.19
940.09	1972.81
940.26	1839.28
940.43	1986.53
940.60	1746.51
940.77	1820.03
940.95	1930.21
941.12	1988.17
941.29	1790.74
941.46	1844.81
941.63	2022.37
941.80	2054.11
941.97	1696.33
942.14	1693.67
942.31	1957.86
942.48	1851.36
942.65	1887.00
942.82	1837.64
942.99	1974.65
943.16	1877.58
943.33	1731.56
943.50	1786.03
943.67	1983.46
943.84	2027.90
944.01	1794.64
944.18	1751.63
944.35	2044.90
944.52	1769.85
944.69	1843.79
944.86	1684.86
945.03	1991.24
945.20	2219.79
945.37	1665.41
945.54	1832.32
945.71	2064.76
945.88	2121.49
946.05	1773.54
946.22	1726.44
946.39	2041.21
946.56	1897.03
946.73	1723.57
946.90	1740.98
947.07	1821.46
947.24	1874.10
947.41	1674.01
947.58	1897.44
947.75	1993.49
947.92	1923.04
948.09	1620.15
948.26	1671.76
948.43	1932.05
948.60	2104.29
948.77	1762.07
948.94	1805.28
949.11	1980.18
949.27	1918.33
949.44	1784.19
949.61	1750.60
949.78	1918.33
949.95	1992.88
950.12	1748.97
950.29	1688.55
950.46	1810.40
950.63	2000.05
950.80	1766.99
950.97	1823.10
951.14	2006.60
951.31	1841.53
951.48	1756.54
951.65	1721.73
951.82	2134.39
951.99	1908.30
952.15	1690.39
952.32	1768.01
952.49	1799.35
952.66	1806.92
952.83	1750.81
953.00	1746.10
953.17	1847.68
953.34	1998.20
953.51	1838.87
953.68	1824.94
953.85	2010.90
954.02	2009.26
954.18	1792.18
954.35	1854.44
954.52	1793.00
954.69	1907.07
954.86	1639.19
955.03	1822.69
955.20	1974.24
955.37	1854.85
955.54	1796.89
955.71	1767.40
955.87	1917.10
956.04	2090.57
956.21	1780.09
956.38	1737.29
956.55	1906.45
956.72	2187.85
956.89	1834.78
957.06	1755.93
957.23	1784.60
957.39	2047.97
957.56	1763.51
957.73	1715.58
957.90	1633.87
958.07	2109.41
958.24	1817.57
958.41	1756.95
958.57	1998.00
958.74	1882.90
958.91	1715.79
959.08	1773.34
959.25	1960.11
959.42	1860.78
959.59	1824.13
959.75	1821.67
959.92	2038.14
960.09	2024.62
960.26	1753.47
960.43	1833.96
960.60	1922.63
960.76	1873.69
960.93	1679.54
961.10	1849.32
961.27	2008.44
961.44	1866.11
961.61	1719.27
961.77	1704.32
961.94	1889.66
962.11	2009.67
962.28	1786.65
962.45	1747.94
962.62	1857.10
962.78	1975.06
962.95	1717.02
963.12	1765.76
963.29	1945.98
963.46	2229.42
963.62	1835.59
963.79	1794.64
963.96	2202.18
964.13	1842.35
964.30	1862.01
964.46	1777.43
964.63	1766.78
964.80	2240.89
964.97	1684.25
965.14	1940.45
965.30	1994.52
965.47	2098.76
965.64	2007.01
965.81	1954.58
965.98	2166.34
966.14	1977.11
966.31	1829.66
966.48	1827.40
966.65	2081.15
966.81	1954.99
966.98	1830.88
967.15	1857.71
967.32	1900.11
967.49	1830.68
967.65	1688.14
967.82	1641.45
967.99	1889.87
968.16	1718.45
968.32	1948.23
968.49	1773.13
968.66	1850.95
968.83	2100.81
968.99	1861.19
969.16	1715.58
969.33	2068.04
969.50	1969.94
969.66	1889.46
969.83	2017.86
970.00	1972.60
970.17	1937.79
970.33	1784.19
970.50	1716.61
970.67	2106.13
970.84	2062.51
971.00	1731.15
971.17	1714.56
971.34	1976.90
971.50	1874.71
971.67	1876.76
971.84	1840.51
972.01	1738.32
972.17	1654.76
972.34	1732.38
972.51	1882.08
972.67	2029.54
972.84	1931.44
973.01	1730.33
973.18	1779.89
973.34	1977.31
973.51	1764.94
973.68	1761.46
973.84	1815.52
974.01	1845.63
974.18	2082.58
974.34	1860.17
974.51	1841.12
974.68	1794.84
974.85	2131.12
975.01	1883.11
975.18	1802.01
975.35	1873.89
975.51	1770.06
975.68	1673.60
975.85	1922.02
976.01	1778.66
976.18	2065.58
976.35	1811.43
976.51	1759.82
976.68	2068.24
976.85	2033.22
977.01	1820.03
977.18	1851.98
977.35	1947.00
977.51	1732.38
977.68	1633.46
977.85	1719.06
978.01	2019.50
978.18	1962.36
978.35	1844.20
978.51	1821.46
978.68	1990.01
978.85	2072.34
979.01	1778.66
979.18	1842.15
979.34	1880.85
979.51	1892.32
979.68	1744.46
979.84	1824.74
980.01	2185.80
980.18	1905.23
980.34	1766.37
980.51	1859.76
980.67	1972.19
980.84	1966.46
981.01	1799.96
981.17	1847.68
981.34	1690.19
981.51	1972.40
981.67	1735.04
981.84	1908.91
982.00	1955.40
982.17	1874.51
982.34	1669.50
982.50	1580.21
982.67	2073.57
982.83	1824.54
983.00	1684.86
983.17	1611.96
983.33	1985.10
983.50	1693.67
983.66	1700.02
983.83	1602.74
984.00	1814.50
984.16	1888.43
984.33	1600.49
984.49	1621.38
984.66	1764.53
984.83	1986.53
984.99	1670.12
985.16	1603.56
985.32	1940.45
985.49	2000.66
985.65	1769.04
985.82	1628.75
985.99	2044.49
986.15	1900.31
986.32	1706.98
986.48	1657.63
986.65	1822.28
986.81	1967.69
986.98	1627.93
987.14	1678.11
987.31	1891.50
987.48	1698.99
987.64	1560.76
987.81	1588.61
987.97	2102.44
988.14	1763.30
988.30	1632.03
988.47	1527.58
988.63	1941.27
988.80	1769.65
988.96	1686.50
989.13	1723.57
989.30	1807.13
989.46	2011.72
989.63	1576.12
989.79	1601.51
989.96	1857.10
990.12	2062.10
990.29	1633.66
990.45	1659.67
990.62	1871.64
990.78	2029.95
990.95	1755.11
991.11	1653.53
991.28	1819.83
991.44	1889.87
991.61	1588.61
991.77	1695.31
991.94	1915.67
992.10	2019.09
992.27	1699.40
992.43	1678.11
992.60	1932.26
992.76	1837.03
992.93	1799.96
993.09	1629.77
993.26	2002.50
993.42	2074.18
993.59	1661.52
993.75	1556.05
993.92	1782.55
994.08	1778.05
994.25	1720.70
994.41	1644.72
994.58	1948.64
994.74	2041.42
994.91	1618.30
995.07	1706.16
995.24	1835.39
995.40	1872.87
995.56	1803.24
995.73	1764.33
995.89	2073.16
996.06	1853.82
996.22	1641.45
996.39	1576.32
996.55	1838.67
996.72	1920.99
996.88	1568.13
997.05	1613.18
997.21	2089.54
997.37	1944.14
997.54	1711.90
997.70	1661.93
997.87	1906.04
998.03	1863.65
998.20	1570.18
998.36	1575.09
998.52	1945.37
998.69	1985.92
998.85	1541.10
999.02	1685.89
999.18	1988.99
999.35	1967.28
999.51	1665.41
999.67	1681.79
999.84	1729.51
1000.00	1960.32
1000.17	1744.25
1000.33	1625.47
1000.49	1809.99
1000.66	1842.76
1000.82	1627.73
1000.99	1721.11
1001.15	2000.05
1001.31	1865.90
1001.48	1658.45
1001.64	1726.03
1001.81	1849.11
1001.97	2145.45
1002.13	1649.43
1002.30	1655.58
1002.46	2042.85
1002.63	1856.48
1002.79	1734.02
1002.95	1655.78
1003.12	2009.88
1003.28	1915.87
1003.45	1640.22
1003.61	1602.74
1003.77	1911.16
1003.94	1747.12
1004.10	1650.46
1004.26	1734.63
1004.43	1948.03
1004.59	2093.64
1004.75	1654.96
1004.92	1632.85
1005.08	1822.28
1005.25	1905.63
1005.41	1655.37
1005.57	1712.31
1005.74	2033.02
1005.90	1831.91
1006.06	1763.92
1006.23	1662.75
1006.39	1973.63
1006.55	2226.76
1006.72	1800.37
1006.88	1600.69
1007.04	1764.53
1007.21	1845.02
1007.37	1680.15
1007.53	1651.48
1007.70	2088.31
1007.86	1959.09
1008.02	1720.91
1008.19	1626.50
1008.35	1895.80
1008.51	1752.86
1008.68	1665.20
1008.84	1583.69
1009.00	1752.24
1009.17	2016.84
1009.33	1796.07
1009.49	1723.37
1009.65	1786.44
1009.82	1927.55
1009.98	1735.04
1010.14	1571.20
1010.31	1945.78
1010.47	1926.11
1010.63	1724.80
1010.80	1738.73
1010.96	1962.98
1011.12	1846.04
1011.28	1652.10
1011.45	1635.10
1011.61	2206.69
1011.77	1765.35
1011.94	1625.88
1012.10	1594.96
1012.26	1753.68
1012.42	1807.54
1012.59	1708.21
1012.75	1697.36
1012.91	1848.91
1013.07	1988.37
1013.24	1628.34
1013.40	1616.26
1013.56	1893.14
1013.72	1878.81
1013.89	1735.04
1014.05	1728.08
1014.21	2109.61
1014.37	2208.53
1014.54	1695.92
1014.70	1620.56
1014.86	1856.28
1015.02	1763.10
1015.19	1649.23
1015.35	1604.99
1015.51	1849.32
1015.67	1813.89
1015.84	1655.37
1016.00	1652.51
1016.16	1995.95
1016.32	1995.13
1016.49	1644.31
1016.65	1620.56
1016.81	1874.30
1016.97	1943.11
1017.14	1767.40
1017.30	1678.11
1017.46	1795.86
1017.62	1908.50
1017.78	1715.79
1017.95	1635.30
1018.11	1987.14
1018.27	2175.15
1018.43	1760.43
1018.59	1705.55
1018.76	1982.43
1018.92	2217.75
1019.08	1617.28
1019.24	1646.16
1019.40	2047.15
1019.57	1908.71
1019.73	1748.97
1019.89	1670.32
1020.05	1918.13
1020.21	2123.13
1020.38	1626.50
1020.54	1795.66
1020.70	1939.22
1020.86	1951.51
1021.02	1674.62
1021.18	1655.37
1021.35	1807.74
1021.51	1945.57
1021.67	1765.35
1021.83	1678.11
1021.99	1844.20
1022.15	1909.32
1022.32	1735.24
1022.48	1719.27
1022.64	2066.40
1022.80	2060.26
1022.96	1693.26
1023.12	1608.47
1023.29	2007.62
1023.45	1937.99
1023.61	1649.02
1023.77	1813.27
1023.93	1893.96
1024.09	1766.17
1024.25	1645.95
1024.42	1578.16
1024.58	1836.00
1024.74	1920.59
1024.90	1673.40
1025.06	1736.68
1025.22	1787.47
1025.38	2076.44
1025.54	1608.27
1025.71	1733.81
1025.87	1951.71
1026.03	1936.56
1026.19	1632.85
1026.35	1777.64
1026.51	1945.16
1026.67	1868.77
1026.83	1684.25
1026.99	1769.04
1027.16	1924.48
1027.32	1860.17
1027.48	1667.46
1027.64	1615.23
1027.80	1963.59
1027.96	1907.48
1028.12	1671.55
1028.28	1650.05
1028.44	1899.08
1028.60	2071.73
1028.77	1766.37
1028.93	1698.59
1029.09	1833.75
1029.25	1772.31
1029.41	1708.01
1029.57	1746.51
1029.73	1899.49
1029.89	2079.10
1030.05	1766.17
1030.21	1751.63
1030.37	2155.69
1030.53	1939.84
1030.69	1684.25
1030.85	1607.45
1031.02	1764.53
1031.18	1886.18
1031.34	1642.88
1031.50	1719.68
1031.66	1789.52
1031.82	2060.87
1031.98	1720.70
1032.14	1627.11
1032.30	1754.49
1032.46	1963.39
1032.62	1793.61
1032.78	1640.63
1032.94	1805.69
1033.10	1832.73
1033.26	1720.50
1033.42	1753.47
1033.58	2148.73
1033.74	1831.70
1033.90	1666.84
1034.06	1839.69
1034.22	2141.15
1034.38	2016.02
1034.54	1687.32
1034.70	1716.20
1034.86	2097.53
>>>>>End Processed Spectral Data<<<<<
