SpectraSuite Data File
++++++++++++++++++++++++++++++++++++
Date: Thu Mar 30 14:31:48 PDT 2017
User: UCSD _CER
Dark Spectrum Present: No
Reference Spectrum Present: No
Number of Sampled Component Spectra: 1
Spectrometers: USB4C00073
Integration Time (usec): 380000 (USB4C00073)
Spectra Averaged: 10 (USB4C00073)
Boxcar Smoothing: 0 (USB4C00073)
Correct for Electrical Dark: No (USB4C00073)
Strobe/Lamp Enabled: No (USB4C00073)
Correct for Detector Non-linearity: No (USB4C00073)
Correct for Stray Light: No (USB4C00073)
Number of Pixels in Processed Spectrum: 3648
>>>>>Begin Processed Spectral Data<<<<<
345.37	1239.43
345.58	1239.43
345.80	1239.43
346.01	1236.56
346.22	1246.80
346.43	2058.62
346.65	1932.26
346.86	2468.42
347.07	2400.63
347.28	1855.66
347.50	1844.61
347.71	2153.03
347.92	1868.57
348.13	1834.98
348.35	1812.45
348.56	2176.38
348.77	1929.19
348.98	1825.97
349.20	1695.10
349.41	2173.10
349.62	2323.01
349.83	1932.46
350.05	1814.50
350.26	2192.76
350.47	2390.39
350.68	1854.23
350.90	1745.28
351.11	2400.63
351.32	2362.33
351.53	1872.46
351.75	1780.30
351.96	2203.41
352.17	2153.03
352.38	1927.14
352.60	1930.42
352.81	2169.62
353.02	2468.01
353.23	1799.75
353.44	1851.16
353.66	2054.32
353.87	2077.05
354.08	1930.62
354.29	1823.31
354.51	2030.15
354.72	2077.25
354.93	1791.97
355.14	1804.47
355.35	1870.82
355.57	2301.71
355.78	1848.09
355.99	1925.71
356.20	2149.75
356.42	2108.18
356.63	1917.31
356.84	1809.18
357.05	2272.22
357.26	2535.59
357.48	1950.69
357.69	1911.98
357.90	2236.18
358.11	2063.94
358.32	1848.50
358.54	1906.66
358.75	2067.83
358.96	2250.72
359.17	1837.85
359.38	1865.09
359.60	2277.55
359.81	2115.55
360.02	1854.64
360.23	1806.51
360.44	2038.14
360.66	2324.65
360.87	1814.91
361.08	1814.30
361.29	2221.64
361.50	2177.61
361.72	1823.51
361.93	1915.06
362.14	2149.34
362.35	1888.84
362.56	2001.89
362.77	1722.34
362.99	2259.32
363.20	2143.40
363.41	1921.40
363.62	1702.07
363.83	2221.84
364.05	2290.65
364.26	1804.47
364.47	1831.50
364.68	2315.23
364.89	2004.55
365.10	1759.82
365.32	1868.57
365.53	1968.10
365.74	2035.89
365.95	1840.51
366.16	1727.05
366.37	2145.25
366.59	2067.83
366.80	1818.60
367.01	1739.54
367.22	2518.18
367.43	2670.14
367.64	1909.53
367.86	1855.87
368.07	2224.91
368.28	2391.82
368.49	1763.71
368.70	1884.34
368.91	2076.85
369.12	2106.54
369.34	1779.89
369.55	1738.52
369.76	2149.75
369.97	2048.38
370.18	1750.60
370.39	1819.01
370.60	1914.85
370.82	1983.66
371.03	1867.13
371.24	1817.98
371.45	2274.68
371.66	2255.84
371.87	1858.12
372.08	1849.11
372.30	2024.21
372.51	2309.49
372.72	2016.63
372.93	1855.05
373.14	2426.84
373.35	2042.23
373.56	1799.96
373.78	1875.94
373.99	2299.46
374.20	2653.35
374.41	1841.12
374.62	1833.34
374.83	2425.61
375.04	2089.13
375.25	1884.95
375.47	1901.13
375.68	2072.75
375.89	2267.72
376.10	1877.17
376.31	1935.13
376.52	2214.06
376.73	2213.44
376.94	1883.93
377.15	1803.24
377.37	2141.36
377.58	2094.46
377.79	1778.05
378.00	1798.94
378.21	2178.22
378.42	2239.86
378.63	1907.89
378.84	1939.84
379.05	2317.48
379.27	2178.63
379.48	1956.01
379.69	1820.85
379.90	2346.97
380.11	1828.02
380.32	1863.04
380.53	1993.90
380.74	2386.50
380.95	2155.90
381.16	1898.26
381.37	1877.58
381.59	2388.96
381.80	2307.86
382.01	1836.82
382.22	1770.47
382.43	2235.56
382.64	2159.38
382.85	1783.17
383.06	1931.23
383.27	2244.37
383.48	2095.28
383.69	1858.94
383.91	1788.70
384.12	2265.46
384.33	2265.67
384.54	1903.59
384.75	1821.87
384.96	2724.82
385.17	2375.64
385.38	1857.30
385.59	1827.20
385.80	2282.67
386.01	2404.72
386.22	1956.01
386.43	1841.74
386.64	2547.06
386.86	2137.87
387.07	1964.21
387.28	1748.15
387.49	2070.70
387.70	2340.42
387.91	1987.55
388.12	1855.87
388.33	2217.75
388.54	2081.35
388.75	1809.38
388.96	1936.35
389.17	2037.52
389.38	2101.63
389.59	1920.59
389.80	1933.90
390.01	2121.08
390.22	2069.47
390.43	1941.06
390.64	1764.94
390.86	2200.13
391.07	2331.00
391.28	1851.77
391.49	1896.21
391.70	1949.67
391.91	2042.03
392.12	1860.37
392.33	1964.82
392.54	2192.76
392.75	2135.21
392.96	1950.69
393.17	1839.28
393.38	2561.60
393.59	2348.00
393.80	1780.71
394.01	1868.98
394.22	2100.81
394.43	2437.29
394.64	1751.83
394.85	1925.91
395.06	2111.66
395.27	2181.09
395.48	1830.88
395.69	1754.49
395.90	2112.27
396.11	2155.90
396.32	1854.03
396.53	1951.92
396.74	2124.36
396.95	2336.32
397.16	1820.23
397.37	1738.93
397.58	2285.94
397.79	2146.48
398.00	1909.32
398.21	1860.78
398.42	2171.67
398.63	2517.98
398.84	1843.58
399.05	1821.46
399.26	2383.22
399.47	2205.46
399.68	1748.56
399.89	1797.30
400.10	1954.99
400.31	2095.89
400.52	1946.80
400.73	1848.50
400.94	1883.31
401.15	2210.58
401.36	1878.40
401.57	1893.14
401.78	2370.73
401.99	2303.15
402.20	1813.89
402.41	1989.60
402.62	2443.64
402.83	2105.72
403.04	1811.02
403.25	2025.65
403.46	2184.36
403.67	2371.34
403.88	1832.93
404.09	1798.12
404.30	1977.52
404.51	1999.23
404.72	1784.60
404.93	2017.66
405.14	2009.67
405.35	2131.53
405.56	1904.82
405.77	1809.59
405.98	2170.23
406.19	2124.97
406.40	1816.55
406.61	1857.51
406.82	2071.93
407.03	2577.16
407.24	1782.55
407.45	1907.89
407.66	2226.14
407.87	2314.82
408.08	1920.59
408.29	1926.32
408.49	2225.73
408.70	2150.37
408.91	1851.77
409.12	1985.30
409.33	1990.42
409.54	2377.69
409.75	1805.49
409.96	1877.78
410.17	2299.46
410.38	2092.20
410.59	1813.27
410.80	1960.93
411.01	2137.87
411.22	2113.71
411.43	1936.56
411.64	1793.00
411.85	2005.58
412.06	1989.60
412.27	1650.87
412.47	1803.65
412.68	2138.08
412.89	2188.05
413.10	1834.98
413.31	1766.17
413.52	2454.08
413.73	2485.01
413.94	1830.06
414.15	1981.82
414.36	2045.31
414.57	1992.26
414.78	1779.48
414.99	1760.23
415.19	2208.12
415.40	2153.85
415.61	1960.11
415.82	1901.74
416.03	2248.26
416.24	2181.91
416.45	1861.81
416.66	1773.54
416.87	1915.47
417.08	2229.21
417.29	1817.57
417.50	1923.25
417.70	2215.49
417.91	2195.22
418.12	1904.00
418.33	1849.32
418.54	2191.12
418.75	2324.65
418.96	1959.09
419.17	1926.32
419.38	2345.74
419.59	2187.85
419.79	1944.14
420.00	1857.10
420.21	2583.31
420.42	2154.26
420.63	1844.20
420.84	1897.85
421.05	2132.75
421.26	2190.92
421.47	1784.60
421.67	2231.88
421.88	2011.51
422.09	1967.28
422.30	2088.52
422.51	1879.63
422.72	2470.26
422.93	2307.45
423.14	1902.77
423.35	1763.10
423.55	1888.23
423.76	1976.49
423.97	1856.89
424.18	1731.35
424.39	2105.72
424.60	2267.92
424.81	1848.91
425.02	1957.86
425.22	2078.28
425.43	2065.79
425.64	2060.67
425.85	1896.83
426.06	2508.56
426.27	2312.98
426.48	1979.77
426.68	1966.66
426.89	2293.11
427.10	2478.45
427.31	1894.37
427.52	1808.56
427.73	2281.64
427.94	2235.36
428.14	2039.37
428.35	1947.21
428.56	2406.36
428.77	2337.55
428.98	1891.30
429.19	1887.61
429.40	2066.61
429.60	2101.42
429.81	1995.75
430.02	1888.23
430.23	2116.58
430.44	2270.58
430.65	1822.90
430.85	1886.38
431.06	2221.43
431.27	1878.40
431.48	1881.67
431.69	1913.01
431.90	2149.75
432.10	2140.74
432.31	1949.26
432.52	1832.52
432.73	2569.79
432.94	2418.04
433.15	2017.66
433.35	1865.09
433.56	2385.47
433.77	2143.81
433.98	2114.73
434.19	2029.54
434.40	2345.95
434.60	2325.88
434.81	2153.03
435.02	2060.05
435.23	2221.84
435.44	2106.54
435.64	1818.39
435.85	1799.35
436.06	2106.54
436.27	2060.26
436.48	1797.30
436.68	1875.53
436.89	2485.62
437.10	2359.46
437.31	1975.68
437.52	2103.67
437.73	2252.56
437.93	2252.36
438.14	2001.48
438.35	1782.14
438.56	2083.40
438.77	2103.06
438.97	2054.52
439.18	1881.47
439.39	2327.52
439.60	1962.57
439.80	1856.28
440.01	1877.99
440.22	2065.38
440.43	2271.61
440.64	1830.68
440.84	1918.54
441.05	1932.67
441.26	2631.64
441.47	1974.45
441.68	1948.44
441.88	2247.85
442.09	2259.11
442.30	2215.08
442.51	2283.49
442.71	2294.34
442.92	2360.69
443.13	2010.70
443.34	1942.91
443.55	2005.37
443.75	2257.68
443.96	1865.49
444.17	1816.14
444.38	2323.63
444.58	1987.35
444.79	1980.18
445.00	1940.25
445.21	2114.94
445.41	2073.36
445.62	1723.57
445.83	1964.21
446.04	2153.85
446.24	1907.27
446.45	1722.14
446.66	1860.78
446.87	2221.23
447.07	2030.15
447.28	2121.08
447.49	1879.63
447.70	2307.45
447.90	2323.63
448.11	1934.10
448.32	2017.04
448.53	2417.42
448.73	2362.33
448.94	1880.85
449.15	2072.54
449.36	2148.32
449.56	2198.49
449.77	1892.12
449.98	1792.38
450.19	2049.61
450.39	2076.23
450.60	1950.90
450.81	1969.94
451.02	2118.62
451.22	2392.44
451.43	1850.34
451.64	1880.24
451.84	2053.91
452.05	2334.89
452.26	1923.04
452.47	1907.07
452.67	2064.97
452.88	2399.40
453.09	1829.04
453.30	1853.00
453.50	2294.75
453.71	2507.74
453.92	2012.95
454.12	2191.94
454.33	2206.89
454.54	2225.73
454.75	1955.61
454.95	1918.95
455.16	2201.16
455.37	2299.66
455.57	2001.68
455.78	1924.07
455.99	2138.49
456.19	2165.73
456.40	1844.81
456.61	1936.56
456.82	2147.70
457.02	2323.22
457.23	2070.70
457.44	2212.22
457.64	2220.61
457.85	2390.80
458.06	2021.55
458.26	2116.17
458.47	2188.87
458.68	2329.97
458.89	1876.35
459.09	2046.74
459.30	2520.44
459.51	2149.34
459.71	1780.71
459.92	1854.64
460.13	2258.70
460.33	2555.25
460.54	1970.35
460.75	1955.40
460.95	1979.36
461.16	2230.65
461.37	1915.87
461.57	1907.68
461.78	2171.87
461.99	1949.46
462.19	2173.71
462.40	1842.56
462.61	2758.82
462.81	2308.06
463.02	1849.52
463.23	1876.96
463.43	2256.66
463.64	2078.07
463.85	3198.31
464.05	1864.88
464.26	2692.87
464.47	2373.39
464.67	2069.68
464.88	2027.08
465.09	2110.84
465.29	2278.98
465.50	2185.18
465.71	2109.61
465.91	2157.94
466.12	2174.53
466.33	2008.24
466.53	1877.78
466.74	2426.02
466.94	2127.02
467.15	1955.61
467.36	2093.02
467.56	1983.66
467.77	2173.71
467.98	1948.03
468.18	1893.76
468.39	2095.48
468.60	2471.49
468.80	1891.09
469.01	1852.59
469.21	2240.68
469.42	2350.86
469.63	1900.11
469.83	1876.35
470.04	2260.96
470.25	2388.75
470.45	2042.03
470.66	1904.82
470.86	2199.31
471.07	2069.27
471.28	2004.14
471.48	2000.25
471.69	2193.37
471.90	2923.88
472.10	2125.79
472.31	2107.16
472.51	2246.62
472.72	2233.51
472.93	1991.65
473.13	2109.20
473.34	2304.78
473.54	2233.51
473.75	2025.65
473.96	2156.51
474.16	2155.90
474.37	2241.71
474.57	2028.31
474.78	1849.11
474.99	2202.59
475.19	2188.46
475.40	1942.70
475.60	1928.57
475.81	2586.58
476.02	2334.48
476.22	2233.92
476.43	2278.77
476.63	2233.31
476.84	2437.70
477.05	1849.93
477.25	1919.77
477.46	2700.45
477.66	2200.95
477.87	1873.69
478.08	1924.27
478.28	2321.58
478.49	2110.84
478.69	1917.51
478.90	1903.79
479.10	2223.07
479.31	2486.64
479.52	1983.46
479.72	2042.64
479.93	2270.17
480.13	2127.84
480.34	1954.58
480.54	2038.75
480.75	2062.51
480.96	2383.43
481.16	1897.03
481.37	2012.95
481.57	2293.93
481.78	2203.20
481.98	2134.80
482.19	2036.09
482.40	2495.45
482.60	2257.48
482.81	2047.15
483.01	1833.75
483.22	2271.40
483.42	2266.69
483.63	2024.83
483.83	1960.11
484.04	2084.22
484.24	2297.21
484.45	2119.44
484.66	1877.37
484.86	2250.10
485.07	2036.09
485.27	1985.92
485.48	1876.35
485.68	2381.38
485.89	2022.57
486.09	2038.14
486.30	1909.12
486.50	2155.69
486.71	2114.53
486.91	2011.31
487.12	2209.14
487.33	2855.69
487.53	2932.90
487.74	2556.27
487.94	2493.81
488.15	2478.45
488.35	2400.01
488.56	2070.50
488.76	2003.53
488.97	2250.72
489.17	2319.53
489.38	2050.43
489.58	1973.63
489.79	2259.11
489.99	2212.42
490.20	1972.19
490.40	2078.89
490.61	2240.89
490.81	2062.51
491.02	1993.70
491.22	2005.58
491.43	2273.04
491.63	2141.15
491.84	2094.46
492.04	1873.07
492.25	2236.79
492.45	2102.65
492.66	1917.10
492.86	1849.32
493.07	2109.61
493.27	2520.84
493.48	1821.26
493.68	1897.44
493.89	2116.78
494.09	2277.75
494.30	1939.84
494.50	2171.26
494.71	2239.66
494.91	1906.25
495.12	1966.46
495.32	2011.92
495.53	2147.50
495.73	1967.48
495.94	2143.20
496.14	1979.77
496.35	2666.05
496.55	2271.81
496.76	1981.41
496.96	2030.15
497.17	2126.61
497.37	2236.59
497.58	1953.97
497.78	1860.17
497.98	2087.49
498.19	2104.08
498.39	1922.63
498.60	1964.41
498.80	1865.90
499.01	2257.48
499.21	1847.47
499.42	2012.54
499.62	2083.40
499.83	2510.40
500.03	1842.35
500.24	2073.98
500.44	2399.40
500.64	2309.70
500.85	1928.16
501.05	2049.20
501.26	1897.65
501.46	2354.96
501.67	1877.37
501.87	1845.42
502.08	2002.50
502.28	2069.06
502.48	2012.13
502.69	2045.51
502.89	1876.76
503.10	2006.19
503.30	2013.15
503.51	1987.55
503.71	1904.82
503.92	2249.90
504.12	1952.12
504.32	1883.93
504.53	2265.87
504.73	2218.77
504.94	2062.92
505.14	2191.74
505.35	2237.61
505.55	2215.08
505.75	1988.99
505.96	2144.63
506.16	2493.20
506.37	2052.88
506.57	1889.87
506.78	2040.19
506.98	2304.17
507.18	1908.50
507.39	1881.26
507.59	1915.67
507.80	2004.96
508.00	2131.12
508.20	2160.81
508.41	1929.39
508.61	2346.97
508.82	2316.46
509.02	2103.88
509.22	1893.96
509.43	1986.73
509.63	2044.28
509.84	1952.53
510.04	1788.90
510.24	2399.81
510.45	2267.10
510.65	1846.04
510.86	2006.80
511.06	1958.68
511.26	2271.61
511.47	2128.04
511.67	1896.62
511.88	2214.67
512.08	2336.32
512.28	1862.63
512.49	2000.05
512.69	2150.98
512.90	2201.36
513.10	1936.56
513.30	2004.14
513.51	2219.18
513.71	2427.46
513.91	2011.51
514.12	2009.06
514.32	2296.80
514.53	2028.10
514.73	2029.13
514.93	1944.14
515.14	2108.18
515.34	2325.47
515.54	1886.38
515.75	2008.85
515.95	2207.10
516.15	2372.16
516.36	1984.07
516.56	1996.97
516.77	1786.85
516.97	2206.07
517.17	1942.09
517.38	2027.08
517.58	2367.04
517.78	2045.10
517.99	2043.87
518.19	1929.60
518.39	2323.63
518.60	2052.88
518.80	1843.17
519.00	1984.07
519.21	2100.60
519.41	2445.07
519.61	1877.37
519.82	2041.21
520.02	2119.44
520.22	2099.37
520.43	1972.81
520.63	2024.62
520.83	2020.73
521.04	1864.68
521.24	2046.33
521.44	1978.54
521.65	1986.73
521.85	2219.59
522.05	1906.25
522.26	1905.84
522.46	2446.71
522.66	2262.19
522.87	1959.91
523.07	2140.33
523.27	2041.82
523.48	2349.02
523.68	1982.23
523.88	2054.93
524.09	2313.18
524.29	2182.52
524.49	1837.64
524.70	2041.42
524.90	2362.13
525.10	2192.76
525.31	1853.41
525.51	1865.09
525.71	2266.08
525.91	2237.82
526.12	1945.37
526.32	1864.88
526.52	2042.85
526.73	2024.21
526.93	1994.93
527.13	1833.96
527.34	2137.26
527.54	2161.22
527.74	1982.84
527.94	1848.29
528.15	1954.99
528.35	2130.50
528.55	2087.08
528.76	1999.64
528.96	1853.62
529.16	2279.39
529.36	2063.12
529.57	1883.52
529.77	2345.54
529.97	1986.32
530.18	2033.63
530.38	1907.68
530.58	2245.39
530.78	2173.51
530.99	1929.39
531.19	2022.57
531.39	2027.69
531.60	2137.46
531.80	1987.14
532.00	2123.54
532.20	2181.50
532.41	1995.75
532.61	1914.44
532.81	1909.12
533.01	2046.54
533.22	2201.16
533.42	2112.48
533.62	1839.69
533.82	2361.31
534.03	2082.37
534.23	2066.20
534.43	1912.39
534.63	2034.04
534.84	2165.73
535.04	2058.62
535.24	1995.34
535.44	2587.81
535.65	2055.55
535.85	1946.39
536.05	1878.19
536.25	2125.59
536.46	1977.72
536.66	2114.73
536.86	2012.74
537.06	2238.63
537.27	2339.60
537.47	2011.72
537.67	1945.78
537.87	2390.39
538.08	2095.28
538.28	1888.23
538.48	1845.83
538.68	2067.01
538.88	2263.01
539.09	1825.15
539.29	1942.09
539.49	2297.41
539.69	2210.99
539.90	2058.41
540.10	1859.76
540.30	2325.26
540.50	2044.28
540.70	1832.73
540.91	1913.62
541.11	2241.09
541.31	2390.59
541.51	2000.46
541.72	2017.25
541.92	2178.83
542.12	1986.73
542.32	1996.16
542.52	1929.19
542.73	2018.07
542.93	2237.20
543.13	1931.64
543.33	2089.13
543.53	2230.65
543.74	2221.84
543.94	1927.14
544.14	2012.74
544.34	2335.71
544.54	2076.85
544.75	2027.69
544.95	2113.71
545.15	2244.37
545.35	2426.02
545.55	2075.62
545.75	1965.23
545.96	2531.70
546.16	2004.35
546.36	1965.64
546.56	1986.94
546.76	2352.30
546.97	2427.25
547.17	1994.31
547.37	2095.48
547.57	2046.13
547.77	2257.07
547.97	2034.25
548.18	2046.54
548.38	2123.33
548.58	2380.15
548.78	1898.06
548.98	1987.35
549.18	2256.66
549.39	2376.05
549.59	2041.01
549.79	2023.19
549.99	2372.57
550.19	2285.94
550.39	2124.36
550.60	2010.70
550.80	2214.67
551.00	2241.30
551.20	1964.62
551.40	1958.47
551.60	2231.06
551.80	2190.10
552.01	2039.78
552.21	1991.44
552.41	2199.52
552.61	2455.51
552.81	2065.79
553.01	1906.45
553.21	2209.76
553.42	1985.51
553.62	1951.51
553.82	1902.56
554.02	2382.61
554.22	2281.03
554.42	1868.98
554.62	2093.23
554.83	2380.76
555.03	2372.57
555.23	1983.46
555.43	2218.77
555.63	2134.80
555.83	2120.88
556.03	2043.05
556.23	1848.29
556.44	2142.18
556.64	2324.03
556.84	1723.98
557.04	1966.05
557.24	2156.10
557.44	2128.25
557.64	2015.00
557.84	1893.76
558.04	2058.21
558.25	2274.68
558.45	1860.37
558.65	2006.60
558.85	2127.63
559.05	1837.85
559.25	1961.13
559.45	2018.07
559.65	2488.08
559.85	2972.01
560.05	1993.29
560.26	2061.08
560.46	2063.53
560.66	2012.95
560.86	1957.24
561.06	1890.28
561.26	2365.61
561.46	2221.84
561.66	1970.56
561.86	2107.97
562.06	2007.83
562.26	2100.19
562.47	2042.44
562.67	1876.14
562.87	2223.89
563.07	1875.32
563.27	1997.38
563.47	2008.24
563.67	2050.22
563.87	2259.11
564.07	1897.85
564.27	1947.21
564.47	2137.26
564.67	2182.73
564.87	1934.10
565.08	2049.20
565.28	2004.96
565.48	2210.99
565.68	2031.59
565.88	2100.60
566.08	2498.52
566.28	2157.94
566.48	1871.84
566.68	2003.94
566.88	2088.31
567.08	2310.52
567.28	1996.56
567.48	2016.84
567.68	2186.21
567.88	1904.20
568.08	1994.31
568.28	2117.60
568.48	2106.95
568.68	2329.97
568.89	2052.47
569.09	1873.89
569.29	2249.90
569.49	2282.46
569.69	1903.59
569.89	1925.71
570.09	1870.41
570.29	2031.99
570.49	1877.78
570.69	1926.93
570.89	2286.15
571.09	2497.91
571.29	1882.90
571.49	2118.42
571.69	2208.32
571.89	2229.21
572.09	2004.35
572.29	2039.78
572.49	2286.97
572.69	2244.57
572.89	2033.02
573.09	1735.24
573.29	2102.04
573.49	2120.47
573.69	1966.87
573.89	2034.25
574.09	2029.33
574.29	2354.75
574.49	2029.33
574.69	1888.84
574.89	1953.15
575.09	1955.81
575.29	1880.44
575.49	1985.30
575.69	2198.49
575.89	1926.11
576.09	1975.27
576.29	1985.51
576.49	1942.29
576.69	2061.28
576.89	1924.89
577.09	1995.54
577.29	1914.03
577.49	2456.54
577.69	1949.05
577.89	2122.31
578.09	2112.07
578.29	1876.55
578.49	2004.96
578.69	1889.87
578.89	2316.87
579.09	2151.39
579.29	1905.43
579.49	2111.87
579.69	2052.06
579.89	2431.76
580.09	1788.08
580.29	1826.17
580.49	2033.63
580.69	1970.56
580.89	1952.94
581.09	1955.40
581.29	2050.22
581.49	2098.76
581.69	1896.42
581.89	1905.63
582.09	1985.71
582.28	1985.71
582.48	2069.47
582.68	2126.00
582.88	2381.17
583.08	2060.26
583.28	1977.72
583.48	2002.30
583.68	2006.19
583.88	2124.77
584.08	2005.78
584.28	2009.47
584.48	2483.78
584.68	2241.30
584.88	1979.16
585.08	2191.74
585.28	2296.59
585.48	2352.71
585.68	2085.24
585.87	2130.09
586.07	2239.45
586.27	2108.59
586.47	2058.21
586.67	1970.76
586.87	2133.57
587.07	2086.68
587.27	1864.06
587.47	2053.70
587.67	2422.95
587.87	2572.45
588.07	2049.40
588.27	1919.15
588.46	2268.33
588.66	2253.18
588.86	1971.58
589.06	2020.94
589.26	2265.05
589.46	2248.87
589.66	1914.44
589.86	1874.10
590.06	2045.10
590.26	2178.63
590.46	1937.17
590.66	2026.06
590.85	1960.32
591.05	2149.75
591.25	1880.04
591.45	1962.36
591.65	2202.39
591.85	2097.73
592.05	1916.69
592.25	2026.26
592.45	2293.11
592.64	2042.44
592.84	2011.11
593.04	1914.65
593.24	2556.07
593.44	2034.86
593.64	1987.35
593.84	2077.87
594.04	2071.52
594.24	2396.33
594.43	1990.63
594.63	1992.06
594.83	2286.35
595.03	2282.46
595.23	1914.24
595.43	1862.42
595.63	2017.25
595.83	2274.06
596.02	1778.66
596.22	1962.16
596.42	2189.48
596.62	2122.51
596.82	1949.26
597.02	2019.50
597.22	2350.25
597.41	2175.76
597.61	1942.91
597.81	2120.26
598.01	2207.71
598.21	2040.60
598.41	1885.77
598.61	1906.86
598.80	2135.21
599.00	2179.86
599.20	2103.47
599.40	1980.80
599.60	2059.85
599.80	2255.63
599.99	2119.44
600.19	1941.68
600.39	2153.23
600.59	2214.67
600.79	2071.93
600.99	1968.71
601.19	2393.26
601.38	2460.43
601.58	2071.11
601.78	1760.02
601.98	2194.40
602.18	2155.90
602.37	2218.36
602.57	1975.68
602.77	2265.05
602.97	2141.56
603.17	2139.10
603.37	2054.11
603.56	2286.56
603.76	2230.03
603.96	1985.10
604.16	2031.18
604.36	2348.61
604.56	2272.63
604.75	1888.23
604.95	2025.65
605.15	2373.19
605.35	2282.67
605.55	1939.02
605.74	1907.07
605.94	2307.65
606.14	2128.04
606.34	2007.42
606.54	2059.03
606.73	2036.70
606.93	2269.76
607.13	1917.72
607.33	2076.03
607.53	2417.83
607.72	2351.27
607.92	2063.33
608.12	2146.27
608.32	2083.19
608.51	2250.72
608.71	1865.49
608.91	2051.04
609.11	2223.07
609.31	2085.04
609.50	1974.45
609.70	2215.70
609.90	2297.21
610.10	2283.28
610.29	1939.63
610.49	1858.33
610.69	2239.66
610.89	2159.38
611.09	1968.71
611.28	2189.07
611.48	2314.41
611.68	2091.39
611.88	1980.80
612.07	1905.63
612.27	2246.83
612.47	2006.80
612.67	2037.32
612.86	2101.83
613.06	2130.71
613.26	1874.51
613.46	1952.74
613.65	2038.14
613.85	2633.89
614.05	2241.71
614.25	2068.65
614.44	2012.74
614.64	2136.44
614.84	2016.23
615.04	1928.98
615.23	1967.89
615.43	2203.41
615.63	2248.26
615.83	1919.97
616.02	1816.96
616.22	2222.87
616.42	1923.45
616.62	1882.49
616.81	1972.40
617.01	2153.03
617.21	2105.11
617.41	1868.98
617.60	1999.23
617.80	2212.22
618.00	2253.38
618.19	2047.97
618.39	1976.09
618.59	2238.63
618.79	2129.89
618.98	1864.68
619.18	1986.53
619.38	2538.87
619.57	2094.66
619.77	1998.61
619.97	1982.23
620.17	2020.53
620.36	1922.43
620.56	2160.40
620.76	1867.34
620.95	1919.77
621.15	2051.86
621.35	1868.36
621.54	1971.99
621.74	2153.44
621.94	2009.88
622.14	1840.71
622.33	1840.30
622.53	2090.57
622.73	2083.81
622.92	1827.81
623.12	1980.59
623.32	2480.50
623.51	2250.72
623.71	1885.77
623.91	2139.51
624.10	1967.28
624.30	2164.50
624.50	1852.59
624.69	1842.56
624.89	2812.07
625.09	2068.45
625.29	1757.57
625.48	1872.46
625.68	2175.97
625.88	2332.84
626.07	2036.50
626.27	1910.55
626.47	2052.06
626.66	1895.60
626.86	2006.60
627.06	2000.87
627.25	2159.58
627.45	2411.28
627.64	1976.29
627.84	2151.80
628.04	1994.31
628.23	2507.12
628.43	1850.13
628.63	1892.73
628.82	2013.15
629.02	2440.56
629.22	2033.02
629.41	2123.95
629.61	2121.70
629.81	2484.39
630.00	1905.84
630.20	1845.42
630.40	2137.67
630.59	2181.29
630.79	1981.61
630.98	1929.80
631.18	2100.19
631.38	2094.25
631.57	2089.95
631.77	1845.63
631.97	2139.31
632.16	2179.04
632.36	2004.14
632.56	2004.76
632.75	2182.52
632.95	2312.98
633.14	1877.17
633.34	2144.22
633.54	1849.11
633.73	2043.05
633.93	1948.44
634.12	1807.74
634.32	2633.07
634.52	2114.12
634.71	1810.20
634.91	2009.47
635.11	1950.49
635.30	2013.97
635.50	1991.04
635.69	1884.95
635.89	2437.70
636.09	2273.25
636.28	1866.72
636.48	1880.04
636.67	2213.44
636.87	2216.72
637.07	2031.59
637.26	1895.40
637.46	2136.85
637.65	2257.27
637.85	2018.48
638.04	1892.94
638.24	2031.18
638.44	2181.91
638.63	1982.84
638.83	1946.18
639.02	2206.89
639.22	2251.74
639.42	1934.10
639.61	1973.63
639.81	2137.46
640.00	2096.10
640.20	2104.29
640.39	1986.94
640.59	2433.81
640.79	2252.15
640.98	2019.71
641.18	1899.49
641.37	2046.94
641.57	1992.88
641.76	1976.90
641.96	1745.28
642.15	2144.84
642.35	2005.58
642.55	2007.01
642.74	1838.87
642.94	2237.82
643.13	2338.78
643.33	1912.19
643.52	1901.33
643.72	2059.85
643.91	2134.19
644.11	1857.51
644.31	1925.30
644.50	2004.35
644.70	2346.56
644.89	2004.76
645.09	2070.50
645.28	2121.29
645.48	2192.35
645.67	1902.97
645.87	1808.77
646.06	2060.46
646.26	2150.78
646.45	1738.11
646.65	1749.17
646.84	2473.74
647.04	2057.39
647.24	1861.81
647.43	1953.56
647.63	2162.86
647.82	2380.15
648.02	1867.75
648.21	1937.79
648.41	2364.79
648.60	2076.03
648.80	2084.63
648.99	1970.35
649.19	2047.56
649.38	1870.82
649.58	1973.63
649.77	2024.42
649.97	2304.37
650.16	2188.66
650.36	1748.35
650.55	2133.16
650.75	2162.86
650.94	2400.83
651.14	1978.95
651.33	2014.79
651.53	2406.98
651.72	1981.61
651.92	1945.78
652.11	1789.11
652.31	2190.10
652.50	2195.42
652.70	1992.06
652.89	1873.28
653.09	2378.31
653.28	2065.17
653.48	1744.05
653.67	1772.52
653.87	2639.63
654.06	2129.48
654.25	2175.76
654.45	1899.90
654.64	2059.64
654.84	2085.24
655.03	1769.24
655.23	2124.56
655.42	2256.04
655.62	2483.78
655.81	2102.24
656.01	1940.45
656.20	2317.48
656.40	2403.91
656.59	2059.64
656.79	2100.81
656.98	2202.18
657.17	2297.82
657.37	1978.34
657.56	1950.69
657.76	2198.49
657.95	2327.31
658.15	1651.28
658.34	2001.68
658.54	2113.30
658.73	1937.38
658.92	1947.21
659.12	1996.97
659.31	2206.69
659.51	1932.05
659.70	1982.02
659.90	1884.75
660.09	2264.85
660.29	2071.73
660.48	1870.00
660.67	2112.27
660.87	1997.59
661.06	2149.55
661.26	2027.90
661.45	2085.45
661.65	2211.60
661.84	2042.23
662.03	1892.94
662.23	1948.64
662.42	2486.44
662.62	1940.45
662.81	1853.21
663.00	1944.34
663.20	2172.69
663.39	2196.45
663.59	2072.34
663.78	1943.32
663.97	2075.82
664.17	2300.28
664.36	1865.90
664.56	1911.78
664.75	2280.82
664.94	2239.04
665.14	2026.47
665.33	1974.86
665.53	2106.95
665.72	2096.71
665.91	2068.65
666.11	1999.84
666.30	2136.65
666.50	2056.57
666.69	1997.79
666.88	1926.32
667.08	2137.26
667.27	2065.58
667.47	1940.86
667.66	1936.35
667.85	2286.56
668.05	2109.41
668.24	1889.66
668.43	2155.08
668.63	2065.99
668.82	2281.03
669.02	2034.66
669.21	1909.53
669.40	1907.07
669.60	2443.64
669.79	1790.54
669.98	2574.50
670.18	1987.35
670.37	1899.29
670.56	1954.79
670.76	2004.96
670.95	2074.80
671.15	2275.91
671.34	1978.54
671.53	1957.86
671.73	2024.42
671.92	1974.04
672.11	1833.96
672.31	1925.09
672.50	2168.80
672.69	1920.59
672.89	1732.38
673.08	1940.86
673.27	2240.48
673.47	2124.56
673.66	1978.95
673.85	1845.02
674.05	2129.07
674.24	2109.00
674.43	1830.06
674.63	1999.23
674.82	2515.93
675.01	1737.29
675.21	2034.86
675.40	1909.32
675.59	2004.14
675.79	2328.75
675.98	1923.04
676.17	2091.18
676.37	2172.89
676.56	2032.81
676.75	1966.46
676.95	1990.22
677.14	2034.45
677.33	2294.75
677.52	1829.04
677.72	1914.24
677.91	2167.77
678.10	1895.19
678.30	1884.75
678.49	1877.99
678.68	2506.51
678.88	1802.42
679.07	2131.53
679.26	1941.06
679.45	2462.27
679.65	2364.58
679.84	1781.12
680.03	1803.44
680.23	2061.28
680.42	2576.75
680.61	1868.36
680.81	1917.92
681.00	2120.67
681.19	2159.99
681.38	2051.86
681.58	2004.35
681.77	2066.81
681.96	2242.12
682.15	1858.74
682.35	2019.09
682.54	2196.65
682.73	1929.60
682.93	1853.82
683.12	1857.51
683.31	2271.20
683.50	2577.37
683.70	1872.87
683.89	1998.00
684.08	1951.92
684.27	2286.56
684.47	1802.62
684.66	1940.25
684.85	2451.01
685.04	2352.09
685.24	1861.40
685.43	1912.80
685.62	1837.64
685.81	2163.47
686.01	2026.26
686.20	1867.54
686.39	1866.72
686.58	2439.13
686.78	1968.51
686.97	1924.89
687.16	2250.72
687.35	2112.27
687.55	1921.40
687.74	1962.36
687.93	1904.20
688.12	2053.70
688.32	1962.77
688.51	1770.67
688.70	2147.50
688.89	1906.45
689.08	1814.30
689.28	1878.60
689.47	2115.35
689.66	2126.20
689.85	2044.28
690.05	1844.20
690.24	1987.14
690.43	2153.85
690.62	1989.60
690.81	1861.40
691.01	2128.25
691.20	2072.54
691.39	1823.92
691.58	1988.58
691.77	2428.69
691.97	2119.65
692.16	2009.06
692.35	1955.81
692.54	2008.65
692.73	2185.80
692.93	1977.93
693.12	1985.51
693.31	2177.20
693.50	2128.86
693.69	2022.57
693.89	1911.16
694.08	2324.44
694.27	2314.82
694.46	1905.84
694.65	1937.79
694.85	2188.25
695.04	2173.71
695.23	1889.25
695.42	2107.97
695.61	2199.72
695.80	2326.08
696.00	2240.48
696.19	2257.27
696.38	2068.65
696.57	2269.76
696.76	2137.87
696.95	1991.65
697.15	2364.58
697.34	2390.18
697.53	1939.43
697.72	2065.58
697.91	2051.86
698.10	2341.24
698.30	1953.56
698.49	1927.75
698.68	2141.77
698.87	2048.17
699.06	1898.26
699.25	1970.56
699.45	2270.58
699.64	2129.27
699.83	2123.13
700.02	1904.20
700.21	2177.20
700.40	2041.62
700.59	1919.77
700.79	1981.20
700.98	2231.47
701.17	2018.27
701.36	1898.67
701.55	1906.66
701.74	2296.59
701.93	1881.88
702.12	1906.04
702.32	1822.69
702.51	2230.24
702.70	2187.64
702.89	1947.21
703.08	1913.42
703.27	2282.87
703.46	2148.73
703.65	1825.56
703.85	1806.10
704.04	1976.49
704.23	2246.62
704.42	1882.08
704.61	1891.71
704.80	2378.92
704.99	1987.35
705.18	1989.81
705.37	1927.75
705.57	2182.73
705.76	2316.05
705.95	1932.26
706.14	2282.87
706.33	2483.37
706.52	2677.92
706.71	2156.10
706.90	2010.70
707.09	2261.57
707.28	2202.39
707.47	1883.72
707.67	2065.79
707.86	2001.89
708.05	2327.31
708.24	1933.28
708.43	1994.52
708.62	2062.30
708.81	1973.22
709.00	1884.13
709.19	1886.59
709.38	2242.73
709.57	1917.51
709.76	1985.51
709.96	1852.80
710.15	2352.91
710.34	2125.18
710.53	2059.85
710.72	1929.39
710.91	2304.58
711.10	2195.22
711.29	2037.11
711.48	1937.38
711.67	1920.38
711.86	2158.76
712.05	1808.56
712.24	1833.14
712.43	2235.97
712.62	2317.69
712.81	1949.67
713.00	2124.56
713.19	1929.80
713.39	2154.26
713.58	1839.90
713.77	1977.93
713.96	2201.57
714.15	2048.58
714.34	1921.20
714.53	1761.46
714.72	2435.44
714.91	1923.86
715.10	1985.71
715.29	1818.39
715.48	2586.38
715.67	2222.25
715.86	1954.79
716.05	1891.91
716.24	2062.51
716.43	2020.32
716.62	1842.76
716.81	1798.73
717.00	2046.54
717.19	2371.55
717.38	1913.01
717.57	1927.96
717.76	1859.76
717.95	2252.77
718.14	1977.31
718.33	1982.02
718.52	1827.40
718.71	1876.55
718.90	1862.22
719.09	1884.75
719.28	2082.58
719.47	2264.03
719.66	2009.06
719.85	2003.12
720.04	2016.02
720.23	2072.95
720.42	1870.41
720.61	2022.78
720.80	1873.28
720.99	2126.00
721.18	1899.29
721.37	1842.35
721.56	2029.74
721.75	2245.39
721.94	1834.57
722.13	1897.03
722.32	2046.33
722.51	2246.42
722.70	1981.61
722.89	2024.62
723.08	2089.54
723.27	2270.17
723.46	2027.28
723.65	1974.24
723.84	2026.67
724.03	2340.83
724.22	1822.08
724.41	1939.22
724.60	2065.38
724.79	2222.05
724.98	2002.91
725.16	1913.62
725.35	2223.48
725.54	1929.39
725.73	1947.21
725.92	1965.44
726.11	2038.34
726.30	2218.97
726.49	1867.95
726.68	1889.05
726.87	2154.26
727.06	2327.52
727.25	1884.54
727.44	2009.06
727.63	2064.56
727.82	2008.85
728.01	1965.85
728.20	2027.08
728.38	2330.79
728.57	2018.68
728.76	1906.66
728.95	2051.25
729.14	1869.39
729.33	1917.51
729.52	1680.97
729.71	1858.94
729.90	1922.63
730.09	2001.28
730.28	1841.94
730.47	1875.32
730.66	2263.21
730.84	2101.42
731.03	1962.57
731.22	1967.07
731.41	2099.58
731.60	2147.50
731.79	1744.25
731.98	1830.27
732.17	2201.57
732.36	2158.56
732.55	1874.30
732.73	1781.73
732.92	2312.36
733.11	2174.74
733.30	1864.06
733.49	1790.95
733.68	2206.48
733.87	2135.83
734.06	1783.99
734.25	1819.01
734.43	1988.58
734.62	2100.40
734.81	1890.48
735.00	1850.54
735.19	2012.54
735.38	2161.63
735.57	1807.54
735.76	2001.89
735.94	2152.01
736.13	2440.56
736.32	1990.22
736.51	1913.01
736.70	2377.28
736.89	2389.37
737.08	2070.09
737.27	2233.11
737.45	2516.75
737.64	2364.18
737.83	2349.84
738.02	2351.27
738.21	2541.73
738.40	2602.35
738.59	2085.24
738.77	2122.11
738.96	2073.36
739.15	2197.88
739.34	2114.94
739.53	2044.90
739.72	2349.84
739.90	2304.37
740.09	1902.56
740.28	1973.22
740.47	2225.12
740.66	2210.78
740.85	1855.66
741.03	1917.10
741.22	1938.61
741.41	2046.54
741.60	1754.29
741.79	1988.17
741.98	2298.64
742.16	2411.48
742.35	1935.74
742.54	1971.99
742.73	2432.99
742.92	1997.79
743.10	1777.84
743.29	1880.24
743.48	2504.46
743.67	1970.15
743.86	1766.58
744.05	1825.97
744.23	1915.87
744.42	1919.97
744.61	1971.37
744.80	1781.53
744.99	2003.53
745.17	1812.45
745.36	1759.61
745.55	2010.29
745.74	2085.65
745.93	1950.08
746.11	1852.39
746.30	1802.21
746.49	2265.87
746.68	1941.68
746.86	1931.44
747.05	1891.71
747.24	2191.74
747.43	2165.93
747.62	1802.01
747.80	1867.54
747.99	2263.82
748.18	2205.66
748.37	1956.01
748.56	1988.99
748.74	2264.03
748.93	2092.61
749.12	2115.14
749.31	2425.20
749.49	2746.53
749.68	2959.52
749.87	3084.86
750.06	2879.44
750.24	3018.50
750.43	2944.57
750.62	2803.67
750.81	2932.69
750.99	3109.84
751.18	3082.19
751.37	2699.84
751.56	2758.41
751.74	3087.52
751.93	3215.93
752.12	2266.69
752.31	2215.70
752.49	2328.54
752.68	2591.50
752.87	2110.23
753.06	2068.45
753.24	2139.10
753.43	2357.62
753.62	1904.82
753.81	1921.40
753.99	2408.21
754.18	2184.16
754.37	1882.49
754.55	1942.70
754.74	2424.39
754.93	1806.51
755.12	1881.67
755.30	1819.83
755.49	2240.07
755.68	2120.88
755.86	2006.19
756.05	1815.11
756.24	2372.16
756.43	1898.06
756.61	1851.77
756.80	1968.92
756.99	2317.69
757.17	2070.09
757.36	1848.50
757.55	1915.06
757.74	2177.20
757.92	2103.88
758.11	1830.06
758.30	1752.24
758.48	2057.39
758.67	1874.30
758.86	1942.50
759.04	1833.75
759.23	1974.65
759.42	2078.89
759.60	1847.27
759.79	1935.13
759.98	2016.63
760.16	1950.49
760.35	1888.64
760.54	1834.37
760.73	2126.20
760.91	1865.29
761.10	1887.41
761.29	1993.29
761.47	2067.22
761.66	2473.54
761.85	1953.35
762.03	2097.94
762.22	2337.35
762.41	2665.02
762.59	2920.40
762.78	3102.26
762.97	3812.50
763.15	3753.11
763.34	3445.50
763.52	2935.76
763.71	3083.42
763.90	3110.86
764.08	2698.40
764.27	2672.60
764.46	2896.65
764.64	2529.04
764.83	2406.77
765.02	2335.71
765.20	2405.95
765.39	2433.81
765.58	1981.82
765.76	2010.90
765.95	2190.92
766.13	2112.68
766.32	1916.90
766.51	1901.74
766.69	2889.68
766.88	2186.82
767.07	1823.72
767.25	1706.98
767.44	2252.15
767.62	2290.24
767.81	1808.97
768.00	1911.57
768.18	2090.57
768.37	1972.19
768.56	1729.71
768.74	1870.41
768.93	1864.68
769.11	2156.10
769.30	1984.28
769.49	1849.11
769.67	2041.01
769.86	2012.54
770.04	1907.07
770.23	1862.22
770.42	2346.36
770.60	2081.15
770.79	1828.84
770.97	1897.65
771.16	2318.30
771.35	2184.36
771.53	2098.55
771.72	2147.50
771.90	2442.82
772.09	2651.10
772.27	2420.29
772.46	2141.97
772.65	2523.10
772.83	2412.30
773.02	2226.55
773.20	2002.30
773.39	2342.47
773.58	2363.97
773.76	1923.66
773.95	1933.69
774.13	2202.39
774.32	2077.25
774.50	1881.67
774.69	1981.82
774.87	2070.70
775.06	2493.20
775.25	1899.08
775.43	1908.91
775.62	2139.92
775.80	2237.82
775.99	1958.06
776.17	1923.25
776.36	2125.59
776.54	2342.26
776.73	1896.21
776.92	2007.83
777.10	2263.82
777.29	2164.50
777.47	1895.40
777.66	1922.63
777.84	2133.78
778.03	2090.16
778.21	1882.70
778.40	1981.41
778.58	2174.53
778.77	2292.50
778.95	1822.49
779.14	1886.18
779.32	2396.74
779.51	2259.73
779.70	1879.42
779.88	1783.37
780.07	2031.38
780.25	2544.81
780.44	1925.30
780.62	2027.69
780.81	2192.35
780.99	2139.31
781.18	1872.87
781.36	1855.05
781.55	2080.53
781.73	2357.62
781.92	1801.60
782.10	1851.57
782.29	2158.56
782.47	2361.72
782.66	1873.89
782.84	1782.14
783.03	1972.81
783.21	2297.82
783.40	1841.74
783.58	1843.58
783.77	2022.98
783.95	2064.56
784.14	1855.05
784.32	1935.33
784.51	2292.91
784.69	1947.41
784.88	1792.38
785.06	1923.66
785.24	1862.22
785.43	2229.42
785.61	1983.66
785.80	1834.37
785.98	2193.17
786.17	2072.95
786.35	1776.82
786.54	1992.26
786.72	2241.71
786.91	2242.94
787.09	1909.53
787.28	1782.55
787.46	2077.66
787.65	2256.25
787.83	1767.60
788.01	1885.77
788.20	1871.64
788.38	2059.64
788.57	1882.90
788.75	1862.63
788.94	2408.41
789.12	2289.22
789.31	1950.08
789.49	2039.57
789.67	2004.14
789.86	2137.26
790.04	1816.14
790.23	1753.68
790.41	2471.69
790.60	2008.85
790.78	1861.81
790.96	1891.30
791.15	2204.84
791.33	2033.43
791.52	1918.95
791.70	1807.74
791.89	2070.09
792.07	2255.43
792.25	1929.39
792.44	1770.47
792.62	2257.89
792.81	2001.28
792.99	1871.84
793.17	1876.96
793.36	1941.27
793.54	2400.42
793.73	2063.94
793.91	2006.19
794.10	2467.80
794.28	2562.42
794.46	2216.31
794.65	2259.11
794.83	2149.55
795.01	2272.43
795.20	2240.89
795.38	2137.26
795.57	2283.69
795.75	2307.65
795.93	2009.26
796.12	2026.06
796.30	2268.33
796.49	2252.77
796.67	1864.88
796.85	2017.86
797.04	2098.35
797.22	2217.95
797.40	1846.04
797.59	1960.73
797.77	2084.63
797.96	1973.01
798.14	1815.32
798.32	1882.70
798.51	2188.46
798.69	2408.00
798.87	1934.31
799.06	1891.71
799.24	1816.34
799.42	2216.11
799.61	2006.19
799.79	1954.38
799.98	2522.48
800.16	2156.92
800.34	2183.95
800.53	2338.58
800.71	2462.07
800.89	2922.04
801.08	2584.95
801.26	2593.96
801.44	2453.26
801.63	2353.12
801.81	2245.39
801.99	2196.65
802.18	2295.16
802.36	2337.96
802.54	2176.38
802.73	1973.22
802.91	2235.77
803.09	2223.07
803.28	2111.87
803.46	2061.69
803.64	2416.19
803.83	1958.68
804.01	1857.10
804.19	1796.68
804.38	2233.72
804.56	2155.90
804.74	1918.95
804.92	1927.34
805.11	1887.20
805.29	2259.73
805.47	1861.81
805.66	1784.60
805.84	1858.94
806.02	2177.40
806.21	1845.22
806.39	2093.02
806.57	2216.11
806.76	2218.77
806.94	1932.67
807.12	1854.64
807.30	1950.49
807.49	2078.69
807.67	1954.79
807.85	2021.35
808.04	2200.95
808.22	2497.91
808.40	1807.54
808.58	1763.10
808.77	2177.20
808.95	2328.95
809.13	1901.13
809.31	2248.46
809.50	2498.73
809.68	2654.78
809.86	2304.78
810.05	2442.61
810.23	2992.49
810.41	3106.77
810.59	4236.22
810.78	4925.36
810.96	5573.34
811.14	6028.81
811.32	5431.21
811.51	4712.58
811.69	4326.54
811.87	4428.53
812.05	3862.06
812.24	3673.24
812.42	3813.52
812.60	3745.12
812.78	3056.18
812.97	2836.44
813.15	3218.79
813.33	2880.67
813.51	2653.14
813.70	2267.10
813.88	2280.21
814.06	2342.26
814.24	2134.80
814.42	1889.46
814.61	2222.46
814.79	2451.83
814.97	1836.00
815.15	1863.86
815.34	2131.12
815.52	2255.02
815.70	1849.52
815.88	1953.35
816.06	1938.81
816.25	1997.38
816.43	1900.92
816.61	2012.54
816.79	2337.76
816.98	1817.37
817.16	1793.82
817.34	1823.31
817.52	2103.26
817.70	2337.35
817.89	1925.50
818.07	1820.44
818.25	2044.49
818.43	2117.60
818.61	1880.24
818.80	1867.34
818.98	2406.36
819.16	2116.37
819.34	1807.95
819.52	2159.38
819.70	1942.70
819.89	2054.93
820.07	1765.55
820.25	1760.23
820.43	2142.18
820.61	2255.43
820.80	1920.18
820.98	1790.95
821.16	1819.83
821.34	1874.10
821.52	1901.54
821.70	2041.62
821.89	2086.27
822.07	2039.37
822.25	1957.65
822.43	1865.70
822.61	2350.04
822.79	2168.39
822.98	1906.45
823.16	1754.49
823.34	2159.58
823.52	2308.06
823.70	1981.20
823.88	1783.99
824.06	2181.09
824.25	2054.11
824.43	2006.80
824.61	1831.09
824.79	2071.11
824.97	2101.42
825.15	1994.93
825.33	2140.74
825.52	2364.18
825.70	2183.54
825.88	2038.55
826.06	2088.93
826.24	2268.53
826.42	2361.31
826.60	2057.39
826.78	2108.79
826.97	2133.16
827.15	2348.00
827.33	1948.03
827.51	1984.48
827.69	2002.91
827.87	2166.34
828.05	2037.11
828.23	1847.68
828.41	2267.31
828.60	2215.29
828.78	1784.19
828.96	2006.19
829.14	1982.84
829.32	2050.22
829.50	1907.27
829.68	1879.01
829.86	2031.18
830.04	2194.81
830.22	2008.03
830.41	1806.10
830.59	2056.98
830.77	2203.00
830.95	1860.99
831.13	1858.33
831.31	1948.64
831.49	2257.89
831.67	2056.37
831.85	2036.70
832.03	2026.67
832.21	2186.41
832.39	1774.16
832.57	1835.59
832.76	2238.43
832.94	2039.37
833.12	1757.16
833.30	1859.56
833.48	2297.82
833.66	2131.12
833.84	1883.52
834.02	1894.99
834.20	2288.20
834.38	2243.55
834.56	1752.45
834.74	1820.03
834.92	1854.44
835.10	2396.12
835.28	1964.00
835.46	1969.53
835.64	2059.44
835.82	1994.11
836.01	2195.22
836.19	2135.01
836.37	1998.61
836.55	1941.47
836.73	1855.46
836.91	1830.27
837.09	2178.01
837.27	2345.33
837.45	1756.75
837.63	1785.83
837.81	1870.82
837.99	2086.68
838.17	1992.47
838.35	1811.43
838.53	2449.58
838.71	2192.76
838.89	1851.57
839.07	1841.12
839.25	2107.97
839.43	2204.02
839.61	1898.67
839.79	2176.17
839.97	2413.74
840.15	2461.86
840.33	2258.30
840.51	2491.97
840.69	2458.59
840.87	2372.37
841.05	2272.63
841.23	2193.99
841.41	2428.07
841.59	2830.91
841.77	2703.11
841.95	2816.16
842.13	3269.99
842.31	2954.60
842.49	2576.96
842.67	2609.73
842.85	2766.60
843.03	2413.33
843.21	2254.81
843.39	2458.38
843.57	2468.62
843.75	2456.54
843.93	2151.19
844.11	2194.60
844.29	2325.47
844.47	2204.02
844.65	2186.00
844.83	2039.37
845.01	2162.65
845.19	2331.00
845.36	1989.60
845.54	2034.86
845.72	2138.49
845.90	2217.75
846.08	1874.10
846.26	1979.77
846.44	2176.58
846.62	2196.45
846.80	2027.28
846.98	1870.00
847.16	2049.20
847.34	2127.63
847.52	1859.35
847.70	1770.26
847.88	2030.77
848.06	2338.99
848.24	2030.97
848.41	1817.16
848.59	2251.74
848.77	2165.11
848.95	1907.48
849.13	1877.99
849.31	2205.46
849.49	2129.68
849.67	1861.60
849.85	1837.44
850.03	2149.14
850.21	2124.36
850.39	1854.44
850.57	2022.37
850.74	2366.22
850.92	2328.54
851.10	2082.17
851.28	1954.17
851.46	2281.03
851.64	2635.74
851.82	2054.93
852.00	2142.18
852.18	2493.20
852.36	2369.50
852.53	2027.90
852.71	2121.70
852.89	2248.67
853.07	2245.60
853.25	1933.90
853.43	1852.59
853.61	2157.74
853.79	2185.80
853.97	1910.75
854.14	1900.52
854.32	2349.02
854.50	2232.29
854.68	1915.26
854.86	1908.50
855.04	1969.12
855.22	2249.28
855.40	1745.89
855.57	1876.55
855.75	2210.78
855.93	2168.59
856.11	1766.99
856.29	1879.42
856.47	1956.22
856.65	2134.19
856.82	1823.51
857.00	1803.44
857.18	2055.96
857.36	2000.25
857.54	1994.93
857.72	2059.85
857.89	2243.34
858.07	2104.29
858.25	2122.72
858.43	1780.50
858.61	2051.86
858.79	2086.68
858.97	1856.48
859.14	1992.47
859.32	2065.38
859.50	2047.15
859.68	1965.64
859.86	1842.35
860.03	2132.75
860.21	2173.51
860.39	1858.53
860.57	2033.63
860.75	2152.62
860.93	2413.94
861.10	2087.70
861.28	1825.35
861.46	2118.42
861.64	2159.79
861.82	1878.81
861.99	1985.30
862.17	2253.18
862.35	2243.75
862.53	1906.86
862.71	1928.37
862.88	2132.75
863.06	2207.92
863.24	1885.77
863.42	1839.28
863.60	2049.40
863.77	2216.31
863.95	1755.31
864.13	1892.32
864.31	2046.13
864.49	2232.90
864.66	1818.80
864.84	1832.73
865.02	2125.38
865.20	2603.99
865.37	1973.42
865.55	1837.03
865.73	1908.91
865.91	2176.99
866.09	2013.77
866.26	1914.44
866.44	2211.81
866.62	2018.27
866.80	1822.28
866.97	1885.77
867.15	2039.98
867.33	2130.91
867.51	1955.61
867.68	1917.72
867.86	1970.15
868.04	1981.82
868.22	1693.06
868.39	1874.30
868.57	2211.60
868.75	2339.19
868.93	1774.77
869.10	1870.00
869.28	2397.15
869.46	2326.70
869.64	1890.68
869.81	1874.51
869.99	2134.39
870.17	2110.84
870.35	1831.91
870.52	1879.63
870.70	2247.24
870.88	1981.00
871.05	1834.98
871.23	1720.29
871.41	2097.12
871.59	2090.57
871.76	1894.37
871.94	1813.07
872.12	2095.28
872.29	1835.18
872.47	1877.17
872.65	1834.78
872.83	2143.20
873.00	2343.08
873.18	1910.55
873.36	1843.38
873.53	2216.93
873.71	1857.30
873.89	1797.91
874.06	1893.96
874.24	2171.87
874.42	2315.23
874.60	2033.02
874.77	1955.61
874.95	1988.17
875.13	2288.20
875.30	1879.42
875.48	1828.63
875.66	2375.03
875.83	1933.08
876.01	1840.30
876.19	1976.70
876.36	1889.66
876.54	2077.87
876.72	1799.55
876.89	1979.36
877.07	2209.14
877.25	1794.84
877.42	1920.18
877.60	1889.46
877.78	2433.19
877.95	2029.54
878.13	1811.84
878.31	2004.14
878.48	2262.60
878.66	2206.48
878.84	1881.26
879.01	1891.91
879.19	2165.11
879.37	2216.11
879.54	1903.59
879.72	1769.04
879.90	1805.69
880.07	2226.35
880.25	1658.65
880.42	2059.64
880.60	2118.62
880.78	2220.20
880.95	1872.87
881.13	1962.77
881.31	2074.80
881.48	1996.56
881.66	1831.29
881.83	2028.31
882.01	1962.98
882.19	1899.70
882.36	1904.00
882.54	1877.99
882.72	2203.41
882.89	2123.95
883.07	1847.68
883.24	1862.22
883.42	2216.11
883.60	2127.63
883.77	1796.89
883.95	1911.78
884.12	2255.43
884.30	2131.53
884.48	2035.48
884.65	1889.05
884.83	2115.55
885.00	2158.56
885.18	1762.89
885.36	1862.83
885.53	2173.92
885.71	2314.00
885.88	1766.37
886.06	1873.89
886.23	2188.25
886.41	2023.19
886.59	1866.31
886.76	1797.71
886.94	2204.84
887.11	2568.15
887.29	1914.24
887.47	1816.34
887.64	2325.67
887.82	2329.77
887.99	1711.49
888.17	1898.26
888.34	2055.75
888.52	1932.87
888.69	1864.27
888.87	1785.42
889.05	2026.26
889.22	2000.87
889.40	1868.98
889.57	2096.10
889.75	2323.01
889.92	2024.83
890.10	1807.13
890.27	1951.71
890.45	2001.48
890.62	1818.80
890.80	1788.70
890.98	1712.51
891.15	2323.83
891.33	2240.07
891.50	1847.88
891.68	1755.93
891.85	2239.04
892.03	2216.52
892.20	1841.94
892.38	1800.57
892.55	2222.25
892.73	2190.10
892.90	1736.27
893.08	1856.89
893.25	2033.22
893.43	2010.90
893.60	1945.98
893.78	1722.34
893.95	2158.97
894.13	2073.98
894.30	1856.89
894.48	1910.35
894.65	2231.88
894.83	2120.67
895.00	1704.11
895.18	1726.64
895.35	2241.30
895.53	2219.18
895.70	1765.55
895.88	1977.52
896.05	2188.87
896.23	1861.40
896.40	1862.63
896.58	1900.52
896.75	2216.93
896.93	2340.01
897.10	1885.56
897.28	1764.94
897.45	2132.35
897.63	2194.40
897.80	1967.69
897.98	1852.39
898.15	2148.52
898.33	1990.63
898.50	1897.65
898.67	1874.92
898.85	2024.21
899.02	2174.53
899.20	2101.01
899.37	1891.91
899.55	2096.30
899.72	2333.25
899.90	1838.87
900.07	1823.72
900.25	2177.61
900.42	2277.55
900.59	1853.21
900.77	1992.26
900.94	2169.00
901.12	2146.48
901.29	1850.95
901.47	1984.89
901.64	2183.13
901.82	2070.09
901.99	1651.28
902.16	1832.73
902.34	2269.97
902.51	2096.51
902.69	1828.43
902.86	1900.92
903.03	2707.01
903.21	2079.71
903.38	1871.23
903.56	1816.34
903.73	2254.40
903.91	2019.71
904.08	1838.67
904.25	1738.11
904.43	1959.70
904.60	2228.60
904.78	1886.59
904.95	1797.09
905.12	2045.72
905.30	2385.06
905.47	1947.21
905.65	2031.79
905.82	2068.04
905.99	2176.17
906.17	1858.94
906.34	1825.76
906.52	1930.21
906.69	2166.96
906.86	1912.39
907.04	1907.48
907.21	2233.11
907.38	2261.78
907.56	1792.79
907.73	1785.01
907.91	2342.47
908.08	2308.06
908.25	1834.57
908.43	1762.28
908.60	2178.22
908.77	2125.38
908.95	1900.31
909.12	1790.13
909.30	2197.68
909.47	1869.59
909.64	1895.40
909.82	2055.55
909.99	2043.46
910.16	2107.56
910.34	1827.61
910.51	1841.74
910.68	2135.62
910.86	2095.28
911.03	1752.04
911.20	1839.90
911.38	2291.88
911.55	2583.31
911.72	2426.43
911.90	2341.03
912.07	2718.06
912.24	2891.53
912.42	2299.25
912.59	2125.59
912.76	2481.52
912.94	2269.97
913.11	1987.35
913.28	1897.44
913.46	1952.74
913.63	2188.05
913.80	2212.83
913.98	1847.88
914.15	2258.91
914.32	2293.73
914.49	1957.24
914.67	1764.33
914.84	2095.89
915.01	2183.75
915.19	1937.38
915.36	1836.21
915.53	2240.68
915.71	2182.73
915.88	1950.49
916.05	1852.80
916.22	2267.72
916.40	2142.99
916.57	1766.17
916.74	2025.44
916.92	2367.04
917.09	1931.23
917.26	1805.49
917.43	1765.35
917.61	2004.55
917.78	1824.94
917.95	1773.13
918.13	1784.19
918.30	2454.29
918.47	2103.47
918.64	1807.74
918.82	1768.42
918.99	2040.19
919.16	2358.24
919.33	1853.82
919.51	1855.87
919.68	2040.80
919.85	2291.68
920.02	1740.57
920.20	1892.32
920.37	2373.60
920.54	2241.91
920.71	1814.71
920.89	1847.27
921.06	2431.14
921.23	1912.80
921.40	1766.17
921.58	1932.46
921.75	2629.59
921.92	1993.08
922.09	1913.62
922.27	1901.95
922.44	2098.35
922.61	2176.38
922.78	1842.97
922.96	1850.34
923.13	2028.51
923.30	2244.16
923.47	1747.94
923.64	1791.77
923.82	2165.32
923.99	2120.06
924.16	1961.75
924.33	1781.53
924.50	2089.34
924.68	2361.92
924.85	1815.93
925.02	1836.82
925.19	2210.78
925.36	2115.35
925.54	1875.73
925.71	1933.90
925.88	2609.32
926.05	2022.37
926.22	1798.73
926.40	1947.41
926.57	2136.65
926.74	2205.46
926.91	1836.21
927.08	2007.83
927.26	2272.63
927.43	2100.81
927.60	1837.64
927.77	1898.67
927.94	2369.70
928.11	2295.77
928.29	1736.68
928.46	1911.16
928.63	1976.70
928.80	2016.23
928.97	1927.96
929.14	1810.40
929.32	2460.84
929.49	2138.69
929.66	1801.80
929.83	1763.71
930.00	2025.24
930.17	2155.08
930.35	1778.25
930.52	1842.15
930.69	2347.79
930.86	1888.43
931.03	1900.92
931.20	1671.14
931.37	2275.29
931.55	2106.75
931.72	1924.89
931.89	1761.46
932.06	1913.83
932.23	2366.02
932.40	1948.44
932.57	1969.94
932.74	2289.63
932.92	2293.93
933.09	2033.63
933.26	1607.04
933.43	2022.37
933.60	2132.35
933.77	1898.26
933.94	1934.51
934.11	2047.76
934.29	2116.58
934.46	1793.20
934.63	1952.33
934.80	1869.80
934.97	2052.47
935.14	1854.23
935.31	1701.66
935.48	1931.85
935.65	2135.42
935.82	1888.43
936.00	1763.30
936.17	2362.74
936.34	2038.34
936.51	1915.06
936.68	1765.35
936.85	2158.35
937.02	2088.11
937.19	1937.99
937.36	1878.40
937.53	2165.32
937.70	2229.01
937.87	1833.75
938.05	1968.92
938.22	2101.63
938.39	1918.54
938.56	1877.37
938.73	1781.94
938.90	2054.11
939.07	1971.37
939.24	1948.03
939.41	1729.92
939.58	2143.61
939.75	2176.99
939.92	1830.27
940.09	2104.08
940.26	2025.65
940.43	2226.14
940.60	1894.37
940.77	1874.71
940.95	2135.62
941.12	2235.15
941.29	1861.81
941.46	1911.57
941.63	2324.44
941.80	2365.40
941.97	1739.75
942.14	1717.02
942.31	2224.50
942.48	2059.23
942.65	1979.77
942.82	1898.06
942.99	2175.76
943.16	2103.06
943.33	1773.54
943.50	1829.45
943.67	2243.14
943.84	2310.72
944.01	1848.29
944.18	1805.69
944.35	2338.58
944.52	1949.67
944.69	1954.38
944.86	1756.34
945.03	2212.01
945.20	2488.49
945.37	1694.08
945.54	1898.06
945.71	2318.30
945.88	2391.62
946.05	1795.66
946.22	1790.54
946.39	2341.44
946.56	2095.48
946.73	1735.24
946.90	1791.77
947.07	2036.91
947.24	2056.98
947.41	1703.30
947.58	1946.18
947.75	2222.05
947.92	2145.25
948.09	1662.13
948.26	1756.54
948.43	2113.50
948.60	2411.48
948.77	1795.45
948.94	1850.13
949.11	2228.19
949.27	2161.02
949.44	1812.04
949.61	1764.53
949.78	2135.83
949.95	2273.86
950.12	1757.98
950.29	1732.58
950.46	2000.25
950.63	2266.69
950.80	1791.77
950.97	1852.39
951.14	2298.03
951.31	2047.15
951.48	1781.12
951.65	1745.07
951.82	2432.37
951.99	2115.76
952.15	1757.36
952.32	1862.22
952.49	1982.43
952.66	2012.13
952.83	1811.22
953.00	1770.67
953.17	2076.23
953.34	2253.79
953.51	1899.08
953.68	1868.16
953.85	2303.35
954.02	2311.54
954.18	1891.91
954.35	1848.29
954.52	1957.86
954.69	2138.49
954.86	1730.94
955.03	1906.66
955.20	2227.58
955.37	2055.14
955.54	1834.57
955.71	1799.35
955.87	2153.85
956.04	2389.37
956.21	1833.75
956.38	1806.51
956.55	2140.33
956.72	2501.80
956.89	1918.74
957.06	1768.83
957.23	1982.64
957.39	2322.40
957.56	1888.23
957.73	1764.73
957.90	1737.70
958.07	2415.17
958.24	1873.69
958.41	1868.16
958.57	2251.13
958.74	2097.73
958.91	1776.41
959.08	1811.84
959.25	2245.19
959.42	2072.13
959.59	1876.76
959.75	1869.18
959.92	2305.81
960.09	2278.57
960.26	1821.67
960.43	1881.67
960.60	2154.26
960.76	2053.09
960.93	1730.12
961.10	1919.77
961.27	2266.49
961.44	2046.54
961.61	1755.93
961.77	1740.36
961.94	2135.42
962.11	2253.99
962.28	1832.32
962.45	1749.99
962.62	2050.43
962.78	2267.72
962.95	1721.73
963.12	1822.49
963.29	2200.13
963.46	2629.18
963.62	1908.50
963.79	1840.92
963.96	2515.72
964.13	2054.32
964.30	1935.54
964.46	1863.24
964.63	1929.60
964.80	2544.19
964.97	1656.60
965.14	1952.74
965.30	2131.94
965.47	2236.79
965.64	1973.42
965.81	1928.16
965.98	2324.85
966.14	2105.72
966.31	1788.08
966.48	1774.77
966.65	2291.27
966.81	2145.66
966.98	1850.34
967.15	1822.90
967.32	2078.69
967.49	1957.86
967.65	1706.57
967.82	1664.38
967.99	2052.47
968.16	1836.82
968.32	1976.49
968.49	1777.23
968.66	2071.32
968.83	2388.75
968.99	1955.40
969.16	1751.83
969.33	2295.36
969.50	2175.35
969.66	1960.93
969.83	2080.94
970.00	2225.94
970.17	2184.77
970.33	1854.23
970.50	1766.17
970.67	2377.49
970.84	2355.57
971.00	1772.93
971.17	1716.81
971.34	2213.04
971.50	2108.18
971.67	1918.13
971.84	1862.42
972.01	1914.44
972.17	1773.75
972.34	1754.49
972.51	1997.18
972.67	2273.04
972.84	2156.10
973.01	1811.02
973.18	1829.25
973.34	2248.87
973.51	1949.87
973.68	1858.53
973.84	1880.85
974.01	2045.31
974.18	2402.68
974.34	1916.69
974.51	1934.10
974.68	1990.63
974.85	2464.94
975.01	1938.20
975.18	1831.09
975.35	2087.90
975.51	1989.60
975.68	1733.20
975.85	2004.14
976.01	1990.42
976.18	2327.93
976.35	1864.68
976.51	1890.28
976.68	2399.81
976.85	2315.64
977.01	1884.34
977.18	1916.08
977.35	2193.17
977.51	1914.44
977.68	1671.14
977.85	1756.95
978.01	2255.43
978.18	2201.98
978.35	1902.56
978.51	1853.00
978.68	2262.80
978.85	2370.93
979.01	1869.39
979.18	1858.33
979.34	2068.45
979.51	2124.77
979.68	1791.97
979.84	1916.49
980.01	2529.04
980.18	2133.37
980.34	1813.68
980.51	1899.70
980.67	2250.31
980.84	2253.38
981.01	1832.32
981.17	1894.37
981.34	1816.14
981.51	2204.84
981.67	1776.41
981.84	1920.79
982.00	2180.68
982.17	2065.38
982.34	1694.90
982.50	1566.70
982.67	2399.20
982.83	2028.10
983.00	1725.62
983.17	1612.37
983.33	2293.52
983.50	1838.46
983.66	1722.14
983.83	1639.81
984.00	2048.58
984.16	2104.90
984.33	1619.53
984.49	1616.05
984.66	1950.90
984.83	2244.16
984.99	1658.24
985.16	1605.61
985.32	2194.81
985.49	2256.25
985.65	1757.16
985.82	1641.45
985.99	2365.20
986.15	2135.83
986.32	1760.43
986.48	1696.33
986.65	2021.35
986.81	2223.27
986.98	1629.98
987.14	1709.64
987.31	2142.79
987.48	1868.36
987.64	1561.17
987.81	1588.40
987.97	2465.14
988.14	1976.70
988.30	1649.84
988.47	1488.87
988.63	2159.58
988.80	1918.74
988.96	1702.89
989.13	1730.94
989.30	2045.92
989.46	2214.88
989.63	1587.38
989.79	1627.11
989.96	2079.10
990.12	2341.24
990.29	1659.88
990.45	1714.56
990.62	2078.69
990.78	2293.52
990.95	1756.34
991.11	1681.59
991.28	2008.44
991.44	2141.56
991.61	1537.61
991.77	1735.04
991.94	2113.71
992.10	2295.57
992.27	1700.22
992.43	1691.62
992.60	2184.36
992.76	2026.87
992.93	1863.45
993.09	1601.10
993.26	2270.79
993.42	2383.84
993.59	1641.04
993.75	1578.37
993.92	1958.27
994.08	1973.22
994.25	1740.16
994.41	1597.21
994.58	2205.46
994.74	2347.38
994.91	1621.58
995.07	1746.71
995.24	2040.60
995.40	2062.51
995.56	1795.86
995.73	1758.39
995.89	2372.37
996.06	2066.20
996.22	1635.51
996.39	1598.23
996.55	2044.49
996.72	2158.15
996.88	1616.67
997.05	1628.95
997.21	2431.35
997.37	2180.88
997.54	1757.98
997.70	1674.62
997.87	2145.04
998.03	2066.61
998.20	1558.91
998.36	1570.79
998.52	2213.04
998.69	2248.46
998.85	1595.98
999.02	1684.86
999.18	2240.48
999.35	2218.97
999.51	1729.71
999.67	1688.76
999.84	1898.47
1000.00	2224.91
1000.17	1768.42
1000.33	1634.69
1000.49	2010.70
1000.66	2068.24
1000.82	1644.93
1000.99	1724.18
1001.15	2308.06
1001.31	2060.05
1001.48	1657.63
1001.64	1743.64
1001.81	2045.51
1001.97	2450.39
1002.13	1677.08
1002.30	1691.83
1002.46	2336.32
1002.63	2058.00
1002.79	1763.92
1002.95	1653.53
1003.12	2253.38
1003.28	2173.51
1003.45	1636.12
1003.61	1597.62
1003.77	2116.37
1003.94	1882.49
1004.10	1687.73
1004.26	1756.75
1004.43	2208.73
1004.59	2380.76
1004.75	1652.92
1004.92	1628.75
1005.08	2008.85
1005.25	2130.30
1005.41	1635.51
1005.57	1757.16
1005.74	2269.97
1005.90	2036.70
1006.06	1823.31
1006.23	1675.65
1006.39	2194.19
1006.55	2598.46
1006.72	1785.21
1006.88	1601.92
1007.04	1935.74
1007.21	2028.31
1007.37	1708.01
1007.53	1658.85
1007.70	2340.21
1007.86	2237.61
1008.02	1743.85
1008.19	1585.33
1008.35	2141.36
1008.51	1939.02
1008.68	1655.58
1008.84	1610.52
1009.00	1946.18
1009.17	2256.45
1009.33	1844.61
1009.49	1760.23
1009.65	1976.29
1009.82	2169.21
1009.98	1734.22
1010.14	1554.82
1010.31	2218.56
1010.47	2182.11
1010.63	1746.10
1010.80	1719.68
1010.96	2196.24
1011.12	2039.37
1011.28	1700.22
1011.45	1625.27
1011.61	2571.84
1011.77	1932.67
1011.94	1636.33
1012.10	1619.12
1012.26	1927.14
1012.42	2012.74
1012.59	1716.40
1012.75	1715.58
1012.91	2070.70
1013.07	2238.23
1013.24	1639.81
1013.40	1628.14
1013.56	2111.66
1013.72	2085.45
1013.89	1732.17
1014.05	1778.05
1014.21	2431.76
1014.37	2542.55
1014.54	1709.64
1014.70	1602.74
1014.86	2057.18
1015.02	1875.53
1015.19	1707.60
1015.35	1633.26
1015.51	2056.98
1015.67	1995.13
1015.84	1670.12
1016.00	1696.13
1016.16	2265.05
1016.32	2210.37
1016.49	1656.60
1016.65	1603.15
1016.81	2068.04
1016.97	2200.13
1017.14	1791.36
1017.30	1683.64
1017.46	2013.36
1017.62	2151.60
1017.78	1733.61
1017.95	1640.42
1018.11	2238.63
1018.27	2526.58
1018.43	1813.48
1018.59	1758.80
1018.76	2220.20
1018.92	2566.92
1019.08	1652.10
1019.24	1660.70
1019.40	2325.26
1019.57	2111.46
1019.73	1791.36
1019.89	1691.83
1020.05	2142.99
1020.21	2437.90
1020.38	1649.02
1020.54	1815.32
1020.70	2221.84
1020.86	2197.27
1021.02	1640.63
1021.18	1675.65
1021.35	2007.42
1021.51	2181.50
1021.67	1855.66
1021.83	1725.41
1021.99	2077.25
1022.15	2128.66
1022.32	1746.71
1022.48	1691.42
1022.64	2344.72
1022.80	2361.72
1022.96	1758.39
1023.12	1626.09
1023.29	2262.60
1023.45	2157.74
1023.61	1657.83
1023.77	1909.32
1023.93	2135.21
1024.09	1967.48
1024.25	1668.68
1024.42	1595.16
1024.58	2011.92
1024.74	2158.56
1024.90	1688.76
1025.06	1759.00
1025.22	2006.60
1025.38	2373.39
1025.54	1606.22
1025.71	1808.77
1025.87	2186.00
1026.03	2182.11
1026.19	1637.15
1026.35	1873.89
1026.51	2198.49
1026.67	2089.13
1026.83	1705.96
1026.99	1847.47
1027.16	2175.76
1027.32	2336.73
1027.48	1692.03
1027.64	1643.09
1027.80	2198.08
1027.96	2120.06
1028.12	1676.06
1028.28	1672.58
1028.44	2152.82
1028.60	2354.34
1028.77	1808.97
1028.93	1711.08
1029.09	2011.51
1029.25	1930.01
1029.41	1712.72
1029.57	1786.24
1029.73	2158.97
1029.89	2361.72
1030.05	1778.05
1030.21	1764.12
1030.37	2511.01
1030.53	2214.67
1030.69	1714.76
1030.85	1584.10
1031.02	1932.87
1031.18	2077.66
1031.34	1664.38
1031.50	1790.33
1031.66	1960.52
1031.82	2360.08
1031.98	1728.08
1032.14	1625.68
1032.30	1940.86
1032.46	2274.06
1032.62	1820.03
1032.78	1593.11
1032.94	1998.61
1033.10	2025.65
1033.26	1740.16
1033.42	1823.72
1033.58	2487.26
1033.74	2000.05
1033.90	1683.64
1034.06	1860.17
1034.22	2522.89
1034.38	2276.11
1034.54	1708.83
1034.70	1755.11
1034.86	2428.07
>>>>>End Processed Spectral Data<<<<<
