SpectraSuite Data File
++++++++++++++++++++++++++++++++++++
Date: Thu Mar 30 16:20:20 PDT 2017
User: UCSD _CER
Dark Spectrum Present: No
Reference Spectrum Present: No
Number of Sampled Component Spectra: 1
Spectrometers: USB4C00073
Integration Time (usec): 250000 (USB4C00073)
Spectra Averaged: 10 (USB4C00073)
Boxcar Smoothing: 0 (USB4C00073)
Correct for Electrical Dark: No (USB4C00073)
Strobe/Lamp Enabled: No (USB4C00073)
Correct for Detector Non-linearity: No (USB4C00073)
Correct for Stray Light: No (USB4C00073)
Number of Pixels in Processed Spectrum: 3648
>>>>>Begin Processed Spectral Data<<<<<
345.37	1268.51
345.58	1268.51
345.80	1268.51
346.01	1273.84
346.22	1286.94
346.43	1958.47
346.65	1772.11
346.86	2127.63
347.07	2072.95
347.28	1818.19
347.50	1789.72
347.71	1920.59
347.92	1700.43
348.13	1790.13
348.35	1709.64
348.56	1914.24
348.77	1786.44
348.98	1814.30
349.20	1675.03
349.41	1914.03
349.62	1966.05
349.83	1864.27
350.05	1718.25
350.26	1942.91
350.47	2060.67
350.68	1771.29
350.90	1707.80
351.11	2098.14
351.32	2061.89
351.53	1815.32
351.75	1733.40
351.96	1936.15
352.17	1889.87
352.38	1876.55
352.60	1846.86
352.81	1907.68
353.02	2131.94
353.23	1768.22
353.44	1800.57
353.66	1860.99
353.87	1872.66
354.08	1866.93
354.29	1792.79
354.51	1806.72
354.72	1866.72
354.93	1753.06
355.14	1693.87
355.35	1712.31
355.57	1982.84
355.78	1754.49
355.99	1870.21
356.20	1894.99
356.42	1877.17
356.63	1858.94
356.84	1815.93
357.05	2011.72
357.26	2159.17
357.48	1887.00
357.69	1814.09
357.90	1950.08
358.11	1842.97
358.32	1815.73
358.54	1832.73
358.75	1848.70
358.96	1980.39
359.17	1787.88
359.38	1789.52
359.60	1973.83
359.81	1919.97
360.02	1786.24
360.23	1754.29
360.44	1817.37
360.66	2025.44
360.87	1741.80
361.08	1709.23
361.29	1954.99
361.50	1919.97
361.72	1760.02
361.93	1845.63
362.14	1920.99
362.35	1722.96
362.56	1893.35
362.77	1726.85
362.99	1969.74
363.20	1915.47
363.41	1844.81
363.62	1698.59
363.83	1944.75
364.05	2007.01
364.26	1680.77
364.47	1738.93
364.68	2050.43
364.89	1790.74
365.10	1710.26
365.32	1805.28
365.53	1811.63
365.74	1831.70
365.95	1789.11
366.16	1687.32
366.37	1910.96
366.59	1887.82
366.80	1795.25
367.01	1664.79
367.22	2165.52
367.43	2262.60
367.64	1776.61
367.86	1785.21
368.07	1975.88
368.28	2047.15
368.49	1731.76
368.70	1826.17
368.91	1877.99
369.12	1881.47
369.34	1692.44
369.55	1722.75
369.76	1899.29
369.97	1837.03
370.18	1731.15
370.39	1741.59
370.60	1763.71
370.82	1771.90
371.03	1799.75
371.24	1768.63
371.45	1975.68
371.66	1999.64
371.87	1811.43
372.08	1757.57
372.30	1774.56
372.51	2003.94
372.72	1868.16
372.93	1758.18
373.14	2062.92
373.35	1806.10
373.56	1738.73
373.78	1808.77
373.99	2020.53
374.20	2268.94
374.41	1818.39
374.62	1809.38
374.83	2083.60
375.04	1851.57
375.25	1788.29
375.47	1788.49
375.68	1843.99
375.89	1966.46
376.10	1800.16
376.31	1877.17
376.52	1957.04
376.73	1940.04
376.94	1821.67
377.15	1785.42
377.37	1935.94
377.58	1864.06
377.79	1711.08
378.00	1721.73
378.21	1941.88
378.42	1958.27
378.63	1815.52
378.84	1857.92
379.05	2001.48
379.27	1918.13
379.48	1926.73
379.69	1746.30
379.90	2029.13
380.11	1655.78
380.32	1789.72
380.53	1881.06
380.74	2035.27
380.95	1906.45
381.16	1806.10
381.37	1788.49
381.59	2087.70
381.80	2017.86
382.01	1732.38
382.22	1685.48
382.43	1966.46
382.64	1906.04
382.85	1748.15
383.06	1830.68
383.27	1977.52
383.48	1861.40
383.69	1817.16
383.91	1711.08
384.12	1963.39
384.33	1949.05
384.54	1811.63
384.75	1671.55
384.96	2281.03
385.17	2025.24
385.38	1753.47
385.59	1740.16
385.80	2007.21
386.01	2099.37
386.22	1866.72
386.43	1802.01
386.64	2187.44
386.86	1880.24
387.07	1893.76
387.28	1721.32
387.49	1824.33
387.70	2038.55
387.91	1876.35
388.12	1717.84
388.33	1923.04
388.54	1846.04
388.75	1763.92
388.96	1841.12
389.17	1837.03
389.38	1872.25
389.59	1859.15
389.80	1804.26
390.01	1881.88
390.22	1853.41
390.43	1900.11
390.64	1666.43
390.86	1928.98
391.07	2038.96
391.28	1788.49
391.49	1840.10
391.70	1753.47
391.91	1802.42
392.12	1802.42
392.33	1788.08
392.54	1879.22
392.75	1873.07
392.96	1881.67
393.17	1751.22
393.38	2159.17
393.59	2011.92
393.80	1702.68
394.01	1797.30
394.22	1894.37
394.43	2116.99
394.64	1745.48
394.85	1890.68
395.06	1885.56
395.27	1931.23
395.48	1793.82
395.69	1720.29
395.90	1861.19
396.11	1908.91
396.32	1745.48
396.53	1867.34
396.74	1890.89
396.95	2067.63
397.16	1761.05
397.37	1674.01
397.58	2016.43
397.79	1905.63
398.00	1852.39
398.21	1808.77
398.42	1930.01
398.63	2166.75
398.84	1801.80
399.05	1768.42
399.26	2042.23
399.47	1952.94
399.68	1631.00
399.89	1734.22
400.10	1755.93
400.31	1865.29
400.52	1827.40
400.73	1764.73
400.94	1690.80
401.15	1931.85
401.36	1776.41
401.57	1839.69
401.78	2042.03
401.99	2002.09
402.20	1704.52
402.41	1915.06
402.62	2097.73
402.83	1869.39
403.04	1752.04
403.25	1931.85
403.46	1930.62
403.67	2069.47
403.88	1785.83
404.09	1784.19
404.30	1795.66
404.51	1817.37
404.72	1767.60
404.93	1888.84
405.14	1798.73
405.35	1887.20
405.56	1802.01
405.77	1767.81
405.98	1925.50
406.19	1868.98
406.40	1735.04
406.61	1780.50
406.82	1808.97
407.03	2178.42
407.24	1727.05
407.45	1802.21
407.66	1942.50
407.87	2002.30
408.08	1850.13
408.29	1854.23
408.49	1955.40
408.70	1888.64
408.91	1800.98
409.12	1874.51
409.33	1799.55
409.54	2052.88
409.75	1760.02
409.96	1777.64
410.17	2005.78
410.38	1876.55
410.59	1776.82
410.80	1858.33
411.01	1880.04
411.22	1896.62
411.43	1833.75
411.64	1741.39
411.85	1786.85
412.06	1788.70
412.27	1636.12
412.47	1763.51
412.68	1894.17
412.89	1949.46
413.10	1777.64
413.31	1695.31
413.52	2142.18
413.73	2150.78
413.94	1757.98
414.15	1924.48
414.36	1830.68
414.57	1772.72
414.78	1728.49
414.99	1733.81
415.19	2008.44
415.40	1966.05
415.61	1962.98
415.82	1870.21
416.03	2001.89
416.24	1972.60
416.45	1809.59
416.66	1780.30
416.87	1745.69
417.08	2007.21
417.29	1761.87
417.50	1837.64
417.70	1981.00
417.91	1948.64
418.12	1840.71
418.33	1787.26
418.54	1950.28
418.75	2059.23
418.96	1960.93
419.17	1899.70
419.38	2139.51
419.59	2071.52
419.79	1918.33
420.00	1838.67
420.21	2310.52
420.42	1943.32
420.63	1815.52
420.84	1872.25
421.05	1896.21
421.26	1913.42
421.47	1745.89
421.67	2036.50
421.88	1810.61
422.09	1740.16
422.30	1935.74
422.51	1790.95
422.72	2105.52
422.93	1994.11
423.14	1795.66
423.35	1691.83
423.55	1718.04
423.76	1776.61
423.97	1814.50
424.18	1704.52
424.39	1888.84
424.60	2029.74
424.81	1792.38
425.02	1890.07
425.22	1867.95
425.43	1872.25
425.64	1984.07
425.85	1878.19
426.06	2181.09
426.27	2008.85
426.48	1910.14
426.68	1871.64
426.89	2004.35
427.10	2115.55
427.31	1791.97
427.52	1753.47
427.73	1959.50
427.94	1952.33
428.14	1884.54
428.35	1790.33
428.56	2095.28
428.77	2002.09
428.98	1869.18
429.19	1813.27
429.40	1852.39
429.60	1867.75
429.81	1915.47
430.02	1830.27
430.23	1890.07
430.44	2009.47
430.65	1775.38
430.85	1843.17
431.06	1937.17
431.27	1734.63
431.48	1796.89
431.69	1845.22
431.90	1906.66
432.10	1892.94
432.31	1841.33
432.52	1705.75
432.73	2188.66
432.94	2080.94
433.15	1908.30
433.35	1801.19
433.56	2049.20
433.77	1891.91
433.98	1893.96
434.19	1781.53
434.40	1884.95
434.60	1873.89
434.81	1784.60
435.02	1850.34
435.23	1874.30
435.44	1800.78
435.64	1693.06
435.85	1745.89
436.06	1870.61
436.27	1832.52
436.48	1722.75
436.68	1737.29
436.89	2097.73
437.10	1945.16
437.31	1829.86
437.52	1893.76
437.73	1925.71
437.93	1907.68
438.14	1836.21
438.35	1676.26
438.56	1845.63
438.77	1875.53
438.97	1930.21
439.18	1763.71
439.39	2043.26
439.60	1749.17
439.80	1692.65
440.01	1813.07
440.22	1807.74
440.43	1971.17
440.64	1682.41
440.84	1835.18
441.05	1762.89
441.26	2244.16
441.47	1849.11
441.68	1753.88
441.88	1867.95
442.09	1847.06
442.30	1936.76
442.51	1845.83
442.71	1828.84
442.92	1922.22
443.13	1738.52
443.34	1722.55
443.55	1758.18
443.75	1960.73
443.96	1762.48
444.17	1721.52
444.38	1999.43
444.58	1791.15
444.79	1869.80
445.00	1794.23
445.21	1902.15
445.41	1860.99
445.62	1603.35
445.83	1885.36
446.04	1908.71
446.24	1742.82
446.45	1634.69
446.66	1779.68
446.87	1938.81
447.07	1838.67
447.28	1999.84
447.49	1806.51
447.70	2004.96
447.90	2010.49
448.11	1805.08
448.32	1890.68
448.53	2078.48
448.73	2039.78
448.94	1796.27
449.15	1899.29
449.36	1898.06
449.56	1957.04
449.77	1798.73
449.98	1710.05
450.19	1852.80
450.39	1864.06
450.60	1880.65
450.81	1840.71
451.02	1917.51
451.22	2088.11
451.43	1761.05
451.64	1796.48
451.84	1829.04
452.05	2049.20
452.26	1834.78
452.47	1814.09
452.67	1823.51
452.88	2078.89
453.09	1767.81
453.30	1711.69
453.50	1997.18
453.71	2067.83
453.92	1771.08
454.12	1889.25
454.33	1816.34
454.54	1838.67
454.75	1723.78
454.95	1720.29
455.16	1907.27
455.37	1940.04
455.57	1834.16
455.78	1793.82
455.99	1892.94
456.19	1873.69
456.40	1739.54
456.61	1808.56
456.82	1902.15
457.02	1937.17
457.23	1835.59
457.44	1962.36
457.64	1826.17
457.85	1932.67
458.06	1814.30
458.26	1946.59
458.47	1849.52
458.68	1993.29
458.89	1711.28
459.09	1921.40
459.30	2174.74
459.51	1913.83
459.71	1706.98
459.92	1797.71
460.13	1993.08
460.33	2150.16
460.54	1770.26
460.75	1779.48
460.95	1769.24
461.16	1975.27
461.37	1785.21
461.57	1826.99
461.78	1920.99
461.99	1743.23
462.19	2003.94
462.40	1781.73
462.61	2156.10
462.81	2015.61
463.02	1750.19
463.23	1776.00
463.43	2007.42
463.64	1839.08
463.85	2716.43
464.05	1749.17
464.26	2300.69
464.47	2046.13
464.67	1942.50
464.88	1850.34
465.09	1778.87
465.29	1870.00
465.50	1935.54
465.71	1823.72
465.91	1833.55
466.12	1856.48
466.33	1875.73
466.53	1774.56
466.74	2056.98
466.94	1852.80
467.15	1801.60
467.36	2007.62
467.56	1773.54
467.77	1918.33
467.98	1847.06
468.18	1778.05
468.39	1839.08
468.60	2122.51
468.80	1833.96
469.01	1750.60
469.21	1955.61
469.42	1995.95
469.63	1795.45
469.83	1720.29
470.04	1969.12
470.25	2086.88
470.45	1852.80
470.66	1766.78
470.86	1959.50
471.07	1853.41
471.28	1893.35
471.48	1958.27
471.69	1900.51
471.90	2362.13
472.10	1789.31
472.31	1805.08
472.51	1782.14
472.72	1794.84
472.93	1721.93
473.13	1924.48
473.34	1951.92
473.54	1884.34
473.75	1817.57
473.96	1949.87
474.16	1869.59
474.37	1944.96
474.57	1843.17
474.78	1753.27
474.99	1965.85
475.19	1929.60
475.40	1801.80
475.60	1721.11
475.81	2043.26
476.02	1843.58
476.22	1853.00
476.43	1924.27
476.63	1861.40
476.84	2068.45
477.05	1649.43
477.25	1756.95
477.46	2243.75
477.66	1884.13
477.87	1669.91
478.08	1825.76
478.28	2004.76
478.49	1885.77
478.69	1771.90
478.90	1819.42
479.10	1981.82
479.31	2072.13
479.52	1846.86
479.72	1907.27
479.93	1966.66
480.13	1834.57
480.34	1777.02
480.54	1882.08
480.75	1804.06
480.96	2039.78
481.16	1785.01
481.37	1914.85
481.57	2004.76
481.78	1968.71
481.98	2012.33
482.19	1856.89
482.40	2112.07
482.60	1970.97
482.81	1881.67
483.01	1757.77
483.22	2044.90
483.42	1996.36
483.63	1897.03
483.83	1863.24
484.04	1825.56
484.24	1974.86
484.45	1883.72
484.66	1711.28
484.86	1966.66
485.07	1810.81
485.27	1852.18
485.48	1764.12
485.68	2038.55
485.89	1802.01
486.09	1910.35
486.30	1780.71
486.50	1904.41
486.71	1907.48
486.91	1836.21
487.12	1881.67
487.33	2091.80
487.53	2104.08
487.74	1868.77
487.94	1829.86
488.15	1894.37
488.35	1946.18
488.56	1807.54
488.76	1794.23
488.97	1858.74
489.17	1983.87
489.38	1812.66
489.58	1812.86
489.79	1931.64
489.99	1929.60
490.20	1831.70
490.40	1928.37
490.61	1939.63
490.81	1817.16
491.02	1840.10
491.22	1875.12
491.43	1988.58
491.63	1854.85
491.84	1959.09
492.04	1730.74
492.25	1983.46
492.45	1858.33
492.66	1804.67
492.86	1704.11
493.07	1854.23
493.27	2172.08
493.48	1687.32
493.68	1829.25
493.89	1850.95
494.09	1983.66
494.30	1779.48
494.50	2049.81
494.71	1953.35
494.91	1716.20
495.12	1792.38
495.32	1924.07
495.53	1842.97
495.73	1695.10
495.94	1823.31
496.14	1683.84
496.35	2133.78
496.55	1857.10
496.76	1790.33
496.96	1845.83
497.17	1897.03
497.37	1934.10
497.58	1792.38
497.78	1728.28
497.98	1837.85
498.19	1870.21
498.39	1829.45
498.60	1883.52
498.80	1715.58
499.01	1981.61
499.21	1739.75
499.42	1834.37
499.62	1853.41
499.83	2171.26
500.03	1694.49
500.24	1885.97
500.44	2070.91
500.64	2021.55
500.85	1799.55
501.05	1939.63
501.26	1709.03
501.46	2048.99
501.67	1763.10
501.87	1717.22
502.08	1792.38
502.28	1852.80
502.48	1884.95
502.69	1947.82
502.89	1714.76
503.10	1802.01
503.30	1844.20
503.51	1854.85
503.71	1758.80
503.92	1980.18
504.12	1897.44
504.32	1828.63
504.53	1984.07
504.73	2017.86
504.94	1944.34
505.14	2013.97
505.35	1983.25
505.55	1955.81
505.75	1860.17
505.96	1947.41
506.16	2137.26
506.37	1808.36
506.57	1762.69
506.78	1878.60
506.98	1987.96
507.18	1718.25
507.39	1749.17
507.59	1828.22
507.80	1788.08
508.00	1879.22
508.20	1984.28
508.41	1848.50
508.61	2052.06
508.82	1982.64
509.02	1941.06
509.22	1763.30
509.43	1774.36
509.63	1826.38
509.84	1842.15
510.04	1714.76
510.24	2071.93
510.45	1990.63
510.65	1741.59
510.86	1846.86
511.06	1764.73
511.26	1976.29
511.47	1907.68
511.67	1756.54
511.88	1948.23
512.08	2040.39
512.28	1750.60
512.49	1923.25
512.69	1942.70
512.90	1920.79
513.10	1788.90
513.30	1846.24
513.51	1950.08
513.71	2083.60
513.91	1870.21
514.12	1867.75
514.32	1981.82
514.53	1801.60
514.73	1896.42
514.93	1802.21
515.14	1923.04
515.34	2048.38
515.54	1866.31
515.75	1888.23
515.95	2003.73
516.15	2015.82
516.36	1937.99
516.56	1932.46
516.77	1639.81
516.97	1998.41
517.17	1833.75
517.38	1934.72
517.58	2069.88
517.78	1856.28
517.99	1904.61
518.19	1895.80
518.39	2068.04
518.60	1869.18
518.80	1780.91
519.00	1933.90
519.21	1914.85
519.41	2137.46
519.61	1790.33
519.82	1939.43
520.02	1919.15
520.22	1902.77
520.43	1840.30
520.63	1848.50
520.83	1814.30
521.04	1729.71
521.24	1927.14
521.44	1855.66
521.65	1847.06
521.85	2016.43
522.05	1823.10
522.26	1825.76
522.46	2127.02
522.66	1977.31
522.87	1822.08
523.07	1991.44
523.27	1827.20
523.48	2095.28
523.68	1907.07
523.88	1881.26
524.09	2043.46
524.29	1923.04
524.49	1727.05
524.70	1969.53
524.90	2093.23
525.10	1969.53
525.31	1762.48
525.51	1766.37
525.71	1994.11
525.91	1978.95
526.12	1803.03
526.32	1749.17
526.52	1855.25
526.73	1828.43
526.93	1891.30
527.13	1719.47
527.34	1918.13
527.54	1906.66
527.74	1818.80
527.94	1742.21
528.15	1766.78
528.35	1907.48
528.55	1913.42
528.76	1930.01
528.96	1730.53
529.16	2014.79
529.36	1996.97
529.57	1787.88
529.77	2065.79
529.97	1791.15
530.18	1945.78
530.38	1819.42
530.58	1980.39
530.78	1917.51
530.99	1808.15
531.19	1939.63
531.39	1808.36
531.60	1906.45
531.80	1840.71
532.00	1979.36
532.20	1905.43
532.41	1815.73
532.61	1794.84
532.81	1836.00
533.01	1838.67
533.22	1959.91
533.42	1959.91
533.62	1686.50
533.82	2075.41
534.03	1889.46
534.23	1894.17
534.43	1758.39
534.63	1841.53
534.84	1934.72
535.04	1883.11
535.24	1889.66
535.44	2212.22
535.65	1836.00
535.85	1813.68
536.05	1800.37
536.25	1883.93
536.46	1787.06
536.66	2000.25
536.86	1881.26
537.06	1983.46
537.27	2076.64
537.47	1950.90
537.67	1837.85
537.87	2067.22
538.08	1855.25
538.28	1762.28
538.48	1749.58
538.68	1874.51
538.88	1973.83
539.09	1740.98
539.29	1845.42
539.49	2004.55
539.69	1932.05
539.90	1919.56
540.10	1780.71
540.30	2041.62
540.50	1824.94
540.70	1738.32
540.91	1853.62
541.11	1970.97
541.31	2083.19
541.51	1899.49
541.72	1930.62
541.92	1934.92
542.12	1808.56
542.32	1849.32
542.52	1818.19
542.73	1813.07
542.93	1959.91
543.13	1828.43
543.33	1931.23
543.53	1985.10
543.74	1984.48
543.94	1835.59
544.14	1937.17
544.34	2054.11
544.54	1896.21
544.75	1934.72
544.95	2066.61
545.15	1995.13
545.35	2111.87
545.55	1977.93
545.75	1824.74
545.96	2198.90
546.16	1788.90
546.36	1862.42
546.56	1882.49
546.76	2021.14
546.97	2095.69
547.17	1861.81
547.37	1922.84
547.57	1826.58
547.77	1972.81
547.97	1898.26
548.18	1876.76
548.38	1899.29
548.58	2081.35
548.78	1807.54
548.98	1922.22
549.18	2047.15
549.39	2170.44
549.59	1980.39
549.79	1924.48
549.99	2117.19
550.19	2050.02
550.39	1980.39
550.60	1873.69
550.80	1935.33
551.00	1997.79
551.20	1832.93
551.40	1817.16
551.60	1939.43
551.80	1960.52
552.01	2002.50
552.21	1862.83
552.41	1934.10
552.61	2115.35
552.81	1911.37
553.01	1755.11
553.21	1948.23
553.42	1783.99
553.62	1808.56
553.82	1791.15
554.02	2117.60
554.22	1986.94
554.42	1781.12
554.62	1914.24
554.83	2106.34
555.03	2122.72
555.23	1898.88
555.43	2133.37
555.63	1998.41
555.83	1954.38
556.03	1886.79
556.23	1759.61
556.44	1943.32
556.64	2076.64
556.84	1665.20
557.04	1859.97
557.24	1940.45
557.44	1943.32
557.64	1874.92
557.84	1781.12
558.04	1870.21
558.25	2009.47
558.45	1806.51
558.65	1890.07
558.85	1896.01
559.05	1706.78
559.25	1837.23
559.45	1946.18
559.65	2200.34
559.85	2569.79
560.05	1922.63
560.26	1927.14
560.46	1948.85
560.66	1878.40
560.86	1839.28
561.06	1813.07
561.26	2103.06
561.46	1998.41
561.66	1870.21
561.86	1969.12
562.06	1803.44
562.26	1877.58
562.47	1885.97
562.67	1769.04
562.87	1969.53
563.07	1750.60
563.27	1888.02
563.47	1881.26
563.67	1827.81
563.87	1977.93
564.07	1833.14
564.27	1894.58
564.47	1894.58
564.67	1958.06
564.87	1795.66
565.08	1943.93
565.28	1835.39
565.48	1955.61
565.68	1917.31
565.88	1937.38
566.08	2154.26
566.28	1894.37
566.48	1734.22
566.68	1828.22
566.88	1868.16
567.08	2002.09
567.28	1831.29
567.48	1865.29
567.68	1940.45
567.88	1725.41
568.08	1928.16
568.28	2021.75
568.48	1907.27
568.68	2048.79
568.89	1885.16
569.09	1728.28
569.29	1991.65
569.49	1984.28
569.69	1768.63
569.89	1776.61
570.09	1690.39
570.29	1829.04
570.49	1742.62
570.69	1826.58
570.89	1998.00
571.09	2165.93
571.29	1722.14
571.49	1986.94
571.69	1950.28
571.89	1972.19
572.09	1816.75
572.29	1803.03
572.49	1994.11
572.69	1983.66
572.89	1863.04
573.09	1623.02
573.29	1878.40
573.49	1889.66
573.69	1862.01
573.89	1968.92
574.09	1833.75
574.29	2057.18
574.49	1819.83
574.69	1796.07
574.89	1752.65
575.09	1752.65
575.29	1774.36
575.49	1882.08
575.69	1926.52
575.89	1742.00
576.09	1876.76
576.29	1925.30
576.49	1785.83
576.69	1845.83
576.89	1812.25
577.09	1884.54
577.29	1711.28
577.49	2147.09
577.69	1828.22
577.89	1929.39
578.09	1911.37
578.29	1688.14
578.49	1874.30
578.69	1814.71
578.89	2019.71
579.09	1898.47
579.29	1759.21
579.49	1986.32
579.69	1884.34
579.89	2119.44
580.09	1700.22
580.29	1693.26
580.49	1837.03
580.69	1787.67
580.89	1830.88
581.09	1863.45
581.29	1846.65
581.49	1872.46
581.69	1762.89
581.89	1787.67
582.09	1807.33
582.28	1761.05
582.48	1943.52
582.68	2039.16
582.88	2049.20
583.08	1872.46
583.28	1858.33
583.48	1869.18
583.68	1832.32
583.88	1916.69
584.08	1873.48
584.28	1857.30
584.48	2148.32
584.68	1979.36
584.88	1866.11
585.08	1997.18
585.28	2004.55
585.48	2028.10
585.68	1924.89
585.87	1945.16
586.07	1946.59
586.27	1891.50
586.47	1931.64
586.67	1878.81
586.87	1878.40
587.07	1843.38
587.27	1730.94
587.47	1877.17
587.67	2107.36
587.87	2233.11
588.07	1957.04
588.27	1849.52
588.46	2030.77
588.66	2064.76
588.86	1888.64
589.06	1967.28
589.26	2031.79
589.46	1973.83
589.66	1805.90
589.86	1774.77
590.06	1859.15
590.26	1950.49
590.46	1848.70
590.66	1936.35
590.85	1827.20
591.05	1964.62
591.25	1801.19
591.45	1874.92
591.65	1947.82
591.85	1934.92
592.05	1850.95
592.25	1953.97
592.45	2022.98
592.64	1889.66
592.84	1903.59
593.04	1805.49
593.24	2271.81
593.44	1852.18
593.64	1946.80
593.84	1977.11
594.04	1855.05
594.24	2102.24
594.43	1824.54
594.63	1879.42
594.83	2052.47
595.03	1993.70
595.23	1802.01
595.43	1748.56
595.63	1817.16
595.83	2028.10
596.02	1675.85
596.22	1914.44
596.42	1933.28
596.62	1888.84
596.82	1834.57
597.02	1964.82
597.22	2042.85
597.41	1924.89
597.61	1788.70
597.81	1922.43
598.01	1986.94
598.21	1855.66
598.41	1811.22
598.61	1763.51
598.80	1908.91
599.00	1943.73
599.20	1990.63
599.40	1832.93
599.60	1866.31
599.80	1977.72
599.99	2012.54
600.19	1869.18
600.39	1905.63
600.59	1977.72
600.79	1920.99
600.99	1922.43
601.19	2114.94
601.38	2181.70
601.58	1893.76
601.78	1671.14
601.98	1966.87
602.18	2046.74
602.37	2233.92
602.57	2066.81
602.77	2201.57
602.97	2138.08
603.17	2216.93
603.37	2086.06
603.56	2184.36
603.76	2135.42
603.96	2058.00
604.16	2092.00
604.36	2175.56
604.56	2101.42
604.75	1840.92
604.95	1922.84
605.15	2095.28
605.35	2045.92
605.55	1857.51
605.74	1803.85
605.94	2063.33
606.14	1937.38
606.34	1914.44
606.54	1876.96
606.73	1854.64
606.93	1985.30
607.13	1796.68
607.33	1895.19
607.53	2080.12
607.72	2016.63
607.92	1941.47
608.12	1977.72
608.32	1912.60
608.51	1995.13
608.71	1803.44
608.91	1922.84
609.11	1978.34
609.31	1901.13
609.50	1904.20
609.70	2086.06
609.90	2031.99
610.10	2050.43
610.29	1878.60
610.49	1800.16
610.69	2005.58
610.89	1908.71
611.09	1914.85
611.28	1974.65
611.48	2010.70
611.68	1882.49
611.88	1804.67
612.07	1786.85
612.27	2028.31
612.47	1838.67
612.67	1913.62
612.86	1999.43
613.06	1911.37
613.26	1691.21
613.46	1827.40
613.65	1900.52
613.85	2240.27
614.05	1973.42
614.25	1964.82
614.44	1868.98
614.64	1907.68
614.84	1861.19
615.04	1804.06
615.23	1824.54
615.43	1987.55
615.63	1995.95
615.83	1814.71
616.02	1716.81
616.22	1978.54
616.42	1793.82
616.62	1795.04
616.81	1884.34
617.01	1920.59
617.21	1913.62
617.41	1779.48
617.60	1893.35
617.80	1980.39
618.00	1994.93
618.19	1935.13
618.39	1936.76
618.59	1960.93
618.79	1906.86
618.98	1717.02
619.18	1859.56
619.38	2166.34
619.57	1877.37
619.77	1860.99
619.97	1867.95
620.17	1816.96
620.36	1740.36
620.56	1968.71
620.76	1759.61
620.95	1766.37
621.15	1858.33
621.35	1790.95
621.54	1856.07
621.74	1927.75
621.94	1804.67
622.14	1767.60
622.33	1736.06
622.53	1875.32
622.73	1839.08
622.92	1713.74
623.12	1860.99
623.32	2120.67
623.51	1983.46
623.71	1733.81
623.91	1993.29
624.10	1773.95
624.30	1896.83
624.50	1749.58
624.69	1728.69
624.89	2388.34
625.09	1844.20
625.29	1677.49
625.48	1744.66
625.68	1925.30
625.88	2004.96
626.07	1911.37
626.27	1792.59
626.47	1828.84
626.66	1734.42
626.86	1849.11
627.06	1832.93
627.25	1875.53
627.45	2097.32
627.64	1867.54
627.84	2029.13
628.04	1783.78
628.23	2160.61
628.43	1758.80
628.63	1787.26
628.82	1867.95
629.02	2125.38
629.22	1963.39
629.41	2037.11
629.61	1915.06
629.81	2174.94
630.00	1794.02
630.20	1767.19
630.40	1923.86
630.59	1957.04
630.79	1849.93
630.98	1852.59
631.18	1878.40
631.38	1851.16
631.57	1979.16
631.77	1723.57
631.97	1902.15
632.16	1918.54
632.36	1890.89
632.56	1879.63
632.75	1899.70
632.95	2038.75
633.14	1748.97
633.34	2041.82
633.54	1693.26
633.73	1845.42
633.93	1829.86
634.12	1679.54
634.32	2232.29
634.52	1922.02
634.71	1754.90
634.91	1928.98
635.11	1747.53
635.30	1835.39
635.50	1894.17
635.69	1770.06
635.89	2135.83
636.09	1992.06
636.28	1753.47
636.48	1789.31
636.67	1966.66
636.87	1967.07
637.07	1911.57
637.26	1786.24
637.46	1899.08
637.65	2000.05
637.85	1879.01
638.04	1792.79
638.24	1849.32
638.44	1933.28
638.63	1871.84
638.83	1829.66
639.02	1898.47
639.22	1970.35
639.42	1859.76
639.61	1863.65
639.81	1898.06
640.00	1859.15
640.20	1936.56
640.39	1907.89
640.59	2154.67
640.79	1986.32
640.98	1907.89
641.18	1881.88
641.37	1897.44
641.57	1841.74
641.76	1871.84
641.96	1696.95
642.15	1876.96
642.35	1819.21
642.55	1884.13
642.74	1735.86
642.94	1967.07
643.13	2062.30
643.33	1842.35
643.52	1818.60
643.72	1824.13
643.91	1890.68
644.11	1808.97
644.31	1800.78
644.50	1806.72
644.70	2020.53
644.89	1844.81
645.09	1909.32
645.28	1885.97
645.48	1925.30
645.67	1757.57
645.87	1685.68
646.06	1844.20
646.26	1920.18
646.45	1637.76
646.65	1639.19
646.84	2122.51
647.04	1869.18
647.24	1729.30
647.43	1872.87
647.63	1896.01
647.82	2062.92
648.02	1747.53
648.21	1792.18
648.41	2024.42
648.60	1838.67
648.80	1978.34
648.99	1881.26
649.19	1831.70
649.38	1687.73
649.58	1859.35
649.77	1900.52
649.97	2027.28
650.16	1922.43
650.36	1647.39
650.55	1984.89
650.75	1926.93
650.94	2075.41
651.14	1868.36
651.33	1896.62
651.53	2097.53
651.72	1785.83
651.92	1847.47
652.11	1680.15
652.31	1936.35
652.50	1944.55
652.70	1905.23
652.89	1760.84
653.09	2068.45
653.28	1860.37
653.48	1681.18
653.67	1666.23
653.87	2269.15
654.06	1902.15
654.25	2032.20
654.45	1783.17
654.64	1867.95
654.84	1870.00
655.03	1640.42
655.23	1976.29
655.42	1956.83
655.62	2093.02
655.81	1906.04
656.01	1787.67
656.20	1976.70
656.40	2063.33
656.59	1873.28
656.79	1996.16
656.98	1911.98
657.17	1979.77
657.37	1871.84
657.56	1785.42
657.76	1914.24
657.95	2017.86
658.15	1571.82
658.34	1844.81
658.54	1882.49
658.73	1745.07
658.92	1806.92
659.12	1857.71
659.31	1963.59
659.51	1783.17
659.70	1921.81
659.90	1850.13
660.09	1996.77
660.29	1894.99
660.48	1770.67
660.67	1998.00
660.87	1795.66
661.06	1928.16
661.26	1953.76
661.45	1943.11
661.65	1907.48
661.84	1832.93
662.03	1790.74
662.23	1818.60
662.42	2123.33
662.62	1755.52
662.81	1783.78
663.00	1821.26
663.20	1903.38
663.39	1938.40
663.59	1933.90
663.78	1822.28
663.97	1805.90
664.17	2010.08
664.36	1707.60
664.56	1771.90
664.75	1963.18
664.94	1953.56
665.14	1879.63
665.33	1821.05
665.53	1871.23
665.72	1838.87
665.91	1946.59
666.11	1867.34
666.30	1890.07
666.50	1842.15
666.69	1855.46
666.88	1811.22
667.08	1902.97
667.27	1833.14
667.47	1849.73
667.66	1834.16
667.85	1974.86
668.05	1877.99
668.24	1772.72
668.43	1989.60
668.63	1807.74
668.82	2015.00
669.02	1924.68
669.21	1854.44
669.40	1730.33
669.60	2112.89
669.79	1710.26
669.98	2319.32
670.18	1761.25
670.37	1746.30
670.56	1829.45
670.76	1882.08
670.95	1866.31
671.15	1970.56
671.34	1900.31
671.53	1861.40
671.73	1823.10
671.92	1812.86
672.11	1759.00
672.31	1823.72
672.50	1912.80
672.69	1776.82
672.89	1649.64
673.08	1816.14
673.27	1989.60
673.47	1906.45
673.66	1919.15
673.85	1744.87
674.05	1906.25
674.24	1911.98
674.43	1792.38
674.63	2013.97
674.82	2238.02
675.01	1745.69
675.21	2045.31
675.40	1911.78
675.59	1863.45
675.79	2127.63
675.98	1842.15
676.17	2000.05
676.37	1964.41
676.56	1852.18
676.75	1886.18
676.95	1876.55
677.14	1856.07
677.33	2037.93
677.52	1746.10
677.72	1821.26
677.91	1916.49
678.10	1728.90
678.30	1764.94
678.49	1735.45
678.68	2141.97
678.88	1675.85
679.07	1983.87
679.26	1843.17
679.45	2120.26
679.65	2049.81
679.84	1685.07
680.03	1703.71
680.23	1845.42
680.42	2187.03
680.61	1740.98
680.81	1804.87
681.00	1892.73
681.19	1948.23
681.38	1969.53
681.58	1899.49
681.77	1832.11
681.96	1979.16
682.15	1813.68
682.35	1877.37
682.54	1934.10
682.73	1753.47
682.93	1796.27
683.12	1778.25
683.31	2008.24
683.50	2244.16
683.70	1783.78
683.89	1854.03
684.08	1773.13
684.27	2010.70
684.47	1706.37
684.66	1867.95
684.85	2126.61
685.04	2011.11
685.24	1768.63
685.43	1845.63
685.62	1658.65
685.81	1904.00
686.01	1890.68
686.20	1823.72
686.39	1769.24
686.58	2182.73
686.78	1959.50
686.97	1964.21
687.16	2049.81
687.35	1959.91
687.55	1850.13
687.74	1862.83
687.93	1797.50
688.12	1892.12
688.32	1862.83
688.51	1720.09
688.70	1921.61
688.89	1738.11
689.08	1741.39
689.28	1777.84
689.47	1920.99
689.66	1898.06
689.85	1928.37
690.05	1813.27
690.24	1798.32
690.43	1893.55
690.62	1894.58
690.81	1811.43
691.01	1894.17
691.20	1830.47
691.39	1754.29
691.58	1926.52
691.77	2144.84
691.97	1890.28
692.16	1897.24
692.35	1848.09
692.54	1809.59
692.73	1971.78
692.93	1874.10
693.12	1892.94
693.31	1950.28
693.50	1894.99
693.69	1942.29
693.89	1856.48
694.08	2033.84
694.27	2034.66
694.46	1773.95
694.65	1873.69
694.85	1961.13
695.04	1929.60
695.23	1819.62
695.42	2035.68
695.61	2104.08
695.80	2190.71
696.00	2304.17
696.19	2313.80
696.38	2033.84
696.57	2139.51
696.76	2097.32
696.95	2003.94
697.15	2186.00
697.34	2136.85
697.53	1900.72
697.72	1957.04
697.91	1902.56
698.10	2097.73
698.30	1869.18
698.49	1871.64
698.68	1892.53
698.87	1835.18
699.06	1746.71
699.25	1856.89
699.45	2007.62
699.64	1888.02
699.83	1959.91
700.02	1765.96
700.21	1968.51
700.40	1811.84
700.59	1825.97
700.79	1836.00
700.98	1959.70
701.17	1801.39
701.36	1798.73
701.55	1796.89
701.74	2036.30
701.93	1734.22
702.12	1904.82
702.32	1811.43
702.51	2045.31
702.70	2019.71
702.89	1912.39
703.08	1841.53
703.27	2073.36
703.46	1995.54
703.65	1864.27
703.85	1771.49
704.04	1842.76
704.23	2048.79
704.42	1762.89
704.61	1813.48
704.80	2085.04
704.99	1809.38
705.18	1907.27
705.37	1815.52
705.57	1994.93
705.76	2138.69
705.95	1999.84
706.14	2290.86
706.33	2378.92
706.52	2513.06
706.71	2151.80
706.90	1998.61
707.09	2099.17
707.28	2039.98
707.47	1880.24
707.67	2053.91
707.86	1866.72
708.05	2071.32
708.24	1888.02
708.43	1885.16
708.62	1852.80
708.81	1807.33
709.00	1769.24
709.19	1790.54
709.38	2004.55
709.57	1775.79
709.76	1909.53
709.96	1817.37
710.15	2043.05
710.34	1881.88
710.53	1922.63
710.72	1841.12
710.91	2007.62
711.10	1965.44
711.29	1948.64
711.48	1810.61
711.67	1767.19
711.86	1918.13
712.05	1743.03
712.24	1777.23
712.43	1928.57
712.62	2089.34
712.81	1872.87
713.00	2006.60
713.19	1765.96
713.39	1944.34
713.58	1689.37
713.77	1846.86
713.96	1923.45
714.15	1841.53
714.34	1824.13
714.53	1720.91
714.72	2115.96
714.91	1760.43
715.10	1857.30
715.29	1773.13
715.48	2250.51
715.67	1975.47
715.86	1878.40
716.05	1861.60
716.24	1825.56
716.43	1829.45
716.62	1746.30
716.81	1750.40
717.00	1839.28
717.19	2064.56
717.38	1876.76
717.57	1852.18
717.76	1716.81
717.95	1982.64
718.14	1873.69
718.33	1829.66
718.52	1696.33
718.71	1713.33
718.90	1740.77
719.09	1824.33
719.28	1863.86
719.47	1982.43
719.66	1953.15
719.85	1956.42
720.04	1833.55
720.23	1915.67
720.42	1796.27
720.61	1916.69
720.80	1706.57
720.99	1879.22
721.18	1822.69
721.37	1773.54
721.56	1813.27
721.75	1986.73
721.94	1764.73
722.13	1840.71
722.32	1836.21
722.51	1967.07
722.70	1847.68
722.89	1905.43
723.08	1864.06
723.27	1990.01
723.46	1871.64
723.65	1803.85
723.84	1814.91
724.03	2022.37
724.22	1723.16
724.41	1896.62
724.60	1846.04
724.79	1972.60
724.98	1923.45
725.16	1820.44
725.35	1962.57
725.54	1760.23
725.73	1862.42
725.92	1841.33
726.11	1862.01
726.30	2001.28
726.49	1796.89
726.68	1872.87
726.87	1976.70
727.06	2073.98
727.25	1834.16
727.44	1944.96
727.63	1911.37
727.82	1849.32
728.01	1894.78
728.20	1950.28
728.38	2067.83
728.57	1870.41
728.76	1860.99
728.95	1973.01
729.14	1708.21
729.33	1762.07
729.52	1659.06
729.71	1769.04
729.90	1760.64
730.09	1819.42
730.28	1818.80
730.47	1814.09
730.66	1996.56
730.84	1909.53
731.03	1896.01
731.22	1918.13
731.41	1888.23
731.60	1944.96
731.79	1714.35
731.98	1779.48
732.17	1943.52
732.36	1905.23
732.55	1790.74
732.73	1762.28
732.92	2056.98
733.11	1938.20
733.30	1790.74
733.49	1718.04
733.68	1943.32
733.87	1898.88
734.06	1769.24
734.25	1752.86
734.43	1811.84
734.62	1937.38
734.81	1856.28
735.00	1862.83
735.19	1857.51
735.38	1937.17
735.57	1748.76
735.76	1894.17
735.94	1957.45
736.13	2186.62
736.32	2018.07
736.51	1969.74
736.70	2234.95
736.89	2248.06
737.08	2132.96
737.27	2212.42
737.45	2453.06
737.64	2353.12
737.83	2516.13
738.02	2464.73
738.21	2541.12
738.40	2507.33
738.59	2169.82
738.77	2259.32
738.96	2040.39
739.15	2112.07
739.34	2148.93
739.53	2049.81
739.72	2149.96
739.90	2077.66
740.09	1832.52
740.28	1916.49
740.47	1987.96
740.66	1948.03
740.85	1793.41
741.03	1876.76
741.22	1779.48
741.41	1852.39
741.60	1747.12
741.79	1900.51
741.98	2037.73
742.16	2084.22
742.35	1909.53
742.54	1861.19
742.73	2155.49
742.92	1818.39
743.10	1719.06
743.29	1807.74
743.48	2213.65
743.67	1813.68
743.86	1708.62
744.05	1743.64
744.23	1773.34
744.42	1777.23
744.61	1847.68
744.80	1745.69
744.99	1805.90
745.17	1681.79
745.36	1700.43
745.55	1898.67
745.74	1851.36
745.93	1757.77
746.11	1779.48
746.30	1729.92
746.49	1975.27
746.68	1761.66
746.86	1836.21
747.05	1814.50
747.24	1950.08
747.43	1936.35
747.62	1733.20
747.80	1797.09
747.99	2003.12
748.18	1950.90
748.37	1902.97
748.56	1918.54
748.74	1985.10
748.93	1899.08
749.12	2019.71
749.31	2423.77
749.49	2714.79
749.68	2962.59
749.87	3166.57
750.06	3126.84
750.24	3077.07
750.43	3057.62
750.62	3100.22
750.81	3183.77
750.99	3307.06
751.18	3274.09
751.37	2957.88
751.56	2816.16
751.74	2992.49
751.93	3013.59
752.12	2358.65
752.31	2293.52
752.49	2237.20
752.68	2411.07
752.87	2169.41
753.06	1994.52
753.24	1990.83
753.43	2151.80
753.62	1876.96
753.81	1855.87
753.99	2117.39
754.18	1939.84
754.37	1777.23
754.55	1893.76
754.74	2093.64
754.93	1688.76
755.12	1821.46
755.30	1771.70
755.49	1988.17
755.68	1895.80
755.86	1904.41
756.05	1742.21
756.24	2041.21
756.43	1721.32
756.61	1763.30
756.80	1907.27
756.99	2037.52
757.17	1863.04
757.36	1722.14
757.55	1835.59
757.74	1933.90
757.92	1868.77
758.11	1715.99
758.30	1649.02
758.48	1822.28
758.67	1699.40
758.86	1824.33
759.04	1725.62
759.23	1809.99
759.42	1843.17
759.60	1753.27
759.79	1832.11
759.98	1836.00
760.16	1764.12
760.35	1751.63
760.54	1713.74
760.73	1916.08
760.91	1714.56
761.10	1859.97
761.29	1871.84
761.47	1864.88
761.66	2152.21
761.85	1867.75
762.03	1972.60
762.22	2123.33
762.41	2639.63
762.59	3179.68
762.78	3405.57
762.97	4000.91
763.15	4131.37
763.34	3767.03
763.52	3227.19
763.71	3176.81
763.90	3188.69
764.08	2862.65
764.27	2822.31
764.46	2875.76
764.64	2553.00
764.83	2459.20
765.02	2396.12
765.20	2334.07
765.39	2290.24
765.58	1960.52
765.76	2025.24
765.95	1986.73
766.13	1920.38
766.32	1874.71
766.51	1884.75
766.69	2446.91
766.88	1908.71
767.07	1749.58
767.25	1659.47
767.44	1995.75
767.62	1994.93
767.81	1801.19
768.00	1836.82
768.18	1863.86
768.37	1799.35
768.56	1693.67
768.74	1761.05
768.93	1736.27
769.11	1922.43
769.30	1827.81
769.49	1787.06
769.67	1865.70
769.86	1819.01
770.04	1815.52
770.23	1805.49
770.42	2033.43
770.60	1863.65
770.79	1730.12
770.97	1772.11
771.16	2028.51
771.35	2063.12
771.53	2148.93
771.72	2203.00
771.90	2402.27
772.09	2623.24
772.27	2456.54
772.46	2171.67
772.65	2362.13
772.83	2237.82
773.02	2184.98
773.20	2029.33
773.39	2146.68
773.58	2170.03
773.76	1878.40
773.95	1954.99
774.13	1979.16
774.32	1908.50
774.50	1801.39
774.69	1879.63
774.87	1832.32
775.06	2156.10
775.25	1789.92
775.43	1846.04
775.62	1909.53
775.80	1943.11
775.99	1911.78
776.17	1773.75
776.36	1830.47
776.54	1932.46
776.73	1742.82
776.92	1814.71
777.10	1917.31
777.29	1890.28
777.47	1738.52
777.66	1782.14
777.84	1863.24
778.03	1841.12
778.21	1755.11
778.40	1848.29
778.58	1907.48
778.77	1987.55
778.95	1711.69
779.14	1774.77
779.32	2080.53
779.51	1995.34
779.70	1831.29
779.88	1716.81
780.07	1845.63
780.25	2209.96
780.44	1807.74
780.62	1954.58
780.81	1955.20
780.99	1913.62
781.18	1802.42
781.36	1809.59
781.55	1864.47
781.73	2055.96
781.92	1758.80
782.10	1744.46
782.29	1913.01
782.47	2082.58
782.66	1845.42
782.84	1723.98
783.03	1787.67
783.21	2027.28
783.40	1806.72
783.58	1782.35
783.77	1805.90
783.95	1867.95
784.14	1770.67
784.32	1835.39
784.51	1996.97
784.69	1786.03
784.88	1694.28
785.06	1835.80
785.24	1694.08
785.43	1977.52
785.61	1894.17
785.80	1740.77
785.98	1936.35
786.17	1876.76
786.35	1739.34
786.54	1911.98
786.72	1967.28
786.91	1981.20
787.09	1813.89
787.28	1720.50
787.46	1874.10
787.65	1984.28
787.83	1731.35
788.01	1862.63
788.20	1739.14
788.38	1848.09
788.57	1759.00
788.75	1800.37
788.94	2104.08
789.12	2031.79
789.31	1846.45
789.49	1918.95
789.67	1800.37
789.86	1909.32
790.04	1746.92
790.23	1685.48
790.41	2143.20
790.60	1809.99
790.78	1826.99
790.96	1857.51
791.15	1942.50
791.33	1852.18
791.52	1823.31
791.70	1745.89
791.89	1865.70
792.07	1981.20
792.25	1849.32
792.44	1719.88
792.62	2014.38
792.81	1812.45
792.99	1845.22
793.17	1769.04
793.36	1764.94
793.54	2097.94
793.73	2045.92
793.91	2008.85
794.10	2294.95
794.28	2434.01
794.46	2207.10
794.65	2267.72
794.83	2088.93
795.01	2123.33
795.20	2240.27
795.38	2087.29
795.57	2122.11
795.75	2117.19
795.93	1954.99
796.12	2004.55
796.30	2052.68
796.49	2023.39
796.67	1838.46
796.85	1969.53
797.04	1923.66
797.22	1970.97
797.40	1709.44
797.59	1882.70
797.77	1911.37
797.96	1774.56
798.14	1735.86
798.32	1791.15
798.51	1958.47
798.69	2109.00
798.87	1857.92
799.06	1810.61
799.24	1705.14
799.42	1986.73
799.61	1950.90
799.79	1999.02
799.98	2307.45
800.16	2091.59
800.34	2242.53
800.53	2431.76
800.71	2468.83
800.89	2874.32
801.08	2733.83
801.26	2734.65
801.44	2483.78
801.63	2325.88
801.81	2302.53
801.99	2270.38
802.18	2223.48
802.36	2225.94
802.54	2189.69
802.73	1993.90
802.91	2080.74
803.09	2067.22
803.28	2047.56
803.46	2030.56
803.64	2150.37
803.83	1818.39
804.01	1811.43
804.19	1769.04
804.38	2002.09
804.56	1951.92
804.74	1841.33
804.92	1862.42
805.11	1746.92
805.29	1992.26
805.47	1800.98
805.66	1712.31
805.84	1726.44
806.02	1981.82
806.21	1805.49
806.39	1930.01
806.57	1991.85
806.76	1962.16
806.94	1853.00
807.12	1764.12
807.30	1772.93
807.49	1872.05
807.67	1833.75
807.85	1933.28
808.04	1965.64
808.22	2164.50
808.40	1731.56
808.58	1728.08
808.77	1931.85
808.95	2038.14
809.13	1885.97
809.31	2251.74
809.50	2437.08
809.68	2620.58
809.86	2536.61
810.05	2658.47
810.23	3041.64
810.41	3340.24
810.59	4753.75
810.78	5571.09
810.96	6269.86
811.14	6683.75
811.32	6339.90
811.51	5434.08
811.69	4716.68
811.87	4809.45
812.05	4320.39
812.24	4104.13
812.42	4039.62
812.60	3819.46
812.78	3250.54
812.97	3015.43
813.15	3134.62
813.33	2815.14
813.51	2694.31
813.70	2307.65
813.88	2192.15
814.06	2181.29
814.24	2059.23
814.42	1846.86
814.61	1985.30
814.79	2147.50
814.97	1722.96
815.15	1823.51
815.34	1923.45
815.52	1961.95
815.70	1757.36
815.88	1805.69
816.06	1769.65
816.25	1806.92
816.43	1754.09
816.61	1919.56
816.79	2048.58
816.98	1684.25
817.16	1781.94
817.34	1739.54
817.52	1894.17
817.70	2048.17
817.89	1842.76
818.07	1722.96
818.25	1819.01
818.43	1900.31
818.61	1821.67
818.80	1785.83
818.98	2090.36
819.16	1861.81
819.34	1728.90
819.52	2042.64
819.70	1770.26
819.89	1863.24
820.07	1712.31
820.25	1678.11
820.43	1900.72
820.61	1966.87
820.80	1849.93
820.98	1751.63
821.16	1694.69
821.34	1711.90
821.52	1818.39
821.70	1866.11
821.89	1866.11
822.07	1845.22
822.25	1800.78
822.43	1760.02
822.61	2053.29
822.79	1886.79
822.98	1814.91
823.16	1681.79
823.34	1898.26
823.52	2027.08
823.70	1938.20
823.88	1682.41
824.06	1930.42
824.25	1859.76
824.43	1932.87
824.61	1738.11
824.79	1843.99
824.97	1902.77
825.15	1956.42
825.33	2068.24
825.52	2142.99
825.70	2053.50
825.88	2061.08
826.06	2157.33
826.24	2167.98
826.42	2207.71
826.60	2045.31
826.78	2110.84
826.97	2006.80
827.15	2099.99
827.33	1866.72
827.51	1978.95
827.69	1873.28
827.87	1971.78
828.05	1949.87
828.23	1803.03
828.41	1992.26
828.60	2008.03
828.78	1728.28
828.96	1906.66
829.14	1813.68
829.32	1839.08
829.50	1820.23
829.68	1809.38
829.86	1813.48
830.04	1924.89
830.22	1896.42
830.41	1719.88
830.59	1840.10
830.77	1965.85
830.95	1784.80
831.13	1792.79
831.31	1787.67
831.49	1968.92
831.67	1971.17
831.85	1943.52
832.03	1840.71
832.21	1983.66
832.39	1718.86
832.57	1736.47
832.76	1991.65
832.94	1823.10
833.12	1682.20
833.30	1819.21
833.48	2016.84
833.66	1910.75
833.84	1785.21
834.02	1840.92
834.20	1978.13
834.38	1980.80
834.56	1658.65
834.74	1754.70
834.92	1705.96
835.10	2076.64
835.28	1877.78
835.46	1836.62
835.64	1831.70
835.82	1791.97
836.01	2047.15
836.19	1990.42
836.37	1813.07
836.55	1758.18
836.73	1781.73
836.91	1710.87
837.09	1950.08
837.27	2045.31
837.45	1690.80
837.63	1706.16
837.81	1726.44
837.99	1853.00
838.17	1828.63
838.35	1728.90
838.53	2146.27
838.71	1940.66
838.89	1797.71
839.07	1803.44
839.25	1887.00
839.43	1984.89
839.61	1807.95
839.79	2177.81
839.97	2290.65
840.15	2377.08
840.33	2331.20
840.51	2610.34
840.69	2422.54
840.87	2307.04
841.05	2324.85
841.23	2220.61
841.41	2425.82
841.59	2898.08
841.77	2928.60
841.95	3041.85
842.13	3371.37
842.31	3114.14
842.49	2753.90
842.67	2728.92
842.85	2713.76
843.03	2429.30
843.21	2399.20
843.39	2486.03
843.57	2377.28
843.75	2325.88
843.93	2177.20
844.11	2135.42
844.29	2133.98
844.47	2046.74
844.65	2138.49
844.83	1945.78
845.01	1950.90
845.19	2046.54
845.36	1904.20
845.54	1950.49
845.72	1905.84
845.90	1954.58
846.08	1744.66
846.26	1850.95
846.44	1916.49
846.62	1934.92
846.80	1872.46
846.98	1764.73
847.16	1844.81
847.34	1918.74
847.52	1746.51
847.70	1775.38
847.88	1839.28
848.06	2045.10
848.24	1905.23
848.41	1678.52
848.59	2004.55
848.77	1899.49
848.95	1780.71
849.13	1804.67
849.31	1952.74
849.49	1922.43
849.67	1738.73
849.85	1749.99
850.03	1917.92
850.21	1882.70
850.39	1772.52
850.57	1910.55
850.74	2041.62
850.92	2019.91
851.10	1950.08
851.28	1961.34
851.46	2084.42
851.64	2351.89
851.82	2052.68
852.00	2140.13
852.18	2223.89
852.36	2123.74
852.53	1947.21
852.71	2022.98
852.89	2059.85
853.07	2064.15
853.25	1872.46
853.43	1803.44
853.61	1963.18
853.79	1960.93
853.97	1834.57
854.14	1779.68
854.32	2055.96
854.50	1971.37
854.68	1817.78
854.86	1802.01
855.04	1771.70
855.22	1947.00
855.40	1700.22
855.57	1782.76
855.75	1975.68
855.93	1923.25
856.11	1675.85
856.29	1724.59
856.47	1804.67
856.65	1903.79
856.82	1780.91
857.00	1705.96
857.18	1848.29
857.36	1814.30
857.54	1860.99
857.72	1949.46
857.89	1930.01
858.07	1896.21
858.25	1967.69
858.43	1728.49
858.61	1863.24
858.79	1802.83
858.97	1755.31
859.14	1890.28
859.32	1858.94
859.50	1828.84
859.68	1885.77
859.86	1781.94
860.03	1865.70
860.21	1929.19
860.39	1770.47
860.57	1843.58
860.75	1917.51
860.93	2095.28
861.10	1984.28
861.28	1794.02
861.46	1897.24
861.64	1933.90
861.82	1786.65
861.99	1865.09
862.17	1980.59
862.35	2006.80
862.53	1845.42
862.71	1852.80
862.88	1898.67
863.06	1949.46
863.24	1820.85
863.42	1762.48
863.60	1855.05
863.77	1935.74
863.95	1667.25
864.13	1837.64
864.31	1843.79
864.49	1960.11
864.66	1722.14
864.84	1807.54
865.02	1911.98
865.20	2224.30
865.37	1853.82
865.55	1787.47
865.73	1719.68
865.91	1939.02
866.09	1898.47
866.26	1877.78
866.44	1974.24
866.62	1846.65
866.80	1728.69
866.97	1882.49
867.15	1840.71
867.33	1903.79
867.51	1898.26
867.68	1860.17
867.86	1796.68
868.04	1797.50
868.22	1697.97
868.39	1785.21
868.57	1906.04
868.75	2050.22
868.93	1685.68
869.10	1768.01
869.28	2108.18
869.46	2032.40
869.64	1821.05
869.81	1815.73
869.99	1926.32
870.17	1909.53
870.35	1755.93
870.52	1757.16
870.70	1969.12
870.88	1796.48
871.05	1728.28
871.23	1614.21
871.41	1851.98
871.59	1862.22
871.76	1789.11
871.94	1785.21
872.12	1842.56
872.29	1713.95
872.47	1775.79
872.65	1735.45
872.83	1905.43
873.00	2051.45
873.18	1826.99
873.36	1772.11
873.53	1969.94
873.71	1698.18
873.89	1751.01
874.06	1828.43
874.24	1900.72
874.42	2031.18
874.60	1941.06
874.77	1867.54
874.95	1793.61
875.13	2002.71
875.30	1769.65
875.48	1800.57
875.66	2093.02
875.83	1801.39
876.01	1798.94
876.19	1942.50
876.36	1712.31
876.54	1873.89
876.72	1752.24
876.89	1908.09
877.07	1996.97
877.25	1683.23
877.42	1869.39
877.60	1829.04
877.78	2085.45
877.95	1818.39
878.13	1778.05
878.31	1901.13
878.48	2003.12
878.66	1938.81
878.84	1790.13
879.01	1828.02
879.19	1933.90
879.37	1943.73
879.54	1787.06
879.72	1733.20
879.90	1662.13
880.07	1973.83
880.25	1590.66
880.42	1912.19
880.60	1865.90
880.78	1973.22
880.95	1802.21
881.13	1822.08
881.31	1861.81
881.48	1826.79
881.66	1769.44
881.83	1891.30
882.01	1771.49
882.19	1709.03
882.36	1844.61
882.54	1805.49
882.72	1927.34
882.89	1881.67
883.07	1734.22
883.24	1821.05
883.42	1973.42
883.60	1892.12
883.77	1753.27
883.95	1793.20
884.12	1988.78
884.30	1887.82
884.48	1947.62
884.65	1836.41
884.83	1916.28
885.00	1891.30
885.18	1731.97
885.36	1781.94
885.53	1928.78
885.71	2039.16
885.88	1721.32
886.06	1809.59
886.23	1935.94
886.41	1816.14
886.59	1791.97
886.76	1767.60
886.94	1959.70
887.11	2253.79
887.29	1834.57
887.47	1710.05
887.64	2015.61
887.82	2030.36
887.99	1655.58
888.17	1864.06
888.34	1829.86
888.52	1742.82
888.69	1830.27
888.87	1742.00
889.05	1803.03
889.22	1852.80
889.40	1779.07
889.57	1968.92
889.75	2076.44
889.92	1831.29
890.10	1735.86
890.27	1793.82
890.45	1787.47
890.62	1680.77
890.80	1741.39
890.98	1698.18
891.15	2051.25
891.33	1968.10
891.50	1793.20
891.68	1709.23
891.85	1963.59
892.03	1933.28
892.20	1785.42
892.38	1762.07
892.55	1940.86
892.73	1951.51
892.90	1735.45
893.08	1778.05
893.25	1802.21
893.43	1825.35
893.60	1920.18
893.78	1628.75
893.95	1915.67
894.13	1844.40
894.30	1765.76
894.48	1835.18
894.65	1967.89
894.83	1885.77
895.00	1666.43
895.18	1639.19
895.35	1956.01
895.53	1934.10
895.70	1709.85
895.88	1897.44
896.05	1924.68
896.23	1703.50
896.40	1766.58
896.58	1839.08
896.75	1965.23
896.93	2034.45
897.10	1775.38
897.28	1700.22
897.45	1898.47
897.63	1915.26
897.80	1924.89
897.98	1854.03
898.15	1900.72
898.33	1795.66
898.50	1865.70
898.67	1822.49
898.85	1843.17
899.02	1922.02
899.20	1976.09
899.37	1819.21
899.55	1894.58
899.72	2048.58
899.90	1765.14
900.07	1754.49
900.25	1924.48
900.42	2013.56
900.59	1786.44
900.77	1922.43
900.94	1938.40
901.12	1899.49
901.29	1785.62
901.47	1897.24
901.64	1951.92
901.82	1863.65
901.99	1603.15
902.16	1739.75
902.34	2008.24
902.51	1891.91
902.69	1789.52
902.86	1820.44
903.03	2297.41
903.21	1881.26
903.38	1827.40
903.56	1760.84
903.73	1989.19
903.91	1820.03
904.08	1720.91
904.25	1639.81
904.43	1762.07
904.60	1977.11
904.78	1788.49
904.95	1738.11
905.12	1830.68
905.30	2073.98
905.47	1908.09
905.65	1937.99
905.82	1845.22
905.99	1915.06
906.17	1825.35
906.34	1743.03
906.52	1772.93
906.69	1917.92
906.86	1915.67
907.04	1841.33
907.21	1985.10
907.38	1969.33
907.56	1772.31
907.73	1771.08
907.91	2075.62
908.08	2000.87
908.25	1738.11
908.43	1748.97
908.60	1940.86
908.77	1890.28
908.95	1766.17
909.12	1736.27
909.30	1938.61
909.47	1691.83
909.64	1802.42
909.82	1926.73
909.99	1827.20
910.16	1896.62
910.34	1773.34
910.51	1784.40
910.68	1909.32
910.86	1859.56
911.03	1710.87
911.20	1800.98
911.38	2042.64
911.55	2400.42
911.72	2465.55
911.90	2382.81
912.07	2583.92
912.24	2754.72
912.42	2301.10
912.59	2111.05
912.76	2247.44
912.94	2109.00
913.11	1966.25
913.28	1875.32
913.46	1829.04
913.63	1979.77
913.80	2133.37
913.98	1834.98
914.15	2027.49
914.32	2043.67
914.49	1919.36
914.67	1765.55
914.84	1897.85
915.01	1967.89
915.19	1870.21
915.36	1800.37
915.53	1996.16
915.71	1955.61
915.88	1902.36
916.05	1781.12
916.22	1970.76
916.40	1920.59
916.57	1757.77
916.74	1889.46
916.92	2045.31
917.09	1755.11
917.26	1730.74
917.43	1738.73
917.61	1825.56
917.78	1662.75
917.95	1643.70
918.13	1734.22
918.30	2163.27
918.47	1879.01
918.64	1745.28
918.82	1712.10
918.99	1830.47
919.16	2050.22
919.33	1821.67
919.51	1731.35
919.68	1842.15
919.85	2011.92
920.02	1685.07
920.20	1774.56
920.37	2081.76
920.54	1959.29
920.71	1747.74
920.89	1749.37
921.06	2090.16
921.23	1756.13
921.40	1712.31
921.58	1872.87
921.75	2283.69
921.92	1870.82
922.09	1898.26
922.27	1913.42
922.44	1960.32
922.61	1962.57
922.78	1852.80
922.96	1825.35
923.13	1875.53
923.30	1970.97
923.47	1697.15
923.64	1793.20
923.82	1908.50
923.99	1914.65
924.16	1864.68
924.33	1735.65
924.50	1865.49
924.68	2065.79
924.85	1698.38
925.02	1788.08
925.19	1964.00
925.36	1889.46
925.54	1832.11
925.71	1799.55
925.88	2254.40
926.05	1808.77
926.22	1730.12
926.40	1853.62
926.57	1870.41
926.74	1944.55
926.91	1758.80
927.08	1960.93
927.26	2019.30
927.43	1885.56
927.60	1762.89
927.77	1808.15
927.94	2073.98
928.11	2015.41
928.29	1685.89
928.46	1822.28
928.63	1773.34
928.80	1838.46
928.97	1899.49
929.14	1710.26
929.32	2136.24
929.49	1904.41
929.66	1728.69
929.83	1701.66
930.00	1813.89
930.17	1896.62
930.35	1688.35
930.52	1789.72
930.69	2098.55
930.86	1742.41
931.03	1864.47
931.20	1630.59
931.37	2011.31
931.55	1852.80
931.72	1829.86
931.89	1680.56
932.06	1763.71
932.23	2078.48
932.40	1902.77
932.57	1882.90
932.74	2024.83
932.92	1991.44
933.09	1921.40
933.26	1553.38
933.43	1811.63
933.60	1914.85
933.77	1848.09
933.94	1852.80
934.11	1851.16
934.29	1908.71
934.46	1714.15
934.63	1833.96
934.80	1689.98
934.97	1847.27
935.14	1793.82
935.31	1658.65
935.48	1782.14
935.65	1911.37
935.82	1852.39
936.00	1724.39
936.17	2041.62
936.34	1846.45
936.51	1901.74
936.68	1701.25
936.85	1908.30
937.02	1896.62
937.19	1857.51
937.36	1806.72
937.53	1922.22
937.70	1984.07
937.87	1800.78
938.05	1903.18
938.22	1862.63
938.39	1729.92
938.56	1816.96
938.73	1719.47
938.90	1850.54
939.07	1790.13
939.24	1841.53
939.41	1641.45
939.58	1922.63
939.75	1924.07
939.92	1717.63
940.09	1953.15
940.26	1840.51
940.43	1987.14
940.60	1783.58
940.77	1808.77
940.95	1927.34
941.12	1967.48
941.29	1775.18
941.46	1844.81
941.63	2018.07
941.80	2042.64
941.97	1700.84
942.14	1706.78
942.31	1973.42
942.48	1848.91
942.65	1870.61
942.82	1806.10
942.99	1942.29
943.16	1892.53
943.33	1734.83
943.50	1761.05
943.67	1945.57
943.84	1991.85
944.01	1792.59
944.18	1721.93
944.35	2038.96
944.52	1776.82
944.69	1850.13
944.86	1684.04
945.03	1965.44
945.20	2158.15
945.37	1632.64
945.54	1822.28
945.71	2027.28
945.88	2087.70
946.05	1702.27
946.22	1696.54
946.39	2023.19
946.56	1833.96
946.73	1699.61
946.90	1730.12
947.07	1789.31
947.24	1832.32
947.41	1648.82
947.58	1886.79
947.75	1945.16
947.92	1911.78
948.09	1585.74
948.26	1666.84
948.43	1893.14
948.60	2119.24
948.77	1741.39
948.94	1793.41
949.11	1965.44
949.27	1923.86
949.44	1744.05
949.61	1762.48
949.78	1901.33
949.95	1992.26
950.12	1743.44
950.29	1690.60
950.46	1809.79
950.63	1987.14
950.80	1755.11
950.97	1799.96
951.14	2026.26
951.31	1849.11
951.48	1749.78
951.65	1721.52
951.82	2110.23
951.99	1896.62
952.15	1678.11
952.32	1783.78
952.49	1775.38
952.66	1816.55
952.83	1737.50
953.00	1721.11
953.17	1837.85
953.34	1966.05
953.51	1829.86
953.68	1806.72
953.85	1973.22
954.02	2017.66
954.18	1811.63
954.35	1817.98
954.52	1766.58
954.69	1895.40
954.86	1642.68
955.03	1803.24
955.20	1938.81
955.37	1848.91
955.54	1755.52
955.71	1747.94
955.87	1928.98
956.04	2071.52
956.21	1793.61
956.38	1733.61
956.55	1890.07
956.72	2207.10
956.89	1815.52
957.06	1739.14
957.23	1806.51
957.39	2056.57
957.56	1780.71
957.73	1708.62
957.90	1640.42
958.07	2084.01
958.24	1824.94
958.41	1782.96
958.57	1972.40
958.74	1874.30
958.91	1721.11
959.08	1775.18
959.25	1944.55
959.42	1834.98
959.59	1821.46
959.75	1773.13
959.92	2008.24
960.09	2020.12
960.26	1710.87
960.43	1825.56
960.60	1896.21
960.76	1829.86
960.93	1673.80
961.10	1834.78
961.27	1992.06
961.44	1840.71
961.61	1701.25
961.77	1708.62
961.94	1878.40
962.11	1939.22
962.28	1783.78
962.45	1689.98
962.62	1873.28
962.78	1998.20
962.95	1715.17
963.12	1761.05
963.29	1919.15
963.46	2244.37
963.62	1823.10
963.79	1761.46
963.96	2188.46
964.13	1832.32
964.30	1865.09
964.46	1779.89
964.63	1751.01
964.80	2203.00
964.97	1643.09
965.14	1872.46
965.30	1937.38
965.47	2001.89
965.64	1895.19
965.81	1858.53
965.98	2098.35
966.14	1902.36
966.31	1774.77
966.48	1788.90
966.65	2040.19
966.81	1927.55
966.98	1782.55
967.15	1805.69
967.32	1865.09
967.49	1779.07
967.65	1646.57
967.82	1627.73
967.99	1846.65
968.16	1672.17
968.32	1933.28
968.49	1760.23
968.66	1848.50
968.83	2090.98
968.99	1818.39
969.16	1728.90
969.33	2014.59
969.50	1936.35
969.66	1871.64
969.83	1991.44
970.00	1963.59
970.17	1943.11
970.33	1788.08
970.50	1705.55
970.67	2069.27
970.84	2063.53
971.00	1702.89
971.17	1714.76
971.34	1973.01
971.50	1907.89
971.67	1890.48
971.84	1827.20
972.01	1718.25
972.17	1642.27
972.34	1727.67
972.51	1891.09
972.67	2013.77
972.84	1928.57
973.01	1729.10
973.18	1740.16
973.34	1999.23
973.51	1780.91
973.68	1797.30
973.84	1827.81
974.01	1834.57
974.18	2077.05
974.34	1866.93
974.51	1839.90
974.68	1808.56
974.85	2132.55
975.01	1903.38
975.18	1793.20
975.35	1882.49
975.51	1776.61
975.68	1649.02
975.85	1908.30
976.01	1776.20
976.18	2059.44
976.35	1791.15
976.51	1761.05
976.68	2070.91
976.85	2026.06
977.01	1805.08
977.18	1880.24
977.35	1950.49
977.51	1719.88
977.68	1610.32
977.85	1700.22
978.01	1963.18
978.18	1922.22
978.35	1799.14
978.51	1803.85
978.68	2005.99
978.85	2078.69
979.01	1757.57
979.18	1825.97
979.34	1857.51
979.51	1884.95
979.68	1737.09
979.84	1782.76
980.01	2179.45
980.18	1879.63
980.34	1728.90
980.51	1839.69
980.67	1970.56
980.84	1973.42
981.01	1795.04
981.17	1885.77
981.34	1666.84
981.51	1955.81
981.67	1747.74
981.84	1888.84
982.00	1960.73
982.17	1835.39
982.34	1649.43
982.50	1562.19
982.67	2065.17
982.83	1821.46
983.00	1704.32
983.17	1603.76
983.33	2022.16
983.50	1704.52
983.66	1705.34
983.83	1601.92
984.00	1834.98
984.16	1872.46
984.33	1607.45
984.49	1605.81
984.66	1758.80
984.83	1988.37
984.99	1654.76
985.16	1600.08
985.32	1982.02
985.49	1967.28
985.65	1737.29
985.82	1614.00
985.99	2066.20
986.15	1888.43
986.32	1692.03
986.48	1654.35
986.65	1821.46
986.81	1964.41
986.98	1624.45
987.14	1711.28
987.31	1875.12
987.48	1703.50
987.64	1549.90
987.81	1589.63
987.97	2147.30
988.14	1774.36
988.30	1649.23
988.47	1511.20
988.63	1890.07
988.80	1744.66
988.96	1709.85
989.13	1712.10
989.30	1841.94
989.46	1984.07
989.63	1580.83
989.79	1608.68
989.96	1853.41
990.12	2066.81
990.29	1669.09
990.45	1700.02
990.62	1848.50
990.78	2012.95
990.95	1719.47
991.11	1654.35
991.28	1824.94
991.44	1898.06
991.61	1543.55
991.77	1691.62
991.94	1900.72
992.10	2000.05
992.27	1738.32
992.43	1665.41
992.60	1936.56
992.76	1824.13
992.93	1789.72
993.09	1624.45
993.26	1965.03
993.42	2105.52
993.59	1641.45
993.75	1563.83
993.92	1791.36
994.08	1809.99
994.25	1722.34
994.41	1593.93
994.58	1939.84
994.74	2060.05
994.91	1617.49
995.07	1705.75
995.24	1830.27
995.40	1879.22
995.56	1761.05
995.73	1724.39
995.89	2097.32
996.06	1834.98
996.22	1624.86
996.39	1575.50
996.55	1850.75
996.72	1934.10
996.88	1571.20
997.05	1608.88
997.21	2135.21
997.37	1929.80
997.54	1724.39
997.70	1668.07
997.87	1926.73
998.03	1848.29
998.20	1538.23
998.36	1589.43
998.52	1948.03
998.69	1968.30
998.85	1562.80
999.02	1671.35
999.18	1984.89
999.35	1982.43
999.51	1676.47
999.67	1641.04
999.84	1765.76
1000.00	1948.85
1000.17	1711.49
1000.33	1600.49
1000.49	1806.72
1000.66	1835.80
1000.82	1618.10
1000.99	1717.63
1001.15	2009.67
1001.31	1806.51
1001.48	1648.61
1001.64	1709.64
1001.81	1841.53
1001.97	2114.94
1002.13	1635.71
1002.30	1650.05
1002.46	2040.60
1002.63	1855.05
1002.79	1697.36
1002.95	1631.62
1003.12	1982.23
1003.28	1918.13
1003.45	1632.85
1003.61	1595.78
1003.77	1893.14
1003.94	1711.49
1004.10	1651.07
1004.26	1731.35
1004.43	1933.28
1004.59	2094.66
1004.75	1624.65
1004.92	1603.76
1005.08	1802.83
1005.25	1899.70
1005.41	1658.65
1005.57	1726.85
1005.74	2001.28
1005.90	1794.23
1006.06	1719.47
1006.23	1638.78
1006.39	1954.58
1006.55	2239.66
1006.72	1795.45
1006.88	1585.95
1007.04	1772.31
1007.21	1822.49
1007.37	1662.95
1007.53	1655.99
1007.70	2045.10
1007.86	1985.30
1008.02	1689.78
1008.19	1625.27
1008.35	1902.56
1008.51	1762.69
1008.68	1659.67
1008.84	1578.37
1009.00	1759.61
1009.17	2010.49
1009.33	1760.64
1009.49	1741.18
1009.65	1768.63
1009.82	1917.31
1009.98	1706.57
1010.14	1559.12
1010.31	1957.24
1010.47	1930.21
1010.63	1713.54
1010.80	1700.63
1010.96	1944.55
1011.12	1827.81
1011.28	1674.21
1011.45	1655.17
1011.61	2213.85
1011.77	1774.36
1011.94	1619.33
1012.10	1596.39
1012.26	1729.30
1012.42	1788.49
1012.59	1695.72
1012.75	1693.87
1012.91	1834.78
1013.07	1994.11
1013.24	1584.31
1013.40	1638.78
1013.56	1887.82
1013.72	1850.34
1013.89	1720.09
1014.05	1724.80
1014.21	2102.04
1014.37	2202.80
1014.54	1683.84
1014.70	1625.06
1014.86	1849.52
1015.02	1743.03
1015.19	1666.02
1015.35	1598.85
1015.51	1822.69
1015.67	1819.83
1015.84	1641.04
1016.00	1649.64
1016.16	1995.13
1016.32	1949.46
1016.49	1622.20
1016.65	1623.42
1016.81	1826.17
1016.97	1921.81
1017.14	1760.23
1017.30	1651.89
1017.46	1809.59
1017.62	1885.16
1017.78	1697.15
1017.95	1621.38
1018.11	1971.17
1018.27	2166.14
1018.43	1772.11
1018.59	1715.17
1018.76	1981.82
1018.92	2197.68
1019.08	1611.34
1019.24	1665.61
1019.40	2046.13
1019.57	1883.72
1019.73	1752.86
1019.89	1666.43
1020.05	1894.37
1020.21	2123.13
1020.38	1593.52
1020.54	1803.65
1020.70	1951.30
1020.86	1943.52
1021.02	1667.46
1021.18	1665.41
1021.35	1841.74
1021.51	1936.35
1021.67	1789.11
1021.83	1676.88
1021.99	1865.49
1022.15	1907.68
1022.32	1716.40
1022.48	1704.73
1022.64	2056.16
1022.80	2046.94
1022.96	1700.43
1023.12	1594.55
1023.29	2001.07
1023.45	1940.66
1023.61	1641.24
1023.77	1816.14
1023.93	1917.92
1024.09	1754.09
1024.25	1621.38
1024.42	1582.67
1024.58	1808.97
1024.74	1937.38
1024.90	1676.47
1025.06	1717.63
1025.22	1821.87
1025.38	2072.13
1025.54	1596.39
1025.71	1746.92
1025.87	1964.82
1026.03	1940.04
1026.19	1614.00
1026.35	1783.58
1026.51	1949.05
1026.67	1864.06
1026.83	1718.45
1026.99	1752.86
1027.16	1935.33
1027.32	1857.30
1027.48	1669.50
1027.64	1628.34
1027.80	1939.63
1027.96	1885.36
1028.12	1675.24
1028.28	1627.52
1028.44	1916.69
1028.60	2058.21
1028.77	1762.07
1028.93	1712.72
1029.09	1818.60
1029.25	1757.77
1029.41	1717.84
1029.57	1761.87
1029.73	1930.42
1029.89	2074.18
1030.05	1774.97
1030.21	1745.48
1030.37	2148.73
1030.53	1935.54
1030.69	1694.90
1030.85	1609.70
1031.02	1756.34
1031.18	1899.29
1031.34	1679.33
1031.50	1749.99
1031.66	1768.22
1031.82	2065.79
1031.98	1720.91
1032.14	1623.83
1032.30	1749.17
1032.46	1967.48
1032.62	1787.88
1032.78	1595.37
1032.94	1805.90
1033.10	1824.94
1033.26	1730.94
1033.42	1758.80
1033.58	2121.08
1033.74	1794.64
1033.90	1647.39
1034.06	1810.40
1034.22	2170.23
1034.38	2004.55
1034.54	1677.49
1034.70	1701.66
1034.86	2111.46
>>>>>End Processed Spectral Data<<<<<
