SpectraSuite Data File
++++++++++++++++++++++++++++++++++++
Date: Thu Mar 30 16:17:50 PDT 2017
User: UCSD _CER
Dark Spectrum Present: No
Reference Spectrum Present: No
Number of Sampled Component Spectra: 1
Spectrometers: USB4C00073
Integration Time (usec): 250000 (USB4C00073)
Spectra Averaged: 10 (USB4C00073)
Boxcar Smoothing: 0 (USB4C00073)
Correct for Electrical Dark: No (USB4C00073)
Strobe/Lamp Enabled: No (USB4C00073)
Correct for Detector Non-linearity: No (USB4C00073)
Correct for Stray Light: No (USB4C00073)
Number of Pixels in Processed Spectrum: 3648
>>>>>Begin Processed Spectral Data<<<<<
345.37	1263.39
345.58	1263.39
345.80	1263.39
346.01	1274.45
346.22	1279.37
346.43	1978.54
346.65	1777.02
346.86	2140.54
347.07	2112.27
347.28	1807.13
347.50	1768.01
347.71	1937.58
347.92	1737.29
348.13	1798.32
348.35	1731.76
348.56	1930.82
348.77	1779.07
348.98	1823.10
349.20	1666.23
349.41	1903.18
349.62	1967.89
349.83	1862.63
350.05	1719.27
350.26	1951.10
350.47	2087.29
350.68	1742.00
350.90	1725.41
351.11	2083.40
351.32	2054.32
351.53	1827.81
351.75	1715.79
351.96	1919.36
352.17	1874.92
352.38	1858.12
352.60	1864.68
352.81	1914.85
353.02	2122.31
353.23	1757.36
353.44	1777.02
353.66	1817.98
353.87	1868.77
354.08	1869.59
354.29	1830.47
354.51	1827.40
354.72	1871.84
354.93	1737.09
355.14	1658.45
355.35	1691.01
355.57	1983.87
355.78	1783.58
355.99	1835.39
356.20	1908.30
356.42	1875.73
356.63	1885.97
356.84	1821.26
357.05	1964.82
357.26	2175.35
357.48	1878.81
357.69	1826.58
357.90	1961.34
358.11	1858.53
358.32	1807.33
358.54	1824.94
358.75	1866.93
358.96	1984.07
359.17	1779.68
359.38	1793.82
359.60	1977.11
359.81	1883.72
360.02	1785.21
360.23	1731.35
360.44	1787.67
360.66	2024.01
360.87	1758.18
361.08	1735.24
361.29	1951.71
361.50	1897.24
361.72	1776.41
361.93	1831.29
362.14	1923.04
362.35	1715.99
362.56	1879.63
362.77	1702.89
362.99	1948.03
363.20	1893.55
363.41	1867.13
363.62	1698.38
363.83	1972.60
364.05	2012.95
364.26	1697.97
364.47	1740.16
364.68	2033.43
364.89	1808.15
365.10	1709.85
365.32	1808.15
365.53	1824.74
365.74	1829.04
365.95	1819.42
366.16	1682.61
366.37	1915.47
366.59	1859.15
366.80	1800.37
367.01	1667.87
367.22	2154.67
367.43	2295.98
367.64	1797.30
367.86	1794.43
368.07	1964.00
368.28	2069.27
368.49	1736.27
368.70	1839.49
368.91	1865.90
369.12	1888.84
369.34	1706.57
369.55	1713.54
369.76	1896.21
369.97	1857.30
370.18	1721.73
370.39	1744.25
370.60	1719.88
370.82	1780.71
371.03	1794.02
371.24	1737.70
371.45	1984.28
371.66	1968.51
371.87	1803.03
372.08	1768.42
372.30	1768.01
372.51	2002.50
372.72	1875.94
372.93	1745.89
373.14	2081.97
373.35	1804.06
373.56	1739.75
373.78	1797.30
373.99	2015.20
374.20	2273.65
374.41	1801.19
374.62	1813.27
374.83	2069.88
375.04	1856.28
375.25	1808.56
375.47	1731.15
375.68	1852.80
375.89	1999.64
376.10	1794.84
376.31	1874.10
376.52	1994.52
376.73	1955.61
376.94	1826.99
377.15	1769.65
377.37	1877.17
377.58	1855.66
377.79	1663.57
378.00	1712.92
378.21	1923.66
378.42	1984.28
378.63	1823.72
378.84	1876.96
379.05	1992.67
379.27	1914.03
379.48	1894.17
379.69	1741.18
379.90	2047.76
380.11	1665.20
380.32	1780.71
380.53	1898.26
380.74	2068.65
380.95	1904.82
381.16	1797.71
381.37	1798.73
381.59	2055.34
381.80	2016.84
382.01	1751.63
382.22	1670.12
382.43	1966.87
382.64	1890.48
382.85	1726.64
383.06	1848.29
383.27	1983.87
383.48	1842.97
383.69	1806.72
383.91	1725.82
384.12	1962.16
384.33	1951.71
384.54	1807.33
384.75	1683.84
384.96	2254.40
385.17	1971.99
385.38	1764.53
385.59	1774.36
385.80	1974.04
386.01	2079.30
386.22	1874.71
386.43	1813.27
386.64	2176.79
386.86	1880.65
387.07	1901.74
387.28	1714.35
387.49	1828.63
387.70	2048.58
387.91	1841.12
388.12	1751.01
388.33	1953.97
388.54	1820.23
388.75	1772.31
388.96	1823.51
389.17	1827.61
389.38	1874.71
389.59	1830.47
389.80	1802.01
390.01	1891.30
390.22	1855.05
390.43	1920.38
390.64	1668.07
390.86	1928.57
391.07	2053.29
391.28	1779.68
391.49	1831.91
391.70	1747.74
391.91	1797.09
392.12	1791.36
392.33	1776.41
392.54	1897.65
392.75	1853.82
392.96	1860.17
393.17	1746.92
393.38	2174.33
393.59	2052.68
393.80	1718.66
394.01	1784.80
394.22	1882.08
394.43	2119.44
394.64	1757.98
394.85	1901.95
395.06	1877.37
395.27	1952.74
395.48	1800.57
395.69	1748.15
395.90	1852.39
396.11	1881.06
396.32	1755.93
396.53	1881.88
396.74	1853.00
396.95	2046.54
397.16	1760.84
397.37	1687.53
397.58	2015.61
397.79	1910.75
398.00	1849.52
398.21	1772.11
398.42	1926.52
398.63	2163.88
398.84	1773.13
399.05	1799.14
399.26	2057.59
399.47	1974.24
399.68	1612.16
399.89	1740.36
400.10	1761.46
400.31	1860.58
400.52	1832.32
400.73	1756.75
400.94	1712.10
401.15	1948.23
401.36	1783.99
401.57	1828.63
401.78	2030.97
401.99	1996.77
402.20	1728.69
402.41	1921.81
402.62	2082.17
402.83	1849.32
403.04	1751.83
403.25	1916.49
403.46	1935.13
403.67	2041.01
403.88	1781.12
404.09	1782.76
404.30	1806.10
404.51	1785.21
404.72	1717.84
404.93	1874.71
405.14	1776.61
405.35	1874.71
405.56	1783.37
405.77	1765.76
405.98	1899.90
406.19	1901.74
406.40	1755.72
406.61	1773.54
406.82	1812.86
407.03	2199.31
407.24	1706.57
407.45	1825.56
407.66	1895.19
407.87	1984.07
408.08	1849.11
408.29	1865.49
408.49	1973.63
408.70	1884.75
408.91	1812.66
409.12	1870.21
409.33	1772.93
409.54	2050.22
409.75	1765.35
409.96	1776.00
410.17	2004.96
410.38	1884.54
410.59	1779.89
410.80	1902.15
411.01	1868.98
411.22	1859.15
411.43	1845.42
411.64	1766.17
411.85	1804.67
412.06	1792.38
412.27	1643.70
412.47	1776.41
412.68	1907.68
412.89	1959.70
413.10	1764.53
413.31	1681.18
413.52	2150.78
413.73	2144.63
413.94	1738.93
414.15	1910.35
414.36	1830.27
414.57	1793.00
414.78	1692.65
414.99	1740.16
415.19	1992.47
415.40	1957.45
415.61	1984.69
415.82	1853.00
416.03	2025.24
416.24	1991.24
416.45	1790.33
416.66	1746.92
416.87	1737.91
417.08	1994.11
417.29	1750.60
417.50	1822.28
417.70	1970.76
417.91	1937.99
418.12	1808.97
418.33	1817.57
418.54	1957.04
418.75	2079.30
418.96	2010.49
419.17	1902.56
419.38	2169.82
419.59	2088.52
419.79	1949.46
420.00	1888.23
420.21	2319.53
420.42	1944.34
420.63	1807.13
420.84	1890.89
421.05	1900.31
421.26	1916.08
421.47	1756.13
421.67	2056.98
421.88	1806.92
422.09	1736.68
422.30	1928.78
422.51	1819.62
422.72	2067.42
422.93	1992.06
423.14	1799.96
423.35	1680.77
423.55	1694.49
423.76	1811.43
423.97	1796.89
424.18	1684.25
424.39	1868.16
424.60	1995.95
424.81	1806.31
425.02	1927.14
425.22	1916.28
425.43	1916.90
425.64	2031.99
425.85	1873.69
426.06	2207.92
426.27	2042.03
426.48	1917.51
426.68	1880.44
426.89	2014.38
427.10	2157.54
427.31	1825.76
427.52	1767.19
427.73	1972.40
427.94	1913.62
428.14	1865.49
428.35	1784.19
428.56	2059.44
428.77	2009.26
428.98	1858.74
429.19	1833.55
429.40	1854.44
429.60	1890.48
429.81	1917.51
430.02	1852.80
430.23	1902.15
430.44	1979.98
430.65	1762.07
430.85	1830.88
431.06	1966.46
431.27	1715.17
431.48	1798.94
431.69	1848.91
431.90	1888.23
432.10	1899.70
432.31	1844.40
432.52	1727.87
432.73	2171.26
432.94	2069.68
433.15	1925.09
433.35	1787.67
433.56	2056.57
433.77	1887.82
433.98	1926.52
434.19	1788.49
434.40	1909.12
434.60	1891.30
434.81	1800.57
435.02	1864.68
435.23	1893.14
435.44	1802.01
435.64	1677.08
435.85	1742.21
436.06	1850.54
436.27	1822.49
436.48	1694.49
436.68	1759.41
436.89	2105.72
437.10	1984.69
437.31	1798.12
437.52	1869.80
437.73	1914.24
437.93	1910.75
438.14	1850.95
438.35	1709.85
438.56	1830.68
438.77	1856.28
438.97	1931.03
439.18	1717.43
439.39	1993.49
439.60	1723.57
439.80	1682.82
440.01	1786.85
440.22	1814.30
440.43	1966.25
440.64	1697.15
440.84	1848.91
441.05	1769.04
441.26	2239.66
441.47	1828.22
441.68	1759.61
441.88	1856.69
442.09	1820.23
442.30	1954.79
442.51	1809.79
442.71	1850.75
442.92	1909.73
443.13	1762.89
443.34	1711.28
443.55	1754.29
443.75	1970.76
443.96	1736.06
444.17	1741.39
444.38	2040.60
444.58	1772.72
444.79	1841.53
445.00	1842.35
445.21	1870.41
445.41	1873.69
445.62	1610.73
445.83	1872.46
446.04	1932.46
446.24	1743.03
446.45	1650.25
446.66	1753.27
446.87	1923.66
447.07	1836.00
447.28	1993.70
447.49	1819.21
447.70	2025.65
447.90	2032.40
448.11	1797.30
448.32	1867.75
448.53	2071.93
448.73	2050.02
448.94	1778.05
449.15	1923.25
449.36	1907.68
449.56	1948.44
449.77	1786.85
449.98	1694.08
450.19	1872.25
450.39	1860.58
450.60	1861.60
450.81	1851.16
451.02	1924.48
451.22	2110.02
451.43	1782.14
451.64	1783.78
451.84	1848.91
452.05	2054.11
452.26	1831.70
452.47	1838.05
452.67	1836.41
452.88	2061.69
453.09	1771.49
453.30	1725.62
453.50	1994.52
453.71	2085.86
453.92	1777.84
454.12	1854.23
454.33	1809.18
454.54	1870.41
454.75	1719.27
454.95	1721.93
455.16	1916.49
455.37	1943.11
455.57	1795.25
455.78	1799.55
455.99	1881.26
456.19	1909.12
456.40	1764.94
456.61	1818.19
456.82	1887.61
457.02	1990.42
457.23	1874.30
457.44	1967.28
457.64	1817.37
457.85	1911.98
458.06	1775.18
458.26	1866.93
458.47	1862.42
458.68	1968.92
458.89	1705.75
459.09	1896.21
459.30	2160.20
459.51	1912.60
459.71	1685.68
459.92	1771.49
460.13	1984.28
460.33	2173.92
460.54	1801.39
460.75	1780.50
460.95	1776.20
461.16	1958.68
461.37	1790.13
461.57	1824.74
461.78	1883.52
461.99	1750.40
462.19	2008.24
462.40	1763.71
462.61	2340.83
462.81	2011.11
463.02	1733.61
463.23	1780.71
463.43	1969.12
463.64	1830.88
463.85	2710.28
464.05	1769.85
464.26	2295.77
464.47	2036.91
464.67	1951.51
464.88	1834.98
465.09	1771.90
465.29	1877.58
465.50	1892.73
465.71	1793.61
465.91	1814.91
466.12	1856.89
466.33	1853.21
466.53	1785.42
466.74	2070.91
466.94	1844.20
467.15	1801.19
467.36	1977.31
467.56	1789.31
467.77	1926.11
467.98	1830.88
468.18	1785.62
468.39	1853.62
468.60	2127.84
468.80	1833.34
469.01	1750.40
469.21	1950.28
469.42	2006.19
469.63	1812.25
469.83	1711.08
470.04	1980.80
470.25	2069.27
470.45	1855.25
470.66	1762.48
470.86	1935.74
471.07	1840.51
471.28	1879.63
471.48	1921.81
471.69	1913.01
471.90	2343.90
472.10	1795.66
472.31	1827.81
472.51	1786.03
472.72	1782.55
472.93	1730.12
473.13	1925.09
473.34	1925.91
473.54	1879.22
473.75	1821.46
473.96	1971.99
474.16	1876.76
474.37	1970.97
474.57	1824.74
474.78	1757.16
474.99	1942.91
475.19	1907.48
475.40	1778.87
475.60	1709.64
475.81	2079.51
476.02	1830.88
476.22	1820.44
476.43	1918.74
476.63	1849.52
476.84	2011.72
477.05	1706.57
477.25	1787.88
477.46	2251.13
477.66	1909.53
477.87	1677.90
478.08	1779.07
478.28	1997.59
478.49	1881.06
478.69	1763.92
478.90	1812.45
479.10	1975.06
479.31	2119.03
479.52	1860.37
479.72	1900.92
479.93	1949.87
480.13	1832.52
480.34	1761.66
480.54	1878.81
480.75	1778.87
480.96	2051.25
481.16	1741.39
481.37	1894.78
481.57	1978.34
481.78	1950.90
481.98	1978.13
482.19	1830.27
482.40	2112.48
482.60	1990.83
482.81	1875.73
483.01	1764.53
483.22	2006.39
483.42	1989.19
483.63	1895.60
483.83	1847.47
484.04	1843.79
484.24	1967.48
484.45	1863.24
484.66	1722.14
484.86	1935.54
485.07	1817.78
485.27	1839.90
485.48	1772.72
485.68	2058.82
485.89	1806.31
486.09	1869.18
486.30	1772.72
486.50	1905.43
486.71	1887.41
486.91	1803.65
487.12	1870.82
487.33	2101.83
487.53	2095.69
487.74	1849.73
487.94	1829.04
488.15	1882.49
488.35	1950.28
488.56	1794.02
488.76	1779.07
488.97	1876.55
489.17	1954.99
489.38	1821.26
489.58	1800.57
489.79	1939.63
489.99	1917.51
490.20	1835.59
490.40	1888.23
490.61	1935.94
490.81	1844.81
491.02	1820.64
491.22	1863.86
491.43	1982.23
491.63	1894.99
491.84	1926.32
492.04	1716.81
492.25	1960.32
492.45	1854.03
492.66	1795.04
492.86	1730.33
493.07	1861.81
493.27	2152.01
493.48	1682.61
493.68	1820.85
493.89	1862.22
494.09	1981.41
494.30	1783.78
494.50	2054.32
494.71	1965.64
494.91	1722.14
495.12	1805.28
495.32	1887.20
495.53	1884.75
495.73	1691.01
495.94	1786.85
496.14	1689.37
496.35	2118.42
496.55	1830.68
496.76	1798.12
496.96	1872.87
497.17	1877.17
497.37	1936.76
497.58	1769.85
497.78	1736.47
497.98	1854.85
498.19	1854.44
498.39	1839.49
498.60	1862.01
498.80	1683.84
499.01	1963.39
499.21	1762.89
499.42	1837.64
499.62	1847.88
499.83	2165.93
500.03	1702.27
500.24	1891.50
500.44	2064.76
500.64	2030.97
500.85	1829.86
501.05	1915.67
501.26	1708.83
501.46	2053.50
501.67	1764.12
501.87	1724.59
502.08	1780.71
502.28	1871.84
502.48	1913.01
502.69	1908.30
502.89	1710.46
503.10	1814.30
503.30	1852.18
503.51	1853.41
503.71	1755.31
503.92	1984.89
504.12	1888.43
504.32	1814.71
504.53	1952.33
504.73	1964.00
504.94	1942.50
505.14	1993.08
505.35	1975.88
505.55	1947.00
505.75	1869.59
505.96	1943.93
506.16	2139.51
506.37	1806.92
506.57	1756.54
506.78	1884.13
506.98	1988.37
507.18	1730.53
507.39	1716.20
507.59	1796.07
507.80	1774.16
508.00	1884.75
508.20	1935.33
508.41	1833.14
508.61	2030.15
508.82	1989.81
509.02	1915.47
509.22	1721.32
509.43	1751.42
509.63	1800.98
509.84	1819.62
510.04	1734.63
510.24	2042.44
510.45	2006.39
510.65	1743.03
510.86	1837.85
511.06	1759.21
511.26	1979.77
511.47	1924.48
511.67	1751.42
511.88	1958.27
512.08	2022.16
512.28	1729.30
512.49	1895.19
512.69	1898.26
512.90	1914.03
513.10	1752.45
513.30	1844.40
513.51	1924.48
513.71	2064.35
513.91	1867.54
514.12	1863.45
514.32	1955.81
514.53	1789.31
514.73	1882.49
514.93	1809.38
515.14	1886.18
515.34	2054.32
515.54	1839.49
515.75	1887.00
515.95	1976.49
516.15	2041.01
516.36	1889.05
516.56	1907.68
516.77	1656.60
516.97	1968.30
517.17	1814.30
517.38	1908.09
517.58	2084.83
517.78	1843.79
517.99	1902.77
518.19	1880.85
518.39	2072.95
518.60	1874.71
518.80	1785.21
519.00	1948.44
519.21	1867.75
519.41	2112.89
519.61	1797.09
519.82	1921.20
520.02	1905.43
520.22	1900.92
520.43	1845.02
520.63	1835.39
520.83	1807.54
521.04	1678.52
521.24	1902.56
521.44	1828.02
521.65	1840.51
521.85	1991.04
522.05	1810.20
522.26	1815.11
522.46	2155.28
522.66	2008.24
522.87	1827.40
523.07	1955.20
523.27	1853.41
523.48	2068.65
523.68	1887.61
523.88	1861.40
524.09	2041.01
524.29	1950.49
524.49	1698.18
524.70	1941.68
524.90	2093.02
525.10	1988.58
525.31	1745.07
525.51	1767.19
525.71	1998.61
525.91	1972.19
526.12	1782.55
526.32	1733.81
526.52	1844.81
526.73	1821.26
526.93	1876.35
527.13	1699.81
527.34	1898.67
527.54	1891.50
527.74	1802.62
527.94	1740.36
528.15	1764.33
528.35	1908.71
528.55	1936.56
528.76	1929.80
528.96	1689.37
529.16	2011.51
529.36	1990.42
529.57	1756.34
529.77	2054.11
529.97	1768.83
530.18	1921.61
530.38	1814.71
530.58	1950.69
530.78	1931.23
530.99	1796.68
531.19	1945.16
531.39	1811.63
531.60	1895.19
531.80	1829.25
532.00	1956.63
532.20	1934.10
532.41	1787.06
532.61	1810.20
532.81	1836.21
533.01	1858.53
533.22	1925.91
533.42	1949.46
533.62	1670.53
533.82	2080.33
534.03	1882.90
534.23	1893.35
534.43	1772.11
534.63	1812.66
534.84	1912.19
535.04	1887.00
535.24	1856.28
535.44	2226.14
535.65	1853.21
535.85	1779.68
536.05	1809.18
536.25	1870.61
536.46	1764.12
536.66	1995.95
536.86	1879.01
537.06	1978.54
537.27	2045.51
537.47	1898.06
537.67	1833.75
537.87	2075.00
538.08	1865.29
538.28	1761.25
538.48	1748.97
538.68	1876.76
538.88	1985.51
539.09	1708.83
539.29	1847.27
539.49	2023.19
539.69	1942.91
539.90	1927.34
540.10	1795.45
540.30	2074.39
540.50	1843.17
540.70	1732.38
540.91	1830.27
541.11	1983.25
541.31	2107.77
541.51	1896.21
541.72	1929.60
541.92	1941.88
542.12	1813.89
542.32	1841.74
542.52	1793.00
542.73	1806.10
542.93	1956.42
543.13	1833.75
543.33	1895.40
543.53	1994.11
543.74	1970.15
543.94	1808.77
544.14	1944.75
544.34	2068.86
544.54	1892.94
544.75	1968.71
544.95	2070.29
545.15	1996.36
545.35	2069.06
545.55	1959.91
545.75	1827.20
545.96	2200.75
546.16	1795.25
546.36	1849.52
546.56	1859.97
546.76	2023.39
546.97	2080.74
547.17	1843.17
547.37	1924.07
547.57	1835.59
547.77	1987.35
547.97	1908.09
548.18	1923.25
548.38	1877.78
548.58	2064.56
548.78	1794.64
548.98	1912.39
549.18	2044.49
549.39	2134.19
549.59	1961.34
549.79	1898.67
549.99	2082.17
550.19	2021.75
550.39	1973.01
550.60	1862.63
550.80	1943.32
551.00	1952.74
551.20	1803.44
551.40	1819.83
551.60	1957.86
551.80	1944.75
552.01	1970.15
552.21	1844.40
552.41	1889.25
552.61	2110.02
552.81	1902.15
553.01	1794.64
553.21	1954.79
553.42	1780.09
553.62	1775.38
553.82	1791.56
554.02	2072.54
554.22	1994.11
554.42	1767.81
554.62	1927.96
554.83	2074.18
555.03	2065.58
555.23	1875.94
555.43	2132.35
555.63	1994.11
555.83	1963.59
556.03	1897.65
556.23	1750.81
556.44	1942.29
556.64	2060.46
556.84	1647.80
557.04	1873.07
557.24	1959.29
557.44	1909.94
557.64	1889.25
557.84	1783.37
558.04	1865.70
558.25	1991.04
558.45	1801.19
558.65	1865.90
558.85	1893.14
559.05	1717.02
559.25	1836.82
559.45	1946.59
559.65	2188.87
559.85	2559.96
560.05	1892.53
560.26	1927.96
560.46	1944.75
560.66	1883.52
560.86	1857.51
561.06	1797.50
561.26	2066.40
561.46	1956.63
561.66	1841.74
561.86	1945.78
562.06	1820.44
562.26	1862.01
562.47	1908.30
562.67	1774.56
562.87	1982.64
563.07	1721.93
563.27	1893.14
563.47	1876.55
563.67	1834.57
563.87	1980.18
564.07	1826.38
564.27	1878.19
564.47	1883.11
564.67	1940.45
564.87	1791.15
565.08	1921.61
565.28	1829.66
565.48	1953.35
565.68	1927.96
565.88	1956.22
566.08	2187.85
566.28	1882.90
566.48	1749.78
566.68	1866.93
566.88	1836.00
567.08	2011.11
567.28	1859.56
567.48	1849.73
567.68	1927.55
567.88	1734.22
568.08	1900.72
568.28	2006.80
568.48	1894.58
568.68	2042.03
568.89	1901.74
569.09	1730.74
569.29	2008.44
569.49	2000.05
569.69	1795.45
569.89	1755.93
570.09	1681.79
570.29	1780.30
570.49	1713.95
570.69	1768.22
570.89	1973.63
571.09	2175.35
571.29	1725.00
571.49	1995.75
571.69	1949.26
571.89	1942.09
572.09	1841.53
572.29	1805.49
572.49	1965.44
572.69	1979.57
572.89	1851.77
573.09	1640.42
573.29	1887.61
573.49	1922.63
573.69	1864.68
573.89	1942.09
574.09	1863.65
574.29	2021.35
574.49	1815.11
574.69	1809.79
574.89	1760.23
575.09	1763.71
575.29	1753.06
575.49	1876.76
575.69	1949.87
575.89	1756.13
576.09	1877.58
576.29	1881.47
576.49	1761.25
576.69	1880.24
576.89	1811.02
577.09	1883.52
577.29	1712.72
577.49	2095.48
577.69	1769.04
577.89	1915.06
578.09	1920.38
578.29	1712.51
578.49	1849.11
578.69	1794.43
578.89	2037.11
579.09	1898.47
579.29	1746.92
579.49	1977.52
579.69	1830.47
579.89	2125.79
580.09	1666.02
580.29	1692.03
580.49	1820.23
580.69	1772.11
580.89	1845.63
581.09	1849.11
581.29	1838.87
581.49	1860.17
581.69	1779.07
581.89	1780.50
582.09	1793.41
582.28	1809.59
582.48	1937.38
582.68	2014.38
582.88	2071.73
583.08	1868.57
583.28	1855.25
583.48	1864.68
583.68	1800.37
583.88	1881.88
584.08	1880.24
584.28	1871.02
584.48	2150.98
584.68	1971.58
584.88	1847.06
585.08	1976.70
585.28	2002.71
585.48	2057.18
585.68	1939.63
585.87	1977.52
586.07	1937.17
586.27	1900.92
586.47	1949.87
586.67	1874.71
586.87	1898.67
587.07	1840.71
587.27	1748.56
587.47	1887.41
587.67	2117.60
587.87	2210.17
588.07	1967.07
588.27	1879.63
588.46	2038.96
588.66	2052.27
588.86	1889.46
589.06	1927.96
589.26	2019.30
589.46	1981.00
589.66	1770.47
589.86	1784.19
590.06	1861.40
590.26	1941.68
590.46	1844.81
590.66	1971.99
590.85	1859.97
591.05	1950.49
591.25	1807.95
591.45	1855.66
591.65	1968.10
591.85	1921.40
592.05	1830.27
592.25	1971.58
592.45	2023.80
592.64	1883.11
592.84	1879.63
593.04	1803.24
593.24	2227.37
593.44	1857.92
593.64	1926.52
593.84	1974.86
594.04	1867.54
594.24	2087.49
594.43	1798.12
594.63	1884.54
594.83	2012.74
595.03	1975.47
595.23	1822.49
595.43	1721.11
595.63	1785.42
595.83	2001.68
596.02	1678.11
596.22	1904.82
596.42	1932.46
596.62	1884.13
596.82	1818.19
597.02	1954.79
597.22	2066.81
597.41	1901.95
597.61	1787.26
597.81	1950.90
598.01	1969.94
598.21	1838.26
598.41	1807.13
598.61	1766.78
598.80	1866.72
599.00	1929.80
599.20	1981.00
599.40	1839.28
599.60	1865.49
599.80	1986.32
599.99	2035.07
600.19	1866.31
600.39	1891.30
600.59	1959.91
600.79	1921.61
600.99	1904.41
601.19	2095.28
601.38	2142.38
601.58	1930.42
601.78	1651.69
601.98	1957.04
602.18	1972.19
602.37	2180.68
602.57	2021.35
602.77	2124.77
602.97	2077.87
603.17	2139.51
603.37	2059.44
603.56	2158.76
603.76	2133.16
603.96	2029.13
604.16	2061.08
604.36	2141.36
604.56	2068.04
604.75	1822.28
604.95	1914.44
605.15	2090.57
605.35	2051.45
605.55	1855.66
605.74	1812.86
605.94	2055.34
606.14	1948.64
606.34	1945.78
606.54	1902.77
606.73	1833.34
606.93	1987.55
607.13	1831.91
607.33	1901.13
607.53	2093.02
607.72	2042.23
607.92	1947.41
608.12	1983.87
608.32	1915.06
608.51	1994.72
608.71	1804.06
608.91	1913.21
609.11	1993.29
609.31	1863.86
609.50	1941.06
609.70	2075.82
609.90	2061.28
610.10	2024.42
610.29	1900.31
610.49	1796.48
610.69	1991.65
610.89	1905.02
611.09	1899.90
611.28	2014.38
611.48	2037.73
611.68	1885.36
611.88	1809.79
612.07	1790.54
612.27	2002.30
612.47	1800.57
612.67	1900.72
612.86	2028.92
613.06	1881.26
613.26	1705.75
613.46	1871.43
613.65	1905.43
613.85	2250.92
614.05	1991.04
614.25	1958.47
614.44	1859.56
614.64	1911.37
614.84	1838.46
615.04	1805.90
615.23	1844.40
615.43	1977.72
615.63	1974.45
615.83	1793.82
616.02	1722.96
616.22	2000.25
616.42	1755.11
616.62	1762.07
616.81	1861.60
617.01	1980.18
617.21	1906.25
617.41	1767.81
617.60	1879.83
617.80	1953.35
618.00	1983.87
618.19	1929.60
618.39	1933.28
618.59	1958.47
618.79	1885.16
618.98	1701.45
619.18	1850.34
619.38	2170.03
619.57	1873.69
619.77	1885.97
619.97	1875.73
620.17	1822.69
620.36	1749.99
620.56	1988.78
620.76	1754.09
620.95	1763.10
621.15	1850.95
621.35	1787.47
621.54	1834.57
621.74	1925.30
621.94	1833.34
622.14	1764.33
622.33	1738.52
622.53	1868.57
622.73	1859.76
622.92	1697.36
623.12	1886.79
623.32	2105.72
623.51	1994.93
623.71	1725.62
623.91	1983.66
624.10	1742.82
624.30	1870.41
624.50	1754.70
624.69	1747.33
624.89	2375.23
625.09	1809.38
625.29	1645.34
625.48	1753.68
625.68	1885.56
625.88	2021.96
626.07	1902.97
626.27	1779.28
626.47	1848.29
626.66	1692.24
626.86	1834.16
627.06	1845.22
627.25	1881.47
627.45	2092.20
627.64	1862.83
627.84	2040.80
628.04	1798.12
628.23	2145.66
628.43	1743.03
628.63	1800.98
628.82	1822.90
629.02	2138.28
629.22	1949.46
629.41	2038.14
629.61	1876.35
629.81	2147.09
630.00	1793.20
630.20	1750.40
630.40	1920.38
630.59	1967.48
630.79	1853.62
630.98	1850.54
631.18	1859.15
631.38	1881.67
631.57	1993.49
631.77	1719.06
631.97	1910.35
632.16	1943.93
632.36	1877.78
632.56	1917.51
632.75	1925.50
632.95	1988.17
633.14	1720.91
633.34	2040.39
633.54	1692.44
633.73	1820.03
633.93	1841.33
634.12	1696.13
634.32	2225.94
634.52	1881.26
634.71	1745.07
634.91	1918.95
635.11	1754.90
635.30	1779.89
635.50	1906.25
635.69	1775.59
635.89	2113.91
636.09	2004.35
636.28	1762.28
636.48	1760.43
636.67	1946.39
636.87	1946.39
637.07	1930.21
637.26	1814.71
637.46	1917.10
637.65	2012.54
637.85	1871.43
638.04	1791.77
638.24	1807.74
638.44	1936.56
638.63	1887.00
638.83	1826.17
639.02	1932.46
639.22	1982.23
639.42	1844.40
639.61	1858.12
639.81	1912.80
640.00	1874.92
640.20	1942.29
640.39	1924.27
640.59	2141.15
640.79	2012.95
640.98	1940.86
641.18	1873.07
641.37	1893.96
641.57	1833.96
641.76	1872.05
641.96	1700.22
642.15	1889.05
642.35	1844.20
642.55	1879.42
642.74	1760.02
642.94	1985.71
643.13	2037.73
643.33	1842.15
643.52	1797.30
643.72	1820.85
643.91	1892.73
644.11	1811.02
644.31	1790.54
644.50	1789.52
644.70	2059.23
644.89	1850.54
645.09	1910.96
645.28	1893.14
645.48	1965.03
645.67	1765.55
645.87	1694.90
646.06	1841.33
646.26	1925.09
646.45	1656.81
646.65	1644.72
646.84	2123.13
647.04	1855.25
647.24	1736.27
647.43	1893.35
647.63	1904.41
647.82	2071.52
648.02	1736.68
648.21	1774.77
648.41	2059.23
648.60	1840.10
648.80	1960.93
648.99	1881.88
649.19	1783.99
649.38	1666.02
649.58	1860.37
649.77	1901.74
649.97	2034.25
650.16	1939.63
650.36	1631.00
650.55	1956.22
650.75	1915.67
650.94	2075.62
651.14	1873.48
651.33	1913.83
651.53	2083.40
651.72	1835.39
651.92	1868.57
652.11	1676.26
652.31	1946.18
652.50	1921.81
652.70	1888.84
652.89	1730.33
653.09	2064.76
653.28	1819.62
653.48	1694.90
653.67	1691.62
653.87	2272.22
654.06	1875.73
654.25	2023.39
654.45	1797.30
654.64	1831.50
654.84	1859.15
655.03	1651.07
655.23	1958.06
655.42	1967.89
655.62	2090.16
655.81	1894.78
656.01	1742.21
656.20	1987.76
656.40	2090.98
656.59	1875.12
656.79	1989.19
656.98	1879.22
657.17	2017.66
657.37	1867.54
657.56	1797.50
657.76	1935.33
657.95	2016.02
658.15	1558.71
658.34	1873.07
658.54	1882.08
658.73	1762.48
658.92	1801.39
659.12	1852.80
659.31	1973.42
659.51	1761.05
659.70	1925.91
659.90	1820.03
660.09	1998.61
660.29	1873.28
660.48	1776.61
660.67	2037.11
660.87	1829.45
661.06	1926.73
661.26	1959.50
661.45	1943.93
661.65	1923.66
661.84	1815.73
662.03	1795.25
662.23	1828.43
662.42	2150.16
662.62	1742.21
662.81	1742.62
663.00	1818.19
663.20	1904.82
663.39	1912.39
663.59	1950.90
663.78	1805.69
663.97	1826.17
664.17	1995.95
664.36	1711.49
664.56	1785.21
664.75	1968.30
664.94	1941.88
665.14	1873.28
665.33	1793.41
665.53	1888.84
665.72	1854.64
665.91	1932.26
666.11	1861.60
666.30	1877.37
666.50	1831.29
666.69	1892.53
666.88	1818.60
667.08	1918.54
667.27	1854.44
667.47	1866.93
667.66	1821.46
667.85	1975.88
668.05	1885.36
668.24	1785.01
668.43	1991.24
668.63	1821.26
668.82	1999.23
669.02	1918.33
669.21	1846.24
669.40	1749.58
669.60	2113.50
669.79	1720.50
669.98	2329.56
670.18	1779.28
670.37	1748.56
670.56	1817.98
670.76	1902.77
670.95	1876.35
671.15	1982.84
671.34	1923.25
671.53	1853.00
671.73	1832.73
671.92	1816.34
672.11	1708.21
672.31	1827.61
672.50	1927.55
672.69	1738.93
672.89	1624.45
673.08	1828.22
673.27	1959.70
673.47	1885.56
673.66	1919.97
673.85	1756.75
674.05	1910.35
674.24	1917.92
674.43	1810.20
674.63	2020.94
674.82	2272.22
675.01	1737.50
675.21	2038.96
675.40	1928.57
675.59	1863.04
675.79	2120.88
675.98	1871.43
676.17	1994.31
676.37	1963.80
676.56	1872.05
676.75	1900.92
676.95	1869.18
677.14	1849.11
677.33	2005.58
677.52	1742.21
677.72	1776.00
677.91	1933.90
678.10	1727.05
678.30	1767.60
678.49	1731.15
678.68	2151.80
678.88	1681.59
679.07	1983.46
679.26	1834.78
679.45	2102.85
679.65	2047.56
679.84	1673.60
680.03	1667.25
680.23	1829.25
680.42	2195.01
680.61	1751.42
680.81	1812.04
681.00	1874.10
681.19	1947.00
681.38	1951.30
681.58	1932.87
681.77	1814.71
681.96	1954.58
682.15	1808.15
682.35	1881.88
682.54	1918.33
682.73	1735.04
682.93	1772.31
683.12	1794.02
683.31	1953.97
683.50	2213.24
683.70	1762.28
683.89	1872.05
684.08	1761.05
684.27	2001.48
684.47	1703.91
684.66	1867.54
684.85	2120.26
685.04	2018.07
685.24	1790.33
685.43	1843.58
685.62	1658.24
685.81	1914.85
686.01	1874.51
686.20	1792.38
686.39	1754.90
686.58	2177.61
686.78	1967.69
686.97	1948.23
687.16	2033.22
687.35	1958.27
687.55	1843.58
687.74	1861.40
687.93	1773.13
688.12	1879.01
688.32	1880.04
688.51	1714.76
688.70	1926.32
688.89	1747.94
689.08	1712.31
689.28	1800.98
689.47	1898.06
689.66	1885.97
689.85	1933.28
690.05	1791.15
690.24	1792.18
690.43	1902.77
690.62	1890.89
690.81	1793.00
691.01	1869.39
691.20	1816.34
691.39	1773.95
691.58	1894.58
691.77	2125.18
691.97	1884.13
692.16	1923.04
692.35	1837.44
692.54	1805.90
692.73	1943.32
692.93	1861.81
693.12	1919.56
693.31	1941.47
693.50	1909.12
693.69	1966.66
693.89	1828.63
694.08	2058.21
694.27	2060.26
694.46	1797.71
694.65	1866.72
694.85	1934.51
695.04	1929.19
695.23	1822.69
695.42	2027.28
695.61	2104.08
695.80	2252.15
696.00	2364.18
696.19	2396.53
696.38	2087.29
696.57	2182.93
696.76	2167.37
696.95	2044.49
697.15	2205.87
697.34	2177.20
697.53	1932.46
697.72	1981.20
697.91	1933.49
698.10	2145.25
698.30	1866.93
698.49	1864.68
698.68	1944.96
698.87	1843.99
699.06	1757.16
699.25	1850.54
699.45	2004.35
699.64	1905.43
699.83	1984.07
700.02	1770.26
700.21	1928.98
700.40	1805.69
700.59	1856.28
700.79	1819.62
700.98	1944.96
701.17	1802.42
701.36	1774.56
701.55	1793.82
701.74	2004.96
701.93	1761.05
702.12	1873.69
702.32	1809.38
702.51	2023.19
702.70	2027.08
702.89	1931.85
703.08	1829.04
703.27	2054.93
703.46	1947.00
703.65	1860.17
703.85	1750.60
704.04	1816.14
704.23	2015.82
704.42	1755.11
704.61	1811.84
704.80	2087.29
704.99	1798.94
705.18	1911.16
705.37	1844.61
705.57	1969.33
705.76	2157.74
705.95	2029.33
706.14	2316.05
706.33	2404.93
706.52	2557.30
706.71	2174.12
706.90	2025.03
707.09	2112.27
707.28	2057.80
707.47	1894.37
707.67	2057.18
707.86	1868.36
708.05	2088.72
708.24	1916.08
708.43	1897.85
708.62	1874.10
708.81	1771.08
709.00	1756.75
709.19	1796.27
709.38	1995.75
709.57	1754.90
709.76	1907.68
709.96	1814.71
710.15	2061.69
710.34	1871.84
710.53	1979.36
710.72	1875.73
710.91	2046.13
711.10	1946.59
711.29	1944.55
711.48	1807.13
711.67	1734.63
711.86	1932.46
712.05	1736.27
712.24	1771.90
712.43	1992.67
712.62	2041.01
712.81	1902.36
713.00	2004.55
713.19	1743.44
713.39	1947.62
713.58	1747.94
713.77	1857.10
713.96	1953.56
714.15	1858.94
714.34	1820.64
714.53	1708.01
714.72	2119.85
714.91	1786.44
715.10	1846.45
715.29	1728.69
715.48	2238.02
715.67	1949.46
715.86	1874.92
716.05	1852.39
716.24	1857.92
716.43	1821.26
716.62	1736.06
716.81	1774.77
717.00	1830.06
717.19	2079.10
717.38	1894.78
717.57	1843.17
717.76	1708.01
717.95	1997.59
718.14	1877.78
718.33	1811.02
718.52	1674.42
718.71	1702.68
718.90	1734.83
719.09	1828.63
719.28	1869.18
719.47	1991.44
719.66	1948.44
719.85	1930.42
720.04	1851.16
720.23	1905.84
720.42	1787.06
720.61	1921.20
720.80	1709.44
720.99	1890.68
721.18	1832.73
721.37	1784.19
721.56	1837.23
721.75	1973.22
721.94	1749.58
722.13	1844.81
722.32	1862.83
722.51	1934.51
722.70	1872.66
722.89	1940.66
723.08	1841.12
723.27	1983.25
723.46	1889.05
723.65	1827.81
723.84	1815.11
724.03	2048.17
724.22	1722.14
724.41	1892.73
724.60	1858.33
724.79	1997.18
724.98	1899.90
725.16	1823.31
725.35	1944.75
725.54	1761.25
725.73	1899.29
725.92	1868.16
726.11	1845.42
726.30	1968.10
726.49	1818.19
726.68	1921.20
726.87	1969.53
727.06	2081.56
727.25	1856.89
727.44	1975.06
727.63	1900.72
727.82	1843.79
728.01	1899.70
728.20	1946.39
728.38	2053.50
728.57	1867.75
728.76	1867.95
728.95	1957.86
729.14	1733.20
729.33	1747.33
729.52	1626.50
729.71	1787.47
729.90	1783.17
730.09	1841.74
730.28	1833.14
730.47	1800.16
730.66	2017.04
730.84	1894.99
731.03	1854.85
731.22	1909.53
731.41	1918.54
731.60	1923.66
731.79	1692.24
731.98	1786.03
732.17	1954.38
732.36	1916.90
732.55	1807.33
732.73	1742.82
732.92	2027.28
733.11	1907.89
733.30	1773.54
733.49	1728.28
733.68	1947.82
733.87	1888.64
734.06	1733.20
734.25	1760.02
734.43	1807.74
734.62	1965.44
734.81	1889.05
735.00	1835.39
735.19	1864.68
735.38	1944.96
735.57	1748.97
735.76	1907.48
735.94	1938.81
736.13	2202.18
736.32	2036.50
736.51	1970.76
736.70	2255.02
736.89	2247.24
737.08	2129.07
737.27	2233.51
737.45	2485.62
737.64	2416.60
737.83	2611.36
738.02	2567.13
738.21	2615.87
738.40	2529.45
738.59	2228.60
738.77	2289.63
738.96	2107.97
739.15	2162.45
739.34	2181.70
739.53	2086.06
739.72	2158.76
739.90	2112.07
740.09	1889.87
740.28	1937.99
740.47	2033.63
740.66	1976.70
740.85	1764.12
741.03	1876.35
741.22	1751.01
741.41	1834.37
741.60	1718.86
741.79	1876.76
741.98	2027.90
742.16	2147.91
742.35	1915.06
742.54	1851.16
742.73	2152.82
742.92	1843.79
743.10	1719.27
743.29	1787.47
743.48	2181.91
743.67	1804.47
743.86	1700.63
744.05	1765.55
744.23	1744.46
744.42	1798.12
744.61	1839.08
744.80	1750.19
744.99	1811.02
745.17	1675.44
745.36	1717.43
745.55	1882.08
745.74	1860.58
745.93	1785.21
746.11	1767.19
746.30	1745.69
746.49	2003.12
746.68	1744.87
746.86	1834.57
747.05	1811.63
747.24	1934.51
747.43	1955.81
747.62	1730.94
747.80	1790.33
747.99	2031.59
748.18	1990.42
748.37	1907.68
748.56	1912.80
748.74	1989.60
748.93	1922.22
749.12	2085.65
749.31	2636.96
749.49	3040.62
749.68	3364.20
749.87	3687.37
750.06	3638.63
750.24	3609.54
750.43	3481.75
750.62	3572.89
750.81	3630.84
750.99	3694.74
751.18	3695.15
751.37	3258.52
751.56	3101.65
751.74	3271.83
751.93	3237.63
752.12	2560.98
752.31	2432.58
752.49	2378.92
752.68	2477.02
752.87	2210.58
753.06	2058.21
753.24	2028.72
753.43	2166.34
753.62	1863.65
753.81	1867.54
753.99	2102.24
754.18	1949.87
754.37	1803.44
754.55	1898.88
754.74	2101.83
754.93	1685.48
755.12	1812.66
755.30	1763.92
755.49	1994.52
755.68	1891.09
755.86	1909.94
756.05	1742.41
756.24	2051.25
756.43	1718.25
756.61	1737.70
756.80	1898.06
756.99	2022.78
757.17	1847.06
757.36	1745.28
757.55	1833.75
757.74	1911.78
757.92	1859.15
758.11	1688.35
758.30	1654.96
758.48	1851.98
758.67	1727.26
758.86	1846.86
759.04	1706.16
759.23	1790.54
759.42	1848.91
759.60	1758.80
759.79	1853.41
759.98	1814.91
760.16	1760.02
760.35	1765.55
760.54	1692.03
760.73	1888.43
760.91	1692.65
761.10	1863.45
761.29	1856.48
761.47	1881.47
761.66	2145.25
761.85	1868.98
762.03	1971.99
762.22	2187.23
762.41	2761.89
762.59	3435.26
762.78	3736.52
762.97	4420.54
763.15	4503.89
763.34	4168.03
763.52	3497.11
763.71	3421.13
763.90	3374.03
764.08	3073.18
764.27	3039.80
764.46	3016.86
764.64	2707.62
764.83	2577.57
765.02	2484.19
765.20	2440.97
765.39	2321.37
765.58	2005.99
765.76	2052.88
765.95	2024.83
766.13	1939.22
766.32	1870.21
766.51	1879.83
766.69	2412.10
766.88	1919.15
767.07	1745.89
767.25	1665.61
767.44	1977.11
767.62	2030.36
767.81	1773.95
768.00	1836.00
768.18	1866.52
768.37	1786.44
768.56	1686.30
768.74	1763.51
768.93	1709.85
769.11	1915.87
769.30	1863.45
769.49	1778.66
769.67	1850.13
769.86	1823.51
770.04	1822.08
770.23	1812.45
770.42	2019.30
770.60	1876.55
770.79	1742.41
770.97	1789.52
771.16	2065.79
771.35	2094.66
771.53	2201.98
771.72	2275.70
771.90	2488.08
772.09	2726.87
772.27	2540.71
772.46	2223.68
772.65	2414.96
772.83	2301.10
773.02	2244.37
773.20	2074.18
773.39	2198.70
773.58	2145.25
773.76	1889.05
773.95	1985.51
774.13	2036.91
774.32	1915.87
774.50	1824.54
774.69	1903.38
774.87	1858.94
775.06	2155.69
775.25	1789.52
775.43	1837.23
775.62	1914.65
775.80	1942.70
775.99	1903.79
776.17	1739.75
776.36	1847.47
776.54	1980.80
776.73	1713.54
776.92	1824.33
777.10	1927.75
777.29	1885.56
777.47	1715.58
777.66	1772.72
777.84	1820.03
778.03	1836.41
778.21	1707.19
778.40	1815.73
778.58	1952.12
778.77	1990.22
778.95	1719.88
779.14	1765.96
779.32	2074.59
779.51	1992.06
779.70	1820.03
779.88	1716.61
780.07	1817.98
780.25	2183.34
780.44	1806.10
780.62	1976.49
780.81	1946.39
780.99	1900.92
781.18	1774.36
781.36	1811.63
781.55	1866.11
781.73	2048.38
781.92	1732.79
782.10	1710.46
782.29	1891.30
782.47	2068.24
782.66	1852.59
782.84	1694.90
783.03	1786.03
783.21	2011.31
783.40	1817.57
783.58	1810.61
783.77	1793.41
783.95	1851.16
784.14	1731.56
784.32	1852.18
784.51	2004.55
784.69	1779.68
784.88	1708.21
785.06	1825.97
785.24	1720.50
785.43	1978.75
785.61	1918.74
785.80	1755.11
785.98	1911.37
786.17	1874.71
786.35	1755.72
786.54	1894.17
786.72	1987.76
786.91	1999.02
787.09	1848.91
787.28	1750.60
787.46	1868.57
787.65	1978.54
787.83	1711.49
788.01	1864.47
788.20	1728.90
788.38	1854.03
788.57	1771.70
788.75	1810.40
788.94	2098.55
789.12	2028.51
789.31	1836.00
789.49	1956.63
789.67	1786.03
789.86	1909.94
790.04	1763.10
790.23	1679.95
790.41	2129.48
790.60	1810.40
790.78	1826.38
790.96	1814.50
791.15	1936.15
791.33	1830.68
791.52	1823.10
791.70	1761.66
791.89	1849.11
792.07	1963.18
792.25	1850.95
792.44	1693.47
792.62	2000.66
792.81	1787.47
792.99	1857.30
793.17	1777.84
793.36	1774.36
793.54	2121.49
793.73	2111.05
793.91	2035.89
794.10	2389.57
794.28	2526.78
794.46	2341.65
794.65	2370.11
794.83	2168.18
795.01	2189.89
795.20	2292.29
795.38	2137.46
795.57	2162.86
795.75	2159.17
795.93	1995.95
796.12	2057.80
796.30	2063.94
796.49	2039.98
796.67	1838.67
796.85	2016.02
797.04	1938.40
797.22	1981.41
797.40	1720.91
797.59	1880.44
797.77	1882.29
797.96	1784.40
798.14	1782.14
798.32	1766.99
798.51	1941.27
798.69	2107.77
798.87	1859.15
799.06	1841.74
799.24	1696.74
799.42	2000.46
799.61	2016.63
799.79	2052.68
799.98	2394.89
800.16	2183.95
800.34	2339.39
800.53	2534.57
800.71	2560.98
800.89	2978.77
801.08	2870.43
801.26	2822.72
801.44	2598.46
801.63	2395.10
801.81	2368.48
801.99	2294.75
802.18	2260.55
802.36	2293.11
802.54	2231.67
802.73	2002.30
802.91	2096.92
803.09	2102.04
803.28	2059.03
803.46	2053.29
803.64	2187.64
803.83	1809.38
804.01	1808.36
804.19	1768.63
804.38	1990.63
804.56	1928.37
804.74	1835.80
804.92	1867.34
805.11	1747.53
805.29	2001.07
805.47	1829.04
805.66	1727.87
805.84	1735.86
806.02	2005.99
806.21	1806.51
806.39	1949.46
806.57	1960.93
806.76	1979.57
806.94	1867.54
807.12	1768.22
807.30	1783.37
807.49	1872.87
807.67	1852.39
807.85	1921.81
808.04	1982.64
808.22	2170.44
808.40	1761.87
808.58	1725.62
808.77	1914.03
808.95	2047.76
809.13	1892.73
809.31	2305.40
809.50	2547.26
809.68	2760.25
809.86	2635.74
810.05	2806.33
810.23	3238.86
810.41	3627.98
810.59	5347.66
810.78	6321.87
810.96	7174.24
811.14	7734.56
811.32	7363.27
811.51	6228.90
811.69	5359.74
811.87	5430.80
812.05	4814.36
812.24	4597.08
812.42	4449.42
812.60	4213.08
812.78	3641.08
812.97	3307.06
813.15	3372.39
813.33	3034.27
813.51	2854.46
813.70	2436.26
813.88	2248.87
814.06	2237.61
814.24	2148.11
814.42	1854.23
814.61	1998.00
814.79	2172.49
814.97	1727.26
815.15	1839.69
815.34	1892.32
815.52	1992.88
815.70	1750.81
815.88	1778.66
816.06	1766.58
816.25	1812.86
816.43	1762.07
816.61	1923.04
816.79	2024.01
816.98	1678.92
817.16	1770.26
817.34	1727.05
817.52	1939.02
817.70	2065.79
817.89	1800.98
818.07	1720.09
818.25	1856.89
818.43	1854.85
818.61	1857.51
818.80	1785.83
818.98	2053.50
819.16	1866.11
819.34	1748.35
819.52	2032.20
819.70	1760.23
819.89	1867.75
820.07	1703.91
820.25	1685.68
820.43	1924.68
820.61	1967.69
820.80	1844.61
820.98	1740.36
821.16	1695.72
821.34	1704.93
821.52	1826.99
821.70	1858.74
821.89	1881.88
822.07	1842.97
822.25	1786.44
822.43	1762.69
822.61	2072.95
822.79	1901.33
822.98	1818.19
823.16	1671.96
823.34	1906.45
823.52	2033.43
823.70	1926.52
823.88	1682.61
824.06	1926.93
824.25	1861.81
824.43	1923.45
824.61	1750.81
824.79	1870.21
824.97	1897.65
825.15	1979.36
825.33	2073.16
825.52	2168.59
825.70	2109.20
825.88	2110.23
826.06	2223.68
826.24	2213.65
826.42	2228.19
826.60	2073.36
826.78	2109.61
826.97	2005.37
827.15	2186.00
827.33	1877.17
827.51	2021.55
827.69	1877.17
827.87	1957.04
828.05	1978.34
828.23	1814.30
828.41	2020.94
828.60	1985.10
828.78	1734.63
828.96	1895.19
829.14	1816.96
829.32	1853.62
829.50	1782.55
829.68	1823.31
829.86	1785.01
830.04	1930.82
830.22	1856.89
830.41	1725.21
830.59	1845.63
830.77	1964.00
830.95	1809.18
831.13	1788.70
831.31	1795.86
831.49	1952.33
831.67	1983.25
831.85	1935.74
832.03	1825.97
832.21	1969.53
832.39	1720.50
832.57	1709.23
832.76	1959.50
832.94	1809.59
833.12	1655.99
833.30	1831.50
833.48	1991.04
833.66	1909.12
833.84	1764.94
834.02	1845.02
834.20	1980.59
834.38	1968.92
834.56	1657.83
834.74	1733.20
834.92	1724.59
835.10	2095.28
835.28	1897.85
835.46	1826.38
835.64	1837.64
835.82	1782.96
836.01	2055.96
836.19	1969.94
836.37	1811.22
836.55	1739.14
836.73	1772.93
836.91	1726.23
837.09	1952.12
837.27	2049.81
837.45	1693.26
837.63	1740.57
837.81	1735.65
837.99	1854.23
838.17	1826.79
838.35	1722.34
838.53	2140.54
838.71	1960.52
838.89	1765.96
839.07	1787.67
839.25	1851.36
839.43	1964.00
839.61	1812.66
839.79	2193.58
839.97	2346.97
840.15	2434.42
840.33	2404.72
840.51	2701.07
840.69	2508.76
840.87	2328.13
841.05	2355.37
841.23	2277.96
841.41	2506.92
841.59	3018.09
841.77	3138.10
841.95	3258.32
842.13	3578.83
842.31	3300.10
842.49	2929.62
842.67	2864.70
842.85	2835.21
843.03	2529.45
843.21	2482.96
843.39	2575.53
843.57	2445.89
843.75	2381.58
843.93	2250.51
844.11	2155.90
844.29	2147.50
844.47	2058.00
844.65	2159.58
844.83	1936.76
845.01	1962.98
845.19	2049.40
845.36	1898.06
845.54	1959.50
845.72	1892.73
845.90	1947.62
846.08	1750.81
846.26	1839.90
846.44	1926.73
846.62	1940.66
846.80	1848.91
846.98	1781.12
847.16	1845.83
847.34	1900.52
847.52	1733.20
847.70	1748.76
847.88	1865.90
848.06	2090.98
848.24	1894.78
848.41	1704.32
848.59	1991.85
848.77	1916.49
848.95	1803.24
849.13	1766.58
849.31	1969.12
849.49	1896.01
849.67	1754.70
849.85	1711.08
850.03	1916.08
850.21	1868.77
850.39	1777.23
850.57	1918.13
850.74	2067.42
850.92	2033.43
851.10	1954.17
851.28	1964.41
851.46	2163.47
851.64	2425.41
851.82	2107.77
852.00	2199.31
852.18	2295.57
852.36	2180.68
852.53	1982.64
852.71	2081.35
852.89	2078.69
853.07	2075.21
853.25	1878.19
853.43	1805.08
853.61	1956.01
853.79	1964.62
853.97	1815.11
854.14	1794.02
854.32	2053.70
854.50	1983.25
854.68	1789.92
854.86	1824.54
855.04	1787.47
855.22	1950.49
855.40	1697.15
855.57	1787.26
855.75	1946.59
855.93	1942.29
856.11	1679.13
856.29	1773.13
856.47	1808.15
856.65	1897.44
856.82	1805.69
857.00	1676.88
857.18	1838.26
857.36	1800.78
857.54	1862.63
857.72	1921.20
857.89	1947.82
858.07	1887.20
858.25	1954.17
858.43	1699.81
858.61	1844.40
858.79	1853.21
858.97	1751.83
859.14	1898.88
859.32	1856.07
859.50	1809.79
859.68	1894.17
859.86	1771.08
860.03	1876.76
860.21	1940.66
860.39	1775.59
860.57	1873.69
860.75	1922.84
860.93	2105.52
861.10	1959.09
861.28	1765.35
861.46	1882.08
861.64	1926.11
861.82	1813.48
861.99	1887.41
862.17	1998.00
862.35	1998.82
862.53	1850.54
862.71	1851.57
862.88	1908.50
863.06	1948.03
863.24	1805.90
863.42	1767.81
863.60	1845.02
863.77	1934.51
863.95	1675.44
864.13	1831.50
864.31	1855.46
864.49	1981.61
864.66	1729.92
864.84	1796.07
865.02	1899.49
865.20	2236.38
865.37	1867.95
865.55	1796.07
865.73	1731.97
865.91	1970.56
866.09	1909.73
866.26	1853.82
866.44	1970.97
866.62	1867.54
866.80	1751.42
866.97	1863.45
867.15	1850.34
867.33	1910.14
867.51	1907.89
867.68	1853.00
867.86	1815.73
868.04	1786.85
868.22	1654.55
868.39	1811.02
868.57	1915.87
868.75	2058.41
868.93	1698.18
869.10	1776.61
869.28	2116.58
869.46	2040.80
869.64	1832.32
869.81	1820.44
869.99	1898.88
870.17	1876.35
870.35	1782.14
870.52	1768.83
870.70	1980.39
870.88	1786.24
871.05	1726.23
871.23	1599.46
871.41	1859.76
871.59	1853.41
871.76	1789.31
871.94	1777.23
872.12	1840.92
872.29	1726.23
872.47	1782.76
872.65	1753.06
872.83	1910.35
873.00	2050.22
873.18	1794.23
873.36	1790.74
873.53	1951.71
873.71	1709.44
873.89	1756.13
874.06	1822.08
874.24	1911.16
874.42	2047.56
874.60	1947.21
874.77	1863.04
874.95	1781.12
875.13	2010.08
875.30	1762.69
875.48	1799.96
875.66	2063.12
875.83	1794.84
876.01	1792.79
876.19	1953.15
876.36	1722.75
876.54	1870.61
876.72	1740.16
876.89	1892.12
877.07	1947.21
877.25	1658.65
877.42	1863.65
877.60	1815.11
877.78	2092.00
877.95	1819.83
878.13	1777.02
878.31	1892.73
878.48	1962.36
878.66	1944.96
878.84	1793.82
879.01	1853.41
879.19	1904.20
879.37	1920.38
879.54	1782.96
879.72	1720.09
879.90	1650.66
880.07	1953.15
880.25	1599.67
880.42	1937.38
880.60	1893.76
880.78	1976.90
880.95	1788.29
881.13	1835.39
881.31	1859.56
881.48	1794.23
881.66	1738.32
881.83	1884.75
882.01	1796.48
882.19	1734.22
882.36	1839.28
882.54	1802.42
882.72	1940.04
882.89	1903.38
883.07	1742.41
883.24	1826.58
883.42	1970.56
883.60	1879.42
883.77	1724.59
883.95	1796.68
884.12	1971.17
884.30	1893.76
884.48	1917.10
884.65	1855.25
884.83	1879.42
885.00	1884.95
885.18	1726.23
885.36	1764.94
885.53	1936.15
885.71	2017.66
885.88	1706.78
886.06	1796.48
886.23	1931.03
886.41	1824.74
886.59	1781.73
886.76	1773.95
886.94	1935.13
887.11	2235.56
887.29	1831.29
887.47	1696.95
887.64	2017.25
887.82	2032.20
887.99	1655.17
888.17	1826.17
888.34	1801.80
888.52	1727.67
888.69	1858.94
888.87	1740.16
889.05	1830.06
889.22	1845.83
889.40	1776.61
889.57	1939.22
889.75	2065.38
889.92	1823.31
890.10	1723.98
890.27	1828.84
890.45	1811.22
890.62	1689.57
890.80	1743.85
890.98	1685.48
891.15	2044.28
891.33	1957.04
891.50	1779.28
891.68	1691.62
891.85	1959.29
892.03	1951.92
892.20	1779.48
892.38	1726.44
892.55	1961.54
892.73	1965.64
892.90	1726.03
893.08	1784.40
893.25	1778.66
893.43	1790.33
893.60	1905.84
893.78	1653.33
893.95	1903.79
894.13	1851.57
894.30	1744.87
894.48	1840.71
894.65	1969.12
894.83	1894.78
895.00	1674.42
895.18	1640.22
895.35	1956.83
895.53	1963.39
895.70	1712.51
895.88	1901.95
896.05	1958.27
896.23	1705.96
896.40	1780.30
896.58	1859.56
896.75	1935.13
896.93	2023.19
897.10	1766.78
897.28	1708.83
897.45	1881.67
897.63	1955.61
897.80	1923.04
897.98	1824.54
898.15	1916.49
898.33	1789.11
898.50	1869.18
898.67	1806.72
898.85	1823.51
899.02	1923.45
899.20	1943.52
899.37	1788.29
899.55	1877.99
899.72	2054.93
899.90	1759.21
900.07	1763.51
900.25	1922.22
900.42	2044.69
900.59	1797.50
900.77	1901.33
900.94	1932.87
901.12	1875.12
901.29	1768.01
901.47	1908.30
901.64	1923.86
901.82	1883.31
901.99	1599.05
902.16	1744.66
902.34	2011.51
902.51	1892.73
902.69	1777.84
902.86	1828.02
903.03	2311.13
903.21	1864.27
903.38	1831.70
903.56	1789.52
903.73	1976.49
903.91	1830.27
904.08	1741.39
904.25	1657.63
904.43	1770.06
904.60	1960.73
904.78	1771.49
904.95	1734.22
905.12	1849.73
905.30	2091.59
905.47	1905.23
905.65	1920.38
905.82	1860.99
905.99	1928.57
906.17	1824.13
906.34	1735.86
906.52	1746.92
906.69	1933.28
906.86	1903.18
907.04	1835.59
907.21	1961.13
907.38	1956.42
907.56	1769.45
907.73	1745.69
907.91	2058.82
908.08	1996.56
908.25	1756.13
908.43	1726.03
908.60	1926.73
908.77	1877.58
908.95	1788.90
909.12	1713.95
909.30	1949.87
909.47	1701.45
909.64	1845.83
909.82	1932.26
909.99	1850.13
910.16	1858.74
910.34	1756.75
910.51	1796.89
910.68	1897.24
910.86	1866.72
911.03	1734.22
911.20	1823.72
911.38	2124.15
911.55	2538.05
911.72	2620.58
911.90	2528.83
912.07	2776.23
912.24	2894.19
912.42	2419.47
912.59	2169.21
912.76	2330.18
912.94	2163.88
913.11	2035.27
913.28	1933.90
913.46	1865.90
913.63	2019.30
913.80	2156.72
913.98	1860.58
914.15	2072.13
914.32	2076.85
914.49	1910.96
914.67	1769.04
914.84	1907.27
915.01	1978.75
915.19	1880.65
915.36	1798.53
915.53	1994.52
915.71	1941.68
915.88	1868.16
916.05	1789.52
916.22	2017.25
916.40	1911.98
916.57	1761.46
916.74	1883.72
916.92	2052.47
917.09	1800.37
917.26	1747.12
917.43	1700.43
917.61	1832.52
917.78	1700.02
917.95	1634.28
918.13	1734.63
918.30	2150.98
918.47	1856.89
918.64	1713.95
918.82	1712.10
918.99	1875.12
919.16	2047.97
919.33	1797.71
919.51	1771.29
919.68	1843.17
919.85	2034.86
920.02	1693.87
920.20	1824.54
920.37	2067.83
920.54	1961.95
920.71	1760.02
920.89	1768.01
921.06	2082.78
921.23	1764.73
921.40	1713.95
921.58	1891.30
921.75	2330.59
921.92	1905.23
922.09	1980.39
922.27	1935.74
922.44	1948.44
922.61	1987.76
922.78	1874.10
922.96	1808.97
923.13	1862.63
923.30	2001.48
923.47	1710.26
923.64	1774.77
923.82	1942.70
923.99	1928.37
924.16	1865.29
924.33	1704.52
924.50	1868.98
924.68	2074.39
924.85	1692.65
925.02	1796.48
925.19	1957.04
925.36	1894.99
925.54	1830.47
925.71	1844.61
925.88	2246.21
926.05	1820.64
926.22	1764.53
926.40	1827.61
926.57	1896.83
926.74	1938.61
926.91	1783.17
927.08	1941.88
927.26	1976.70
927.43	1876.55
927.60	1744.87
927.77	1809.99
927.94	2079.92
928.11	1993.08
928.29	1714.97
928.46	1834.78
928.63	1746.30
928.80	1806.72
928.97	1874.71
929.14	1738.52
929.32	2130.50
929.49	1908.50
929.66	1747.33
929.83	1672.58
930.00	1804.67
930.17	1916.28
930.35	1693.06
930.52	1775.59
930.69	2057.59
930.86	1732.79
931.03	1857.92
931.20	1605.81
931.37	2015.20
931.55	1876.35
931.72	1865.09
931.89	1652.71
932.06	1762.69
932.23	2077.25
932.40	1920.38
932.57	1855.87
932.74	2015.61
932.92	2033.43
933.09	1934.10
933.26	1548.88
933.43	1802.21
933.60	1884.34
933.77	1809.99
933.94	1839.28
934.11	1833.75
934.29	1878.40
934.46	1685.89
934.63	1837.03
934.80	1723.57
934.97	1845.02
935.14	1802.42
935.31	1663.16
935.48	1754.09
935.65	1912.39
935.82	1847.06
936.00	1721.11
936.17	2047.35
936.34	1836.00
936.51	1892.32
936.68	1712.72
936.85	1874.51
937.02	1871.23
937.19	1833.96
937.36	1806.31
937.53	1901.95
937.70	1985.30
937.87	1817.57
938.05	1873.89
938.22	1882.49
938.39	1755.11
938.56	1799.35
938.73	1755.72
938.90	1858.74
939.07	1812.04
939.24	1844.61
939.41	1652.10
939.58	1932.67
939.75	1914.03
939.92	1760.02
940.09	1933.08
940.26	1846.65
940.43	1968.30
940.60	1772.93
940.77	1797.50
940.95	1890.48
941.12	1975.88
941.29	1775.79
941.46	1825.15
941.63	2043.87
941.80	2031.58
941.97	1706.37
942.14	1692.85
942.31	1958.68
942.48	1868.98
942.65	1876.76
942.82	1818.60
942.99	1933.69
943.16	1880.04
943.33	1728.08
943.50	1756.95
943.67	1952.53
943.84	2007.01
944.01	1793.61
944.18	1718.25
944.35	2039.37
944.52	1771.29
944.69	1829.45
944.86	1690.80
945.03	1953.35
945.20	2176.99
945.37	1653.53
945.54	1805.28
945.71	2015.61
945.88	2078.07
946.05	1745.28
946.22	1719.88
946.39	2020.94
946.56	1858.74
946.73	1683.64
946.90	1736.47
947.07	1789.72
947.24	1839.08
947.41	1657.01
947.58	1889.87
947.75	1958.88
947.92	1936.76
948.09	1601.51
948.26	1685.89
948.43	1879.22
948.60	2128.04
948.77	1728.08
948.94	1760.23
949.11	1969.53
949.27	1945.16
949.44	1766.17
949.61	1744.05
949.78	1917.51
949.95	2012.74
950.12	1740.98
950.29	1700.02
950.46	1815.52
950.63	2001.68
950.80	1767.60
950.97	1825.35
951.14	1990.22
951.31	1835.39
951.48	1751.22
951.65	1711.08
951.82	2093.43
951.99	1910.35
952.15	1700.02
952.32	1801.39
952.49	1791.97
952.66	1800.98
952.83	1737.29
953.00	1738.93
953.17	1867.54
953.34	1959.09
953.51	1820.44
953.68	1785.21
953.85	1993.29
954.02	2003.32
954.18	1767.60
954.35	1818.19
954.52	1784.80
954.69	1902.15
954.86	1638.99
955.03	1790.13
955.20	1959.70
955.37	1853.21
955.54	1777.23
955.71	1758.18
955.87	1942.91
956.04	2077.66
956.21	1776.00
956.38	1758.39
956.55	1867.34
956.72	2179.45
956.89	1825.56
957.06	1720.09
957.23	1805.69
957.39	2026.47
957.56	1781.12
957.73	1725.82
957.90	1623.83
958.07	2130.50
958.24	1836.62
958.41	1766.17
958.57	1990.22
958.74	1875.12
958.91	1718.86
959.08	1756.75
959.25	1966.46
959.42	1854.85
959.59	1832.11
959.75	1766.78
959.92	2023.39
960.09	1987.14
960.26	1745.48
960.43	1845.42
960.60	1887.61
960.76	1859.76
960.93	1690.80
961.10	1858.33
961.27	2004.55
961.44	1869.18
961.61	1693.26
961.77	1697.15
961.94	1901.54
962.11	1998.41
962.28	1783.99
962.45	1676.67
962.62	1831.50
962.78	2025.85
962.95	1704.93
963.12	1779.07
963.29	1926.73
963.46	2227.58
963.62	1834.78
963.79	1758.18
963.96	2183.13
964.13	1851.16
964.30	1836.82
964.46	1786.65
964.63	1741.80
964.80	2191.74
964.97	1627.93
965.14	1870.82
965.30	1941.27
965.47	2022.98
965.64	1910.55
965.81	1885.16
965.98	2075.41
966.14	1917.51
966.31	1822.28
966.48	1785.83
966.65	2043.05
966.81	1926.52
966.98	1796.07
967.15	1785.21
967.32	1883.72
967.49	1780.09
967.65	1640.01
967.82	1626.09
967.99	1826.58
968.16	1679.54
968.32	1921.20
968.49	1746.10
968.66	1835.18
968.83	2062.92
968.99	1817.98
969.16	1671.96
969.33	2016.63
969.50	1946.18
969.66	1883.93
969.83	1972.81
970.00	1963.80
970.17	1943.93
970.33	1782.35
970.50	1734.22
970.67	2053.09
970.84	2039.37
971.00	1728.90
971.17	1694.69
971.34	1957.24
971.50	1883.11
971.67	1885.77
971.84	1829.66
972.01	1728.69
972.17	1632.23
972.34	1712.31
972.51	1867.95
972.67	2017.66
972.84	1928.98
973.01	1718.25
973.18	1744.66
973.34	1981.20
973.51	1765.76
973.68	1794.43
973.84	1835.59
974.01	1855.46
974.18	2073.36
974.34	1857.71
974.51	1854.03
974.68	1763.71
974.85	2154.46
975.01	1903.79
975.18	1769.04
975.35	1883.93
975.51	1759.21
975.68	1669.71
975.85	1910.96
976.01	1788.90
976.18	2055.75
976.35	1821.26
976.51	1745.69
976.68	2063.53
976.85	2031.58
977.01	1807.13
977.18	1872.05
977.35	1946.80
977.51	1714.56
977.68	1607.86
977.85	1695.10
978.01	1986.94
978.18	1925.71
978.35	1795.04
978.51	1802.21
978.68	1983.05
978.85	2071.52
979.01	1774.16
979.18	1817.37
979.34	1835.39
979.51	1882.08
979.68	1712.72
979.84	1821.67
980.01	2177.81
980.18	1887.20
980.34	1750.81
980.51	1852.39
980.67	1945.78
980.84	1996.56
981.01	1800.57
981.17	1849.32
981.34	1653.33
981.51	1942.91
981.67	1721.73
981.84	1875.53
982.00	1937.99
982.17	1845.02
982.34	1654.14
982.50	1578.57
982.67	2058.00
982.83	1802.42
983.00	1695.72
983.17	1619.94
983.33	2007.83
983.50	1686.30
983.66	1708.01
983.83	1601.51
984.00	1803.44
984.16	1881.88
984.33	1611.55
984.49	1585.74
984.66	1759.82
984.83	1978.75
984.99	1654.55
985.16	1605.81
985.32	1965.44
985.49	1965.44
985.65	1739.54
985.82	1594.34
985.99	2032.61
986.15	1893.14
986.32	1692.65
986.48	1660.08
986.65	1840.10
986.81	1975.88
986.98	1605.61
987.14	1694.49
987.31	1883.72
987.48	1689.16
987.64	1565.67
987.81	1582.47
987.97	2139.31
988.14	1782.35
988.30	1631.41
988.47	1500.96
988.63	1909.53
988.80	1737.50
988.96	1704.73
989.13	1731.35
989.30	1817.37
989.46	1975.47
989.63	1585.13
989.79	1577.76
989.96	1869.18
990.12	2066.81
990.29	1628.75
990.45	1669.71
990.62	1865.49
990.78	2025.44
990.95	1718.04
991.11	1658.45
991.28	1840.51
991.44	1903.59
991.61	1562.40
991.77	1710.87
991.94	1900.92
992.10	2015.82
992.27	1698.99
992.43	1669.91
992.60	1913.62
992.76	1828.22
992.93	1785.42
993.09	1599.67
993.26	1996.97
993.42	2087.29
993.59	1628.14
993.75	1560.14
993.92	1781.12
994.08	1753.06
994.25	1694.28
994.41	1610.93
994.58	1956.63
994.74	2052.47
994.91	1626.29
995.07	1700.43
995.24	1844.81
995.40	1876.35
995.56	1784.40
995.73	1718.45
995.89	2086.27
996.06	1886.38
996.22	1627.93
996.39	1563.83
996.55	1821.26
996.72	1922.84
996.88	1568.13
997.05	1620.56
997.21	2101.42
997.37	1940.66
997.54	1720.70
997.70	1663.36
997.87	1935.54
998.03	1861.40
998.20	1564.03
998.36	1580.62
998.52	1940.66
998.69	1985.92
998.85	1568.95
999.02	1687.53
999.18	1971.99
999.35	1975.88
999.51	1642.88
999.67	1690.60
999.84	1765.55
1000.00	1959.29
1000.17	1737.70
1000.33	1588.81
1000.49	1785.01
1000.66	1833.14
1000.82	1632.85
1000.99	1709.23
1001.15	2010.70
1001.31	1835.80
1001.48	1662.13
1001.64	1732.58
1001.81	1834.37
1001.97	2110.84
1002.13	1634.69
1002.30	1667.25
1002.46	2025.85
1002.63	1851.77
1002.79	1729.92
1002.95	1633.87
1003.12	2003.73
1003.28	1905.23
1003.45	1642.47
1003.61	1580.21
1003.77	1857.92
1003.94	1721.93
1004.10	1671.96
1004.26	1713.13
1004.43	1950.28
1004.59	2090.36
1004.75	1657.83
1004.92	1621.58
1005.08	1809.79
1005.25	1896.01
1005.41	1636.74
1005.57	1715.58
1005.74	2023.19
1005.90	1830.27
1006.06	1719.47
1006.23	1633.05
1006.39	1962.98
1006.55	2204.02
1006.72	1805.08
1006.88	1602.54
1007.04	1766.37
1007.21	1831.29
1007.37	1666.64
1007.53	1646.36
1007.70	2045.31
1007.86	1953.15
1008.02	1686.91
1008.19	1628.14
1008.35	1896.83
1008.51	1756.13
1008.68	1684.45
1008.84	1575.09
1009.00	1772.31
1009.17	1989.81
1009.33	1768.42
1009.49	1728.08
1009.65	1787.47
1009.82	1911.57
1009.98	1713.95
1010.14	1551.75
1010.31	1941.47
1010.47	1934.92
1010.63	1721.32
1010.80	1704.32
1010.96	1933.69
1011.12	1857.30
1011.28	1638.38
1011.45	1642.68
1011.61	2216.52
1011.77	1755.11
1011.94	1635.51
1012.10	1598.44
1012.26	1739.75
1012.42	1798.12
1012.59	1696.74
1012.75	1648.21
1012.91	1850.95
1013.07	1976.90
1013.24	1584.72
1013.40	1650.87
1013.56	1897.65
1013.72	1867.95
1013.89	1716.81
1014.05	1709.64
1014.21	2101.01
1014.37	2197.88
1014.54	1699.40
1014.70	1622.81
1014.86	1845.63
1015.02	1750.60
1015.19	1641.04
1015.35	1601.31
1015.51	1826.38
1015.67	1791.15
1015.84	1649.43
1016.00	1641.24
1016.16	1991.65
1016.32	1972.60
1016.49	1628.14
1016.65	1609.50
1016.81	1864.88
1016.97	1913.01
1017.14	1754.09
1017.30	1647.39
1017.46	1817.57
1017.62	1911.57
1017.78	1702.68
1017.95	1597.21
1018.11	1968.92
1018.27	2147.30
1018.43	1764.53
1018.59	1703.09
1018.76	1991.85
1018.92	2194.19
1019.08	1635.10
1019.24	1655.58
1019.40	2035.07
1019.57	1929.60
1019.73	1734.22
1019.89	1652.51
1020.05	1891.71
1020.21	2119.65
1020.38	1612.78
1020.54	1804.47
1020.70	1925.09
1020.86	1948.03
1021.02	1648.82
1021.18	1642.06
1021.35	1785.62
1021.51	1918.54
1021.67	1765.35
1021.83	1659.47
1021.99	1885.77
1022.15	1879.01
1022.32	1730.12
1022.48	1722.34
1022.64	2031.18
1022.80	2081.76
1022.96	1707.60
1023.12	1567.72
1023.29	1997.38
1023.45	1923.25
1023.61	1628.95
1023.77	1796.89
1023.93	1904.61
1024.09	1782.14
1024.25	1650.05
1024.42	1606.43
1024.58	1840.51
1024.74	1888.84
1024.90	1674.83
1025.06	1696.95
1025.22	1822.69
1025.38	2060.05
1025.54	1600.90
1025.71	1728.08
1025.87	1947.00
1026.03	1922.84
1026.19	1610.93
1026.35	1781.53
1026.51	1946.39
1026.67	1845.22
1026.83	1722.14
1026.99	1752.45
1027.16	1922.63
1027.32	2028.51
1027.48	1676.88
1027.64	1623.02
1027.80	1934.10
1027.96	1879.83
1028.12	1642.88
1028.28	1615.03
1028.44	1907.27
1028.60	2066.61
1028.77	1761.46
1028.93	1698.38
1029.09	1815.73
1029.25	1725.00
1029.41	1698.18
1029.57	1735.24
1029.73	1895.19
1029.89	2049.61
1030.05	1764.33
1030.21	1717.43
1030.37	2162.04
1030.53	1945.16
1030.69	1685.89
1030.85	1603.97
1031.02	1770.06
1031.18	1869.80
1031.34	1689.78
1031.50	1722.96
1031.66	1755.31
1031.82	2068.65
1031.98	1706.16
1032.14	1613.18
1032.30	1778.05
1032.46	1962.77
1032.62	1804.47
1032.78	1614.21
1032.94	1792.38
1033.10	1830.47
1033.26	1718.25
1033.42	1757.16
1033.58	2126.61
1033.74	1801.19
1033.90	1653.53
1034.06	1817.16
1034.22	2147.09
1034.38	2001.07
1034.54	1686.09
1034.70	1711.90
1034.86	2084.22
>>>>>End Processed Spectral Data<<<<<
