SpectraSuite Data File
++++++++++++++++++++++++++++++++++++
Date: Thu Mar 30 15:58:31 PDT 2017
User: UCSD _CER
Dark Spectrum Present: No
Reference Spectrum Present: No
Number of Sampled Component Spectra: 1
Spectrometers: USB4C00073
Integration Time (usec): 250000 (USB4C00073)
Spectra Averaged: 10 (USB4C00073)
Boxcar Smoothing: 0 (USB4C00073)
Correct for Electrical Dark: No (USB4C00073)
Strobe/Lamp Enabled: No (USB4C00073)
Correct for Detector Non-linearity: No (USB4C00073)
Correct for Stray Light: No (USB4C00073)
Number of Pixels in Processed Spectrum: 3648
>>>>>Begin Processed Spectral Data<<<<<
345.37	1275.07
345.58	1275.07
345.80	1275.07
346.01	1262.37
346.22	1264.62
346.43	1986.94
346.65	1774.36
346.86	2120.47
347.07	2086.88
347.28	1798.12
347.50	1783.17
347.71	1922.84
347.92	1713.95
348.13	1808.15
348.35	1726.23
348.56	1914.44
348.77	1783.17
348.98	1806.92
349.20	1661.52
349.41	1931.85
349.62	1985.92
349.83	1872.87
350.05	1715.38
350.26	1945.98
350.47	2079.30
350.68	1781.12
350.90	1738.32
351.11	2127.84
351.32	2074.80
351.53	1838.67
351.75	1748.35
351.96	1964.00
352.17	1926.32
352.38	1875.12
352.60	1865.09
352.81	1948.64
353.02	2170.44
353.23	1824.94
353.44	1801.19
353.66	1877.37
353.87	1940.25
354.08	1922.84
354.29	1818.39
354.51	1877.58
354.72	1905.63
354.93	1786.44
355.14	1714.15
355.35	1743.44
355.57	2030.36
355.78	1803.65
355.99	1886.38
356.20	1938.40
356.42	1929.80
356.63	1921.61
356.84	1864.47
357.05	2041.01
357.26	2212.01
357.48	1939.63
357.69	1868.98
357.90	1977.52
358.11	1882.90
358.32	1837.44
358.54	1907.07
358.75	1913.21
358.96	2040.19
359.17	1807.74
359.38	1827.61
359.60	2007.42
359.81	1918.54
360.02	1818.39
360.23	1776.82
360.44	1847.27
360.66	2047.15
360.87	1756.13
361.08	1756.95
361.29	1964.62
361.50	1941.06
361.72	1802.42
361.93	1856.48
362.14	1917.92
362.35	1762.28
362.56	1891.71
362.77	1702.27
362.99	2003.32
363.20	1920.38
363.41	1868.57
363.62	1711.69
363.83	1973.63
364.05	2024.62
364.26	1674.83
364.47	1770.88
364.68	2050.84
364.89	1793.00
365.10	1707.19
365.32	1806.10
365.53	1823.72
365.74	1846.86
365.95	1824.94
366.16	1702.07
366.37	1924.27
366.59	1859.35
366.80	1774.16
367.01	1689.78
367.22	2184.16
367.43	2273.65
367.64	1797.71
367.86	1806.92
368.07	2007.01
368.28	2081.15
368.49	1765.55
368.70	1846.24
368.91	1876.76
369.12	1899.08
369.34	1716.81
369.55	1727.26
369.76	1912.80
369.97	1836.82
370.18	1758.18
370.39	1733.81
370.60	1734.22
370.82	1803.85
371.03	1824.54
371.24	1740.57
371.45	1989.60
371.66	2008.85
371.87	1845.02
372.08	1796.89
372.30	1820.64
372.51	2065.58
372.72	1923.45
372.93	1798.94
373.14	2144.63
373.35	1853.00
373.56	1746.30
373.78	1838.05
373.99	2027.28
374.20	2273.86
374.41	1832.93
374.62	1831.91
374.83	2101.01
375.04	1874.10
375.25	1806.10
375.47	1779.68
375.68	1880.85
375.89	2022.78
376.10	1835.39
376.31	1933.28
376.52	1978.34
376.73	1967.07
376.94	1843.99
377.15	1799.55
377.37	1927.75
377.58	1863.65
377.79	1713.74
378.00	1741.59
378.21	1988.37
378.42	2007.01
378.63	1868.57
378.84	1897.85
379.05	2053.09
379.27	1928.37
379.48	1938.61
379.69	1786.24
379.90	2093.02
380.11	1722.34
380.32	1848.50
380.53	1928.57
380.74	2121.70
380.95	1954.99
381.16	1846.86
381.37	1831.29
381.59	2140.33
381.80	2054.93
382.01	1808.36
382.22	1753.68
382.43	2007.21
382.64	1962.16
382.85	1783.99
383.06	1888.84
383.27	2030.97
383.48	1910.96
383.69	1887.82
383.91	1794.64
384.12	2088.11
384.33	2079.71
384.54	1921.61
384.75	1855.66
384.96	2415.78
385.17	2145.66
385.38	1876.96
385.59	1879.22
385.80	2091.18
386.01	2190.30
386.22	1975.47
386.43	1899.49
386.64	2276.32
386.86	1956.42
387.07	1985.92
387.28	1806.72
387.49	1928.37
387.70	2163.88
387.91	1970.76
388.12	1839.08
388.33	2027.69
388.54	1904.20
388.75	1821.05
388.96	1905.02
389.17	1859.76
389.38	1920.99
389.59	1913.21
389.80	1870.61
390.01	1931.03
390.22	1853.62
390.43	1925.30
390.64	1748.15
390.86	1971.37
391.07	2074.39
391.28	1851.36
391.49	1878.40
391.70	1778.87
391.91	1826.99
392.12	1857.71
392.33	1845.02
392.54	1970.15
392.75	1910.35
392.96	1926.93
393.17	1804.26
393.38	2223.07
393.59	2099.78
393.80	1772.93
394.01	1845.22
394.22	1987.76
394.43	2222.87
394.64	1831.09
394.85	1977.52
395.06	1960.73
395.27	1954.17
395.48	1847.06
395.69	1749.37
395.90	1903.18
396.11	1919.97
396.32	1808.56
396.53	1942.91
396.74	1918.33
396.95	2052.68
397.16	1771.08
397.37	1710.05
397.58	2031.59
397.79	1912.80
398.00	1864.68
398.21	1811.02
398.42	1933.08
398.63	2194.40
398.84	1813.89
399.05	1807.33
399.26	2052.68
399.47	1976.70
399.68	1661.31
399.89	1755.11
400.10	1798.73
400.31	1878.40
400.52	1862.83
400.73	1845.22
400.94	1800.98
401.15	2029.95
401.36	1869.80
401.57	1940.86
401.78	2079.92
401.99	2057.80
402.20	1754.70
402.41	1939.63
402.62	2136.44
402.83	1906.45
403.04	1827.61
403.25	1985.10
403.46	2033.43
403.67	2152.82
403.88	1924.07
404.09	1922.84
404.30	1975.68
404.51	1926.52
404.72	1819.21
404.93	1985.92
405.14	1875.94
405.35	1929.19
405.56	1836.82
405.77	1815.73
405.98	1960.73
406.19	1915.87
406.40	1811.63
406.61	1861.60
406.82	1928.16
407.03	2317.69
407.24	1817.98
407.45	1926.73
407.66	2021.96
407.87	2088.52
408.08	1909.73
408.29	1921.81
408.49	1996.36
408.70	1950.08
408.91	1843.38
409.12	1928.16
409.33	1836.62
409.54	2070.09
409.75	1813.27
409.96	1837.23
410.17	2069.68
410.38	1935.94
410.59	1812.45
410.80	1924.48
411.01	1939.22
411.22	1888.02
411.43	1881.06
411.64	1766.58
411.85	1796.07
412.06	1799.14
412.27	1678.11
412.47	1813.27
412.68	1938.40
412.89	2009.88
413.10	1816.55
413.31	1758.59
413.52	2192.76
413.73	2164.29
413.94	1778.46
414.15	1947.62
414.36	1882.70
414.57	1823.31
414.78	1794.64
414.99	2007.42
415.19	2370.73
415.40	2381.17
415.61	2463.30
415.82	2349.02
416.03	2375.03
416.24	2256.45
416.45	2036.91
416.66	1923.45
416.87	1817.16
417.08	2071.11
417.29	1813.07
417.50	1934.10
417.70	2100.40
417.91	2088.52
418.12	1972.81
418.33	2024.42
418.54	2198.49
418.75	2341.03
418.96	2356.39
419.17	2519.62
419.38	2935.35
419.59	2900.33
419.79	2745.30
420.00	2595.80
420.21	2845.65
420.42	2306.01
420.63	2046.33
420.84	2016.02
421.05	1960.11
421.26	1917.31
421.47	1775.59
421.67	2104.90
421.88	1871.23
422.09	1845.02
422.30	2064.15
422.51	1907.89
422.72	2236.18
422.93	2074.39
423.14	1890.89
423.35	1798.73
423.55	1783.58
423.76	1865.29
423.97	1846.45
424.18	1753.06
424.39	1919.77
424.60	2062.51
424.81	1911.78
425.02	2064.76
425.22	2181.91
425.43	2225.32
425.64	2404.52
425.85	2363.97
426.06	2645.16
426.27	2476.20
426.48	2401.45
426.68	2331.41
426.89	2420.49
427.10	2519.21
427.31	2128.86
427.52	1969.53
427.73	2169.82
427.94	2077.66
428.14	1988.78
428.35	1872.46
428.56	2116.58
428.77	2069.47
428.98	1909.94
429.19	1963.59
429.40	2047.76
429.60	2089.95
429.81	2156.51
430.02	2069.68
430.23	2039.78
430.44	2121.08
430.65	1867.34
430.85	1908.91
431.06	2026.47
431.27	1757.36
431.48	1819.62
431.69	1883.11
431.90	1947.41
432.10	1965.64
432.31	1978.34
432.52	2014.79
432.73	2548.49
432.94	2551.56
433.15	2366.02
433.35	2169.00
433.56	2368.27
433.77	2231.26
433.98	2650.89
434.19	2833.77
434.40	3078.92
434.60	3077.48
434.81	2944.77
435.02	2579.83
435.23	2380.97
435.44	2247.03
435.64	1970.76
435.85	1910.96
436.06	1967.69
436.27	1946.80
436.48	1894.17
436.68	1970.56
436.89	2329.77
437.10	2230.65
437.31	2083.60
437.52	2122.72
437.73	2172.08
437.93	2138.08
438.14	2015.82
438.35	1790.33
438.56	1904.20
438.77	1948.44
438.97	1997.59
439.18	1888.84
439.39	2306.22
439.60	2081.56
439.80	2040.39
440.01	2138.69
440.22	2080.94
440.43	2143.40
440.64	1827.81
440.84	1947.62
441.05	1839.49
441.26	2303.56
441.47	1900.51
441.68	1928.78
441.88	2321.58
442.09	2419.47
442.30	2637.17
442.51	2637.99
442.71	2549.93
442.92	2431.96
443.13	2171.87
443.34	2001.89
443.55	1991.24
443.75	2113.71
443.96	1840.92
444.17	1782.96
444.38	2079.71
444.58	1802.62
444.79	1889.05
445.00	1854.03
445.21	1896.83
445.41	1905.63
445.62	1648.00
445.83	1916.28
446.04	1951.10
446.24	1761.05
446.45	1656.19
446.66	1804.47
446.87	1982.23
447.07	1873.48
447.28	2037.93
447.49	1931.44
447.70	2094.66
447.90	2112.27
448.11	1922.22
448.32	1976.29
448.53	2109.61
448.73	2125.38
448.94	1848.29
449.15	1953.35
449.36	1937.38
449.56	1987.96
449.77	1822.90
449.98	1740.57
450.19	1945.57
450.39	2011.11
450.60	2028.72
450.81	2021.75
451.02	2079.71
451.22	2223.68
451.43	1860.37
451.64	1905.23
451.84	1947.41
452.05	2170.03
452.26	1919.15
452.47	1880.04
452.67	1902.97
452.88	2142.79
453.09	1808.97
453.30	1792.59
453.50	2038.55
453.71	2259.32
453.92	2007.62
454.12	2139.51
454.33	2055.96
454.54	2098.76
454.75	1868.57
454.95	1835.80
455.16	2003.32
455.37	2084.42
455.57	1912.39
455.78	1868.36
455.99	1929.19
456.19	1951.71
456.40	1803.85
456.61	1843.79
456.82	1964.82
457.02	2110.43
457.23	2093.64
457.44	2219.79
457.64	2073.16
457.85	2205.87
458.06	2054.52
458.26	2155.49
458.47	2075.62
458.68	2197.06
458.89	1963.18
459.09	2152.01
459.30	2289.42
459.51	2068.24
459.71	1820.85
459.92	1891.30
460.13	2184.16
460.33	2442.00
460.54	2071.73
460.75	2112.89
460.95	2044.90
461.16	2117.80
461.37	1884.95
461.57	1951.51
461.78	1992.47
461.99	1860.99
462.19	2115.14
462.40	1832.11
462.61	2236.79
462.81	2094.25
463.02	1798.73
463.23	1859.56
463.43	2012.13
463.64	1888.43
463.85	2779.09
464.05	1818.80
464.26	2302.33
464.47	2109.61
464.67	1978.54
464.88	1971.17
465.09	2006.80
465.29	2114.53
465.50	2190.30
465.71	2114.12
465.91	2045.51
466.12	2004.14
466.33	1970.56
466.53	1875.53
466.74	2138.49
466.94	1941.27
467.15	1882.90
467.36	2036.30
467.56	1830.27
467.77	1983.66
467.98	1875.53
468.18	1820.85
468.39	1866.11
468.60	2210.78
468.80	1893.96
469.01	1790.54
469.21	2009.26
469.42	2077.66
469.63	1904.00
469.83	1837.85
470.04	2102.44
470.25	2195.42
470.45	1927.14
470.66	1840.51
470.86	2009.26
471.07	1880.24
471.28	1951.10
471.48	1992.06
471.69	1998.82
471.90	2555.66
472.10	2095.89
472.31	2141.36
472.51	2164.09
472.72	2224.09
472.93	2167.98
473.13	2330.59
473.34	2359.87
473.54	2298.44
473.75	2137.26
473.96	2181.91
474.16	2031.99
474.37	2089.54
474.57	1929.19
474.78	1850.13
474.99	2042.64
475.19	1988.37
475.40	1858.33
475.60	1876.55
475.81	2375.44
476.02	2195.42
476.22	2225.53
476.43	2292.70
476.63	2090.57
476.84	2204.84
477.05	1788.29
477.25	1883.93
477.46	2387.93
477.66	2009.47
477.87	1795.45
478.08	1877.78
478.28	2078.07
478.49	1923.66
478.69	1799.35
478.90	1836.00
479.10	2004.76
479.31	2125.59
479.52	1922.43
479.72	2229.42
479.93	2636.76
480.13	2660.72
480.34	2639.63
480.54	2767.01
480.75	2402.06
480.96	2369.09
481.16	2026.67
481.37	2096.30
481.57	2182.32
481.78	2149.96
481.98	2159.58
482.19	2038.34
482.40	2266.08
482.60	2049.81
482.81	1907.27
483.01	1802.01
483.22	2087.90
483.42	2048.38
483.63	1949.46
483.83	1979.36
484.04	2042.64
484.24	2251.95
484.45	2126.61
484.66	1995.95
484.86	2167.77
485.07	1946.59
485.27	1958.68
485.48	1859.76
485.68	2153.03
485.89	1889.25
486.09	1966.66
486.30	1879.83
486.50	1980.39
486.71	1951.51
486.91	1964.21
487.12	2386.09
487.33	2957.88
487.53	3138.51
487.74	2977.13
487.94	2912.42
488.15	2668.30
488.35	2395.10
488.56	2149.55
488.76	2081.76
488.97	2136.65
489.17	2182.93
489.38	2039.16
489.58	2035.89
489.79	2119.44
489.99	2092.41
490.20	1934.10
490.40	1999.84
490.61	1990.63
490.81	1916.28
491.02	1884.95
491.22	1944.34
491.43	2014.59
491.63	1934.10
491.84	2004.35
492.04	1757.98
492.25	2016.43
492.45	1925.50
492.66	1913.62
492.86	1856.28
493.07	2013.77
493.27	2309.90
493.48	1801.80
493.68	1891.30
493.89	1945.16
494.09	2046.54
494.30	1824.13
494.50	2114.94
494.71	2016.43
494.91	1785.62
495.12	1854.64
495.32	1950.69
495.53	1948.85
495.73	1871.64
495.94	2072.95
496.14	1975.47
496.35	2441.59
496.55	2129.07
496.76	1961.34
496.96	2003.12
497.17	1991.44
497.37	2049.20
497.58	1861.60
497.78	1788.08
497.98	1936.56
498.19	1933.28
498.39	1925.71
498.60	1928.57
498.80	1718.25
499.01	2043.26
499.21	1786.24
499.42	1862.22
499.62	1919.36
499.83	2220.20
500.03	1837.03
500.24	2051.04
500.44	2292.29
500.64	2277.34
500.85	2058.82
501.05	2145.66
501.26	1902.77
501.46	2215.08
501.67	1923.25
501.87	1824.54
502.08	1877.78
502.28	1933.08
502.48	1962.98
502.69	2002.30
502.89	1768.42
503.10	1860.37
503.30	1920.79
503.51	1923.86
503.71	1813.07
503.92	2013.56
504.12	1941.47
504.32	1883.31
504.53	2034.86
504.73	2058.00
504.94	2005.58
505.14	2085.24
505.35	2108.79
505.55	2121.90
505.75	2066.40
505.96	2191.74
506.16	2391.21
506.37	2004.14
506.57	1875.12
506.78	2000.87
506.98	2122.92
507.18	1833.34
507.39	1829.25
507.59	1958.47
507.80	1894.37
508.00	1986.53
508.20	2048.79
508.41	1918.74
508.61	2134.60
508.82	2086.27
509.02	2009.06
509.22	1824.74
509.43	1843.99
509.63	1873.89
509.84	1903.59
510.04	1778.66
510.24	2144.22
510.45	2034.86
510.65	1802.42
510.86	1897.65
511.06	1799.35
511.26	2024.42
511.47	1953.97
511.67	1827.20
511.88	2001.28
512.08	2056.78
512.28	1816.55
512.49	1970.35
512.69	1956.63
512.90	1973.63
513.10	1873.48
513.30	1947.62
513.51	2058.00
513.71	2225.53
513.91	2077.05
514.12	2051.45
514.32	2178.22
514.53	1977.11
514.73	2046.33
514.93	1904.00
515.14	1995.54
515.34	2160.61
515.54	1931.44
515.75	1984.89
515.95	2066.61
516.15	2127.23
516.36	1977.72
516.56	2007.42
516.77	1716.81
516.97	2010.90
517.17	1885.36
517.38	1960.11
517.58	2150.78
517.78	1915.47
517.99	1972.81
518.19	1959.70
518.39	2146.68
518.60	1949.67
518.80	1846.86
519.00	2019.09
519.21	1919.77
519.41	2186.00
519.61	1833.34
519.82	1966.25
520.02	1953.35
520.22	1924.48
520.43	1914.03
520.63	1870.61
520.83	1853.41
521.04	1740.36
521.24	1946.59
521.44	1857.92
521.65	1855.46
521.85	2039.16
522.05	1840.10
522.26	1855.25
522.46	2165.52
522.66	2062.10
522.87	1833.14
523.07	2032.81
523.27	1876.55
523.48	2123.74
523.68	1922.02
523.88	1895.19
524.09	2057.39
524.29	1951.30
524.49	1717.43
524.70	2001.07
524.90	2126.20
525.10	2005.17
525.31	1776.00
525.51	1770.67
525.71	2020.73
525.91	2004.96
526.12	1860.17
526.32	1752.45
526.52	1869.39
526.73	1853.00
526.93	1936.56
527.13	1747.94
527.34	1928.16
527.54	1933.28
527.74	1851.98
527.94	1807.74
528.15	1816.34
528.35	1958.27
528.55	1980.18
528.76	1948.23
528.96	1740.77
529.16	2074.18
529.36	2032.20
529.57	1793.82
529.77	2086.88
529.97	1794.02
530.18	1961.54
530.38	1862.42
530.58	2010.90
530.78	1949.87
530.99	1848.50
531.19	1965.03
531.39	1848.70
531.60	1939.02
531.80	1872.25
532.00	2024.83
532.20	1984.48
532.41	1839.28
532.61	1871.64
532.81	1891.30
533.01	1887.82
533.22	2010.49
533.42	2000.46
533.62	1735.45
533.82	2140.95
534.03	1922.02
534.23	1952.74
534.43	1837.85
534.63	1904.41
534.84	1990.22
535.04	1925.50
535.24	1927.96
535.44	2283.49
535.65	1927.14
535.85	1876.96
536.05	1870.61
536.25	1955.61
536.46	1865.70
536.66	2073.36
536.86	1917.92
537.06	2028.72
537.27	2115.14
537.47	1985.10
537.67	1879.42
537.87	2143.40
538.08	1917.10
538.28	1804.47
538.48	1815.32
538.68	1906.66
538.88	1996.77
539.09	1784.19
539.29	1870.00
539.49	2066.61
539.69	2026.26
539.90	1956.22
540.10	1815.73
540.30	2113.50
540.50	1909.32
540.70	1808.36
540.91	1913.42
541.11	2048.79
541.31	2162.04
541.51	1976.29
541.72	1984.07
541.92	2009.88
542.12	1882.08
542.32	1925.09
542.52	1897.65
542.73	1880.24
542.93	2022.16
543.13	1891.50
543.33	1967.07
543.53	2061.28
543.74	2064.35
543.94	1887.00
544.14	2007.42
544.34	2105.31
544.54	1997.18
544.75	2060.46
544.95	2169.82
545.15	2108.38
545.35	2187.03
545.55	2029.33
545.75	1905.43
545.96	2258.09
546.16	1864.06
546.36	1916.90
546.56	1952.74
546.76	2084.22
546.97	2188.05
547.17	1936.15
547.37	1987.96
547.57	1893.55
547.77	2043.67
547.97	1986.32
548.18	1966.66
548.38	1944.75
548.58	2142.79
548.78	1892.53
548.98	2023.19
549.18	2174.94
549.39	2225.32
549.59	2071.11
549.79	1994.31
549.99	2183.54
550.19	2117.80
550.39	2047.97
550.60	1943.73
550.80	2014.79
551.00	2062.10
551.20	1882.70
551.40	1874.51
551.60	2027.49
551.80	2009.47
552.01	2038.34
552.21	1919.15
552.41	1964.62
552.61	2216.11
552.81	1976.90
553.01	1855.05
553.21	2006.19
553.42	1854.85
553.62	1868.98
553.82	1865.70
554.02	2161.43
554.22	2063.33
554.42	1831.91
554.62	1982.02
554.83	2169.41
555.03	2225.12
555.23	2010.49
555.43	2249.90
555.63	2129.89
555.83	2068.24
556.03	2024.42
556.23	1877.37
556.44	2048.99
556.64	2170.03
556.84	1735.04
557.04	1903.59
557.24	2011.72
557.44	1996.36
557.64	1931.85
557.84	1846.86
558.04	1916.90
558.25	2026.47
558.45	1844.81
558.65	1933.90
558.85	1945.16
559.05	1718.66
559.25	1875.73
559.45	1993.08
559.65	2244.57
559.85	2659.90
560.05	2052.06
560.26	2089.54
560.46	2092.41
560.66	2033.63
560.86	1931.85
561.06	1859.15
561.26	2189.07
561.46	2075.00
561.66	1870.21
561.86	2009.67
562.06	1854.64
562.26	1916.69
562.47	1943.52
562.67	1802.42
562.87	2025.24
563.07	1766.99
563.27	1935.33
563.47	1957.04
563.67	1891.09
563.87	2035.48
564.07	1858.74
564.27	1978.95
564.47	2008.03
564.67	2035.27
564.87	1911.37
565.08	2047.97
565.28	1920.79
565.48	2048.58
565.68	1994.31
565.88	2007.83
566.08	2202.80
566.28	1981.20
566.48	1817.78
566.68	1926.93
566.88	1926.93
567.08	2073.57
567.28	1904.41
567.48	1925.30
567.68	2011.51
567.88	1805.49
568.08	1974.24
568.28	2067.63
568.48	1932.05
568.68	2096.30
568.89	1938.61
569.09	1773.95
569.29	2056.98
569.49	2059.03
569.69	1820.23
569.89	1835.80
570.09	1727.26
570.29	1882.08
570.49	1783.78
570.69	1841.33
570.89	2044.49
571.09	2214.88
571.29	1769.65
571.49	2046.94
571.69	1989.40
571.89	2012.33
572.09	1899.90
572.29	1877.78
572.49	2061.49
572.69	2012.74
572.89	1952.94
573.09	1684.25
573.29	1963.80
573.49	1986.53
573.69	1950.69
573.89	2038.75
574.09	1923.04
574.29	2112.07
574.49	1914.44
574.69	1883.31
574.89	1810.81
575.09	1843.17
575.29	1831.70
575.49	1923.45
575.69	2013.77
575.89	1782.96
576.09	1931.23
576.29	1944.14
576.49	1848.70
576.69	1944.34
576.89	1858.53
577.09	1924.68
577.29	1793.41
577.49	2208.73
577.69	1856.07
577.89	2008.85
578.09	1969.94
578.29	1788.70
578.49	1930.82
578.69	1860.78
578.89	2077.87
579.09	1940.45
579.29	1826.58
579.49	2043.67
579.69	1928.16
579.89	2170.23
580.09	1739.54
580.29	1758.59
580.49	1894.17
580.69	1832.32
580.89	1898.06
581.09	1902.97
581.29	1892.32
581.49	1922.43
581.69	1809.99
581.89	1839.28
582.09	1832.52
582.28	1851.57
582.48	2026.26
582.68	2060.87
582.88	2114.12
583.08	1937.58
583.28	1903.79
583.48	1929.39
583.68	1863.86
583.88	1949.05
584.08	1953.15
584.28	1934.10
584.48	2197.47
584.68	1999.84
584.88	1890.07
585.08	2071.73
585.28	2108.59
585.48	2105.31
585.68	2003.73
585.87	2029.13
586.07	2014.18
586.27	1958.27
586.47	2034.86
586.67	1937.17
586.87	1958.88
587.07	1913.01
587.27	1850.34
587.47	2003.94
587.67	2194.60
587.87	2351.68
588.07	2077.87
588.27	2007.01
588.46	2163.47
588.66	2217.95
588.86	2018.68
589.06	2072.75
589.26	2118.42
589.46	2080.33
589.66	1871.43
589.86	1878.19
590.06	1950.08
590.26	2055.96
590.46	2000.25
590.66	2117.80
590.85	2030.36
591.05	2114.53
591.25	1945.78
591.45	1956.63
591.65	2082.58
591.85	2035.48
592.05	1976.29
592.25	2066.81
592.45	2144.22
592.64	1985.30
592.84	1998.00
593.04	1883.52
593.24	2302.74
593.44	1932.87
593.64	2022.78
593.84	2027.90
594.04	1946.18
594.24	2181.70
594.43	1911.78
594.63	1968.51
594.83	2119.65
595.03	2063.94
595.23	1878.81
595.43	1802.62
595.63	1860.78
595.83	2057.39
596.02	1739.95
596.22	1959.09
596.42	1987.76
596.62	1950.49
596.82	1896.21
597.02	2002.30
597.22	2143.40
597.41	1981.20
597.61	1887.41
597.81	2000.05
598.01	2058.82
598.21	1920.18
598.41	1914.85
598.61	1866.11
598.80	1970.56
599.00	2009.47
599.20	2081.97
599.40	1889.66
599.60	1966.66
599.80	2067.22
599.99	2088.31
600.19	1939.22
600.39	2001.48
600.59	2071.52
600.79	1997.59
600.99	2027.69
601.19	2204.43
601.38	2246.01
601.58	2001.07
601.78	1759.00
601.98	2078.48
602.18	2163.68
602.37	2455.92
602.57	2311.13
602.77	2457.56
602.97	2440.15
603.17	2519.21
603.37	2346.15
603.56	2421.31
603.76	2379.13
603.96	2307.24
604.16	2297.62
604.36	2335.91
604.56	2278.16
604.75	2038.75
604.95	2070.70
605.15	2277.34
605.35	2215.49
605.55	2041.42
605.74	1976.09
605.94	2191.74
606.14	2058.21
606.34	2033.63
606.54	1986.94
606.73	1933.90
606.93	2064.76
607.13	1864.06
607.33	1966.25
607.53	2151.39
607.72	2085.04
607.92	2035.89
608.12	2037.32
608.32	1944.96
608.51	2042.23
608.71	1833.75
608.91	1958.88
609.11	2052.06
609.31	1918.54
609.50	2017.04
609.70	2126.00
609.90	2127.43
610.10	2103.67
610.29	1989.60
610.49	1925.50
610.69	2084.63
610.89	2036.50
611.09	2058.21
611.28	2122.51
611.48	2109.20
611.68	1989.40
611.88	1931.44
612.07	1885.16
612.27	2051.45
612.47	1882.90
612.67	1964.82
612.86	2068.45
613.06	1951.92
613.26	1768.22
613.46	1887.20
613.65	1934.31
613.85	2336.53
614.05	2061.69
614.25	2052.27
614.44	1922.22
614.64	1957.65
614.84	1893.55
615.04	1869.80
615.23	1866.11
615.43	2026.67
615.63	2028.51
615.83	1848.09
616.02	1788.29
616.22	2070.50
616.42	1859.76
616.62	1906.66
616.81	1991.04
617.01	2055.34
617.21	2001.48
617.41	1860.78
617.60	1934.51
617.80	2056.37
618.00	2049.61
618.19	1988.78
618.39	1952.74
618.59	2016.84
618.79	1927.14
618.98	1740.16
619.18	1894.78
619.38	2217.34
619.57	1914.03
619.77	1902.15
619.97	1910.96
620.17	1856.07
620.36	1813.68
620.56	2053.70
620.76	1802.62
620.95	1812.45
621.15	1925.91
621.35	1824.33
621.54	1862.22
621.74	1985.71
621.94	1848.50
622.14	1803.85
622.33	1763.92
622.53	1928.16
622.73	1895.80
622.92	1758.18
623.12	1934.72
623.32	2150.16
623.51	2042.85
623.71	1790.74
623.91	2054.32
624.10	1860.37
624.30	1942.29
624.50	1820.23
624.69	1821.67
624.89	2461.04
625.09	1926.73
625.29	1720.91
625.48	1821.05
625.68	1972.19
625.88	2072.75
626.07	1970.56
626.27	1811.43
626.47	1897.24
626.66	1731.76
626.86	1900.92
627.06	1916.08
627.25	1921.20
627.45	2192.76
627.64	1919.97
627.84	2099.58
628.04	1846.65
628.23	2214.47
628.43	1819.62
628.63	1852.80
628.82	1892.32
629.02	2196.86
629.22	2014.59
629.41	2112.68
629.61	2018.89
629.81	2240.07
630.00	1875.32
630.20	1848.09
630.40	2010.49
630.59	2050.43
630.79	1930.62
630.98	1945.78
631.18	1948.44
631.38	1931.44
631.57	2075.82
631.77	1789.92
631.97	1975.68
632.16	1991.24
632.36	1945.78
632.56	1958.47
632.75	1956.42
632.95	2060.46
633.14	1794.02
633.34	2057.80
633.54	1746.51
633.73	1892.32
633.93	1861.60
634.12	1748.56
634.32	2264.44
634.52	1947.82
634.71	1797.91
634.91	1974.86
635.11	1803.24
635.30	1877.99
635.50	1968.30
635.69	1836.82
635.89	2171.67
636.09	2088.31
636.28	1837.64
636.48	1871.43
636.67	2025.85
636.87	2024.62
637.07	2014.38
637.26	1885.77
637.46	1997.38
637.65	2103.67
637.85	1996.56
638.04	1876.14
638.24	1955.81
638.44	2053.29
638.63	1944.96
638.83	1915.26
639.02	2017.25
639.22	2051.66
639.42	1931.23
639.61	1949.67
639.81	1958.88
640.00	1952.74
640.20	1999.02
640.39	2008.65
640.59	2298.23
640.79	2225.94
640.98	2186.41
641.18	2182.93
641.37	2207.71
641.57	2076.64
641.76	2090.36
641.96	1882.29
642.15	2097.94
642.35	1996.77
642.55	2034.86
642.74	1893.76
642.94	2120.26
643.13	2167.16
643.33	1939.84
643.52	1888.23
643.72	1915.67
643.91	1968.51
644.11	1890.68
644.31	1850.54
644.50	1895.40
644.70	2100.40
644.89	1949.26
645.09	1995.34
645.28	1960.52
645.48	2038.75
645.67	1873.69
645.87	1765.55
646.06	1932.67
646.26	2010.08
646.45	1731.56
646.65	1725.82
646.84	2191.12
647.04	1913.83
647.24	1816.55
647.43	1974.24
647.63	2005.99
647.82	2149.34
648.02	1830.06
648.21	1891.91
648.41	2137.26
648.60	1911.98
648.80	2074.80
648.99	1947.21
649.19	1892.94
649.38	1771.29
649.58	1992.67
649.77	1976.70
649.97	2084.22
650.16	2035.89
650.36	1749.17
650.55	2050.84
650.75	2010.70
650.94	2175.97
651.14	1940.66
651.33	1977.31
651.53	2166.75
651.72	1861.81
651.92	1936.76
652.11	1758.18
652.31	2018.48
652.50	2023.80
652.70	1977.11
652.89	1826.79
653.09	2176.38
653.28	1977.93
653.48	1783.58
653.67	1762.69
653.87	2375.85
654.06	1980.80
654.25	2082.99
654.45	1872.46
654.64	1914.65
654.84	1956.01
655.03	1710.67
655.23	2063.53
655.42	2033.63
655.62	2199.72
655.81	1973.22
656.01	1871.84
656.20	2058.00
656.40	2138.08
656.59	1963.18
656.79	2069.88
656.98	1992.88
657.17	2073.36
657.37	1957.86
657.56	1872.46
657.76	2033.43
657.95	2081.76
658.15	1633.87
658.34	1928.37
658.54	1949.05
658.73	1820.03
658.92	1897.85
659.12	1947.62
659.31	2047.97
659.51	1864.88
659.70	2021.55
659.90	1920.59
660.09	2098.96
660.29	1966.25
660.48	1868.36
660.67	2102.24
660.87	1902.56
661.06	2036.70
661.26	2016.84
661.45	2025.24
661.65	2010.49
661.84	1895.19
662.03	1876.96
662.23	1900.72
662.42	2195.01
662.62	1831.29
662.81	1816.14
663.00	1924.89
663.20	2017.86
663.39	2108.18
663.59	2150.16
663.78	2033.84
663.97	2052.27
664.17	2202.80
664.36	1909.32
664.56	1931.03
664.75	2134.39
664.94	2108.79
665.14	2017.25
665.33	1971.37
665.53	1981.41
665.72	2022.98
665.91	2102.85
666.11	1963.80
666.30	2011.51
666.50	1966.25
666.69	2041.42
666.88	2027.69
667.08	2146.27
667.27	2077.87
667.47	2135.01
667.66	2070.09
667.85	2249.49
668.05	2106.54
668.24	2004.55
668.43	2161.43
668.63	1995.13
668.82	2152.21
669.02	2072.13
669.21	1999.84
669.40	1866.11
669.60	2216.31
669.79	1830.88
669.98	2407.80
670.18	1858.53
670.37	1838.05
670.56	1880.44
670.76	1946.18
670.95	1938.40
671.15	2071.32
671.34	1992.88
671.53	1911.78
671.73	1916.90
671.92	1864.27
672.11	1816.75
672.31	1876.96
672.50	1995.95
672.69	1815.11
672.89	1711.69
673.08	1896.83
673.27	2045.31
673.47	2005.17
673.66	1958.27
673.85	1829.45
674.05	1999.43
674.24	2184.36
674.43	2177.61
674.63	2446.50
674.82	2778.07
675.01	2261.16
675.21	2465.75
675.40	2272.22
675.59	2200.54
675.79	2426.23
675.98	2121.08
676.17	2240.89
676.37	2159.38
676.56	2055.55
676.75	2059.23
676.95	2014.59
677.14	1966.46
677.33	2100.40
677.52	1836.00
677.72	1886.59
677.91	1973.22
678.10	1786.03
678.30	1816.75
678.49	1799.35
678.68	2193.58
678.88	1707.39
679.07	2035.68
679.26	1859.35
679.45	2145.04
679.65	2073.36
679.84	1727.26
680.03	1765.55
680.23	1898.26
680.42	2240.48
680.61	1785.83
680.81	1835.59
681.00	1936.97
681.19	1985.30
681.38	2016.63
681.58	1993.08
681.77	1893.35
681.96	2011.72
682.15	1870.61
682.35	1952.94
682.54	1981.82
682.73	1786.85
682.93	1836.41
683.12	1833.55
683.31	2039.78
683.50	2274.27
683.70	1842.76
683.89	1920.99
684.08	1815.11
684.27	2065.58
684.47	1762.07
684.66	1961.75
684.85	2206.89
685.04	2112.89
685.24	1879.63
685.43	1935.94
685.62	1736.27
685.81	1993.29
686.01	2099.17
686.20	2111.05
686.39	2153.85
686.58	2614.64
686.78	2402.06
686.97	2366.63
687.16	2367.45
687.35	2248.67
687.55	2119.85
687.74	2143.40
687.93	2029.13
688.12	2107.56
688.32	2085.45
688.51	1867.54
688.70	2080.33
688.89	1897.24
689.08	1834.16
689.28	1881.67
689.47	1980.18
689.66	1969.74
689.85	2000.05
690.05	1866.31
690.24	1868.98
690.43	1961.34
690.62	1950.49
690.81	1853.82
691.01	1954.58
691.20	1914.24
691.39	1829.86
691.58	1977.31
691.77	2209.76
691.97	1987.35
692.16	1982.43
692.35	1907.27
692.54	1878.40
692.73	2079.30
692.93	2041.82
693.12	2086.68
693.31	2156.72
693.50	2112.27
693.69	2117.80
693.89	1996.97
694.08	2193.58
694.27	2190.92
694.46	1913.42
694.65	2033.02
694.85	2095.89
695.04	2107.36
695.23	2293.11
695.42	3769.08
695.61	5140.40
695.80	6104.18
696.00	6945.89
696.19	7398.49
696.38	6507.22
696.57	5284.17
696.76	5127.29
696.95	4721.39
697.15	4560.83
697.34	4231.31
697.53	3698.63
697.72	3539.30
697.91	3141.38
698.10	3038.37
698.30	2478.66
698.49	2277.34
698.68	2217.95
698.87	2038.55
699.06	1905.23
699.25	1964.62
699.45	2095.89
699.64	1996.56
699.83	2021.96
700.02	1832.32
700.21	1969.94
700.40	1874.92
700.59	1891.09
700.79	1881.88
700.98	2001.48
701.17	1874.30
701.36	1862.63
701.55	1859.97
701.74	2103.26
701.93	1957.45
702.12	2160.20
702.32	2123.13
702.51	2400.42
702.70	2385.27
702.89	2243.75
703.08	2073.98
703.27	2280.21
703.46	2179.86
703.65	2063.53
703.85	1922.02
704.04	1971.99
704.23	2159.99
704.42	1894.17
704.61	1917.51
704.80	2167.16
704.99	1885.77
705.18	1979.57
705.37	2108.18
705.57	3174.97
705.76	4674.08
705.95	5156.99
706.14	6218.25
706.33	6734.13
706.52	6567.84
706.71	5101.08
706.90	4720.36
707.09	4473.38
707.28	4214.92
707.47	3822.53
707.67	3692.08
707.86	3334.71
708.05	3271.83
708.24	2854.25
708.43	2593.14
708.62	2300.07
708.81	2089.34
709.00	1924.89
709.19	1907.48
709.38	2090.36
709.57	1838.46
709.76	1987.96
709.96	1918.74
710.15	2166.14
710.34	1981.20
710.53	2065.58
710.72	1952.53
710.91	2102.44
711.10	2029.54
711.29	2017.45
711.48	1877.99
711.67	1845.42
711.86	2017.04
712.05	1817.37
712.24	1867.54
712.43	2042.85
712.62	2131.73
712.81	1944.75
713.00	2039.98
713.19	1812.04
713.39	2018.48
713.58	1941.27
713.77	2226.14
713.96	2374.01
714.15	2333.66
714.34	2394.08
714.53	2227.17
714.72	2480.50
714.91	2126.82
715.10	2199.72
715.29	2038.55
715.48	2541.32
715.67	2217.54
715.86	2126.82
716.05	2025.44
716.24	2007.42
716.43	1959.29
716.62	1851.98
716.81	1829.86
717.00	1883.31
717.19	2123.95
717.38	1929.60
717.57	1905.84
717.76	1765.55
717.95	2044.08
718.14	1923.45
718.33	1856.07
718.52	1719.27
718.71	1771.08
718.90	1775.79
719.09	1861.40
719.28	1934.10
719.47	2044.08
719.66	2038.14
719.85	2026.87
720.04	1987.14
720.23	2032.81
720.42	1926.32
720.61	2043.87
720.80	1842.15
720.99	2018.89
721.18	1919.77
721.37	1874.30
721.56	1932.87
721.75	2050.43
721.94	1847.88
722.13	1923.25
722.32	1904.41
722.51	2075.00
722.70	1939.84
722.89	1987.35
723.08	1938.20
723.27	2045.51
723.46	1961.95
723.65	1881.88
723.84	1874.30
724.03	2101.42
724.22	1801.19
724.41	1970.76
724.60	1900.52
724.79	2048.79
724.98	1968.10
725.16	1907.68
725.35	2018.68
725.54	1806.10
725.73	1944.75
725.92	1970.56
726.11	2171.05
726.30	2713.97
726.49	2676.29
726.68	2982.05
726.87	3206.30
727.06	3236.20
727.25	2698.40
727.44	2728.71
727.63	2596.62
727.82	2493.40
728.01	2459.61
728.20	2463.71
728.38	2526.58
728.57	2256.66
728.76	2206.28
728.95	2251.54
729.14	1960.11
729.33	1912.60
729.52	1773.95
729.71	1892.53
729.90	1861.60
730.09	1929.19
730.28	1999.84
730.47	1930.21
730.66	2191.53
730.84	2097.73
731.03	2053.70
731.22	2081.15
731.41	2035.89
731.60	2075.41
731.79	1829.04
731.98	1924.27
732.17	2100.60
732.36	2043.46
732.55	1934.10
732.73	1850.95
732.92	2158.15
733.11	2026.87
733.30	1907.27
733.49	1811.84
733.68	2070.09
733.87	2022.16
734.06	1904.82
734.25	1950.90
734.43	2039.37
734.62	2174.74
734.81	2130.50
735.00	2105.52
735.19	2109.41
735.38	2126.41
735.57	1928.16
735.76	2105.31
735.94	2190.10
736.13	2516.75
736.32	2437.08
736.51	2423.77
736.70	2762.30
736.89	2852.00
737.08	3137.28
737.27	4950.35
737.45	7383.54
737.64	8522.83
737.83	9977.29
738.02	10702.07
738.21	10008.63
738.40	7890.41
738.59	7156.83
738.77	6579.92
738.96	6155.17
739.15	5751.52
739.34	5339.05
739.53	4874.17
739.72	4581.31
739.90	4096.14
740.09	3393.89
740.28	3079.94
740.47	2790.77
740.66	2507.33
740.85	2146.48
741.03	2156.72
741.22	1990.01
741.41	2069.68
741.60	1903.79
741.79	2060.87
741.98	2158.97
742.16	2275.50
742.35	2078.89
742.54	2070.70
742.73	2372.57
742.92	2089.34
743.10	1979.16
743.29	2045.31
743.48	2417.22
743.67	2051.45
743.86	1925.09
744.05	1936.56
744.23	1965.44
744.42	1976.70
744.61	2029.54
744.80	1925.09
744.99	1986.12
745.17	1839.90
745.36	1896.83
745.55	2100.60
745.74	2053.09
745.93	1983.66
746.11	1992.26
746.30	1959.09
746.49	2165.11
746.68	1935.94
746.86	2012.13
747.05	2067.42
747.24	2134.60
747.43	2124.77
747.62	1900.92
747.80	2007.21
747.99	2254.20
748.18	2202.18
748.37	2142.38
748.56	2169.00
748.74	2266.90
748.93	2360.90
749.12	3793.45
749.31	8302.67
749.49	12290.27
749.68	14887.09
749.87	17354.90
750.06	18491.11
750.24	17377.63
750.43	16495.16
750.62	18177.77
750.81	18578.15
750.99	19392.63
751.18	18839.26
751.37	15851.07
751.56	13157.38
751.74	12617.74
751.93	11207.10
752.12	9342.42
752.31	8090.71
752.49	6925.82
752.68	6222.55
752.87	5210.44
753.06	4453.31
753.24	3816.80
753.43	3470.08
753.62	2792.41
753.81	2481.93
753.99	2538.46
754.18	2305.60
754.37	2029.95
754.55	2109.00
754.74	2316.87
754.93	1875.53
755.12	1997.18
755.30	1941.88
755.49	2142.18
755.68	2051.45
755.86	2063.33
756.05	1882.49
756.24	2188.66
756.43	1872.66
756.61	1871.43
756.80	2041.42
756.99	2144.63
757.17	1993.90
757.36	1890.28
757.55	2016.43
757.74	2070.50
757.92	2022.16
758.11	1856.69
758.30	1805.49
758.48	1988.99
758.67	1936.35
758.86	2059.64
759.04	1952.33
759.23	2057.18
759.42	2085.24
759.60	2017.66
759.79	2026.06
759.98	2002.71
760.16	1924.68
760.35	1914.03
760.54	1885.97
760.73	2036.70
760.91	1864.06
761.10	2014.38
761.29	2046.33
761.47	2032.20
761.66	2309.29
761.85	2085.04
762.03	2482.34
762.22	4829.93
762.41	12609.14
762.59	21638.84
762.78	26069.41
762.97	31554.28
763.15	33878.93
763.34	30782.61
763.52	22436.52
763.71	20527.00
763.90	18677.48
764.08	17453.81
764.27	15931.56
764.46	14607.75
764.64	12770.11
764.83	11342.88
765.02	9876.74
765.20	8395.03
765.39	6794.96
765.58	5007.49
765.76	4085.29
765.95	3319.35
766.13	2777.86
766.32	2446.71
766.51	2282.05
766.69	2770.49
766.88	2166.96
767.07	1966.25
767.25	1828.63
767.44	2143.40
767.62	2138.69
767.81	1937.17
768.00	2008.44
768.18	2009.67
768.37	1945.78
768.56	1843.58
768.74	1891.91
768.93	1831.50
769.11	2034.45
769.30	1944.34
769.49	1868.77
769.67	1923.66
769.86	1904.82
770.04	1895.80
770.23	1919.97
770.42	2145.66
770.60	1945.78
770.79	1854.85
770.97	2021.55
771.16	3044.10
771.35	5063.40
771.53	6979.07
771.72	8114.26
771.90	9548.65
772.09	10149.53
772.27	8949.42
772.46	6764.24
772.65	6741.09
772.83	6144.52
773.02	5872.55
773.20	5337.01
773.39	5077.94
773.58	4707.05
773.76	4094.30
773.95	3825.61
774.13	3555.07
774.32	3100.62
774.50	2606.65
774.69	2460.84
774.87	2220.61
775.06	2440.56
775.25	1979.36
775.43	1995.75
775.62	2038.55
775.80	2055.34
775.99	2001.68
776.17	1889.46
776.36	2005.99
776.54	2140.54
776.73	1935.94
776.92	2001.48
777.10	2097.12
777.29	2049.40
777.47	1883.52
777.66	1922.22
777.84	1966.25
778.03	1962.77
778.21	1857.10
778.40	1949.05
778.58	2020.32
778.77	2086.06
778.95	1780.71
779.14	1866.93
779.32	2147.70
779.51	2065.79
779.70	1895.60
779.88	1784.19
780.07	1894.58
780.25	2253.58
780.44	1885.16
780.62	2037.52
780.81	1992.26
780.99	1987.55
781.18	1868.16
781.36	1874.71
781.55	1939.02
781.73	2136.65
781.92	1833.34
782.10	1813.68
782.29	1992.26
782.47	2133.16
782.66	1935.94
782.84	1819.21
783.03	1847.27
783.21	2106.95
783.40	1921.81
783.58	1897.65
783.77	1875.94
783.95	1948.03
784.14	1845.22
784.32	1910.14
784.51	2111.25
784.69	1876.14
784.88	1803.03
785.06	1895.80
785.24	1790.33
785.43	2060.26
785.61	1985.51
785.80	1862.63
785.98	2044.69
786.17	1962.98
786.35	1839.28
786.54	2009.47
786.72	2085.24
786.91	2092.00
787.09	1915.06
787.28	1827.40
787.46	1994.11
787.65	2066.81
787.83	1843.79
788.01	1981.82
788.20	1841.53
788.38	1991.85
788.57	1922.63
788.75	1977.11
788.94	2235.56
789.12	2146.48
789.31	1964.41
789.49	2050.84
789.67	1941.88
789.86	2054.52
790.04	1875.53
790.23	1808.97
790.41	2259.73
790.60	1946.39
790.78	1948.23
790.96	1956.63
791.15	2098.55
791.33	1970.35
791.52	1946.39
791.70	1878.60
791.89	1969.12
792.07	2083.19
792.25	1976.29
792.44	1850.54
792.62	2135.83
792.81	1957.86
792.99	2008.44
793.17	1950.08
793.36	2040.39
793.54	2833.57
793.73	4300.32
793.91	6204.32
794.10	7437.40
794.28	8733.15
794.46	9089.91
794.65	8689.53
794.83	6835.10
795.01	6205.14
795.20	6071.82
795.38	5618.81
795.57	5285.19
795.75	5027.15
795.93	4590.32
796.12	4266.94
796.30	3974.08
796.49	3708.46
796.67	3185.41
796.85	3080.55
797.04	2802.65
797.22	2617.71
797.40	2238.43
797.59	2287.58
797.77	2231.26
797.96	2074.18
798.14	2065.79
798.32	2019.50
798.51	2211.81
798.69	2338.37
798.87	2073.16
799.06	2032.61
799.24	2022.98
799.42	2756.57
799.61	3820.08
799.79	4736.95
799.98	5607.13
800.16	6231.76
800.34	7962.30
800.53	10098.94
800.71	10726.44
800.89	12320.78
801.08	12715.63
801.26	12640.47
801.44	10516.93
801.63	8613.35
801.81	8382.54
801.99	7564.99
802.18	7047.47
802.36	6598.35
802.54	6048.68
802.73	5229.69
802.91	4785.90
803.09	4305.65
803.28	3924.11
803.46	3593.78
803.64	3301.74
803.83	2646.59
804.01	2390.59
804.19	2234.13
804.38	2337.76
804.56	2253.79
804.74	2122.92
804.92	2143.81
805.11	1983.87
805.29	2217.34
805.47	2032.61
805.66	1930.62
805.84	1935.54
806.02	2204.23
806.21	2014.38
806.39	2135.21
806.57	2187.85
806.76	2186.62
806.94	2071.11
807.12	2049.81
807.30	2093.64
807.49	2228.39
807.67	2212.83
807.85	2276.52
808.04	2253.58
808.22	2415.37
808.40	1978.75
808.58	1936.56
808.77	2133.78
808.95	2425.61
809.13	3099.60
809.31	5907.16
809.50	9168.14
809.68	10809.38
809.86	12370.14
810.05	13527.24
810.23	15520.33
810.41	23334.56
810.59	40288.67
810.78	50391.50
810.96	58620.44
811.14	63400.61
811.32	62847.25
811.51	51195.12
811.69	40182.79
811.87	39444.49
812.05	34424.10
812.24	32244.65
812.42	29368.90
812.60	26090.30
812.78	22182.98
812.97	18685.67
813.15	16409.96
813.33	13890.14
813.51	11661.95
813.70	9226.10
813.88	7165.64
814.06	5496.95
814.24	4294.80
814.42	3312.59
814.61	2965.66
814.79	2856.71
814.97	2264.64
815.15	2276.11
815.34	2331.20
815.52	2286.97
815.70	2025.44
815.88	2015.82
816.06	1991.85
816.25	2013.77
816.43	1921.81
816.61	2072.34
816.79	2189.69
816.98	1859.76
817.16	1914.03
817.34	1867.13
817.52	2021.14
817.70	2163.06
817.89	1914.44
818.07	1838.46
818.25	1958.27
818.43	1951.10
818.61	1919.15
818.80	1845.02
818.98	2166.34
819.16	1947.41
819.34	1768.01
819.52	2081.76
819.70	1828.02
819.89	1934.10
820.07	1785.01
820.25	1723.16
820.43	1935.54
820.61	2058.62
820.80	1903.59
820.98	1817.37
821.16	1736.06
821.34	1784.19
821.52	1895.40
821.70	1912.39
821.89	1934.10
822.07	1941.47
822.25	1907.89
822.43	1815.93
822.61	2131.53
822.79	1978.75
822.98	1890.48
823.16	1736.06
823.34	1981.20
823.52	2081.35
823.70	1991.24
823.88	1768.63
824.06	2014.18
824.25	1944.75
824.43	1999.64
824.61	1803.44
824.79	1925.09
824.97	1981.20
825.15	2192.56
825.33	2969.76
825.52	4243.39
825.70	4927.21
825.88	5467.26
826.06	6023.28
826.24	6191.21
826.42	5478.93
826.60	4520.07
826.78	4565.13
826.97	4088.77
827.15	4119.49
827.33	3605.45
827.51	3623.27
827.69	3304.40
827.87	3157.56
828.05	2937.81
828.23	2646.39
828.41	2730.97
828.60	2605.63
828.78	2178.42
828.96	2249.49
829.14	2078.48
829.32	2029.74
829.50	1940.66
829.68	1918.54
829.86	1908.50
830.04	2021.14
830.22	1961.34
830.41	1835.39
830.59	1919.56
830.77	2015.41
830.95	1834.98
831.13	1833.34
831.31	1842.35
831.49	2049.81
831.67	2009.67
831.85	2004.35
832.03	1864.88
832.21	2006.60
832.39	1767.19
832.57	1804.47
832.76	2017.25
832.94	1919.15
833.12	1734.63
833.30	1880.65
833.48	2068.65
833.66	1965.23
833.84	1849.11
834.02	1890.89
834.20	2044.28
834.38	2024.21
834.56	1731.56
834.74	1794.23
834.92	1766.99
835.10	2126.41
835.28	1927.34
835.46	1897.65
835.64	1910.55
835.82	1839.08
836.01	2128.25
836.19	2015.82
836.37	1884.54
836.55	1834.78
836.73	1819.21
836.91	1813.68
837.09	2010.49
837.27	2134.39
837.45	1788.90
837.63	1802.42
837.81	1774.16
837.99	1937.79
838.17	1916.90
838.35	1840.10
838.53	2259.11
838.71	2081.97
838.89	1877.17
839.07	1870.61
839.25	2006.39
839.43	2198.49
839.61	2563.85
839.79	4561.24
839.97	6923.16
840.15	8241.64
840.33	9383.59
840.51	10179.02
840.69	9826.36
840.87	7865.63
841.05	6985.62
841.23	7681.32
841.41	9900.09
841.59	14255.71
841.77	16273.77
841.95	17784.56
842.13	18937.77
842.31	18336.90
842.49	14519.69
842.67	12004.58
842.85	11726.46
843.03	10142.97
843.21	9552.96
843.39	8710.22
843.57	7722.07
843.75	6948.76
843.93	5896.51
844.11	5145.93
844.29	4691.08
844.47	4259.98
844.65	4071.36
844.83	3509.81
845.01	3115.37
845.19	2857.94
845.36	2418.04
845.54	2302.74
845.72	2132.75
845.90	2127.43
846.08	1884.13
846.26	1940.86
846.44	2049.61
846.62	1990.22
846.80	1951.30
846.98	1887.20
847.16	1916.49
847.34	1938.81
847.52	1772.72
847.70	1811.63
847.88	1914.24
848.06	2085.86
848.24	1977.72
848.41	1757.16
848.59	2043.46
848.77	1970.76
848.95	1836.00
849.13	1830.88
849.31	2021.14
849.49	1941.47
849.67	1785.62
849.85	1770.06
850.03	1971.58
850.21	1955.20
850.39	1809.99
850.57	1966.46
850.74	2128.45
850.92	2289.01
851.10	2785.85
851.28	3754.54
851.46	4442.25
851.64	5167.03
851.82	5157.40
852.00	5194.67
852.18	4682.27
852.36	4019.14
852.53	3802.26
852.71	3599.10
852.89	3537.05
853.07	3337.98
853.25	3058.85
853.43	2851.80
853.61	2826.40
853.79	2656.42
853.97	2414.96
854.14	2293.32
854.32	2501.80
854.50	2353.32
854.68	2116.58
854.86	2019.71
855.04	1936.15
855.22	2058.41
855.40	1787.26
855.57	1845.42
855.75	2010.08
855.93	1973.42
856.11	1718.25
856.29	1784.60
856.47	1830.27
856.65	1923.66
856.82	1768.42
857.00	1738.73
857.18	1864.68
857.36	1841.74
857.54	1870.21
857.72	1977.11
857.89	1975.88
858.07	1919.15
858.25	1993.49
858.43	1756.75
858.61	1872.46
858.79	1896.01
858.97	1771.08
859.14	1919.97
859.32	1873.28
859.50	1851.77
859.68	1913.21
859.86	1812.66
860.03	1945.37
860.21	1957.86
860.39	1819.42
860.57	1887.61
860.75	1965.03
860.93	2140.54
861.10	2023.39
861.28	1825.76
861.46	1941.06
861.64	1983.46
861.82	1866.52
861.99	1942.70
862.17	2027.49
862.35	2036.30
862.53	1873.69
862.71	1867.34
862.88	1929.39
863.06	2016.02
863.24	1851.57
863.42	1804.26
863.60	1878.60
863.77	1947.82
863.95	1714.97
864.13	1888.23
864.31	1865.70
864.49	1979.77
864.66	1734.02
864.84	1823.72
865.02	1947.21
865.20	2240.48
865.37	1890.68
865.55	1836.62
865.73	1896.21
865.91	2276.52
866.09	2295.36
866.26	2356.39
866.44	2517.98
866.62	2419.06
866.80	2260.55
866.97	2234.95
867.15	2208.73
867.33	2221.43
867.51	2218.77
867.68	2136.85
867.86	2063.12
868.04	2004.14
868.22	1841.94
868.39	1910.55
868.57	2026.47
868.75	2147.50
868.93	1800.37
869.10	1876.55
869.28	2175.97
869.46	2092.41
869.64	1889.66
869.81	1857.10
869.99	1961.34
870.17	1927.34
870.35	1803.03
870.52	1779.48
870.70	2014.59
870.88	1825.76
871.05	1745.07
871.23	1660.08
871.41	1880.24
871.59	1874.71
871.76	1830.06
871.94	1799.96
872.12	1891.30
872.29	1760.64
872.47	1787.67
872.65	1758.59
872.83	1930.42
873.00	2065.17
873.18	1847.68
873.36	1792.18
873.53	1976.70
873.71	1723.57
873.89	1790.74
874.06	1854.85
874.24	1909.32
874.42	2038.55
874.60	1974.65
874.77	1874.71
874.95	1784.40
875.13	1998.00
875.30	1776.82
875.48	1815.52
875.66	2093.23
875.83	1813.27
876.01	1820.03
876.19	1977.31
876.36	1744.87
876.54	1921.20
876.72	1756.75
876.89	1907.48
877.07	1991.85
877.25	1702.89
877.42	1908.09
877.60	1856.69
877.78	2116.78
877.95	1841.12
878.13	1782.55
878.31	1922.22
878.48	2006.60
878.66	1965.85
878.84	1788.49
879.01	1847.47
879.19	1924.68
879.37	1966.25
879.54	1832.93
879.72	1766.17
879.90	1695.10
880.07	1996.16
880.25	1612.57
880.42	1952.12
880.60	1888.43
880.78	1994.11
880.95	1817.98
881.13	1832.32
881.31	1885.16
881.48	1821.67
881.66	1777.02
881.83	1887.61
882.01	1799.35
882.19	1725.00
882.36	1863.45
882.54	1815.93
882.72	1966.25
882.89	1900.31
883.07	1756.95
883.24	1820.44
883.42	1974.04
883.60	1914.44
883.77	1759.61
883.95	1796.27
884.12	2004.76
884.30	1903.79
884.48	1943.93
884.65	1875.32
884.83	1924.48
885.00	1922.02
885.18	1753.47
885.36	1816.96
885.53	1955.40
885.71	2048.99
885.88	1751.22
886.06	1811.43
886.23	1977.31
886.41	1813.07
886.59	1799.96
886.76	1787.88
886.94	1977.31
887.11	2226.14
887.29	1844.61
887.47	1704.73
887.64	2047.76
887.82	2061.89
887.99	1690.39
888.17	1871.23
888.34	1843.38
888.52	1756.95
888.69	1869.39
888.87	1764.12
889.05	1843.38
889.22	1833.14
889.40	1798.94
889.57	1976.09
889.75	2069.06
889.92	1850.34
890.10	1772.31
890.27	1824.74
890.45	1798.12
890.62	1691.01
890.80	1740.16
890.98	1713.74
891.15	2072.95
891.33	1994.52
891.50	1784.60
891.68	1734.63
891.85	1995.34
892.03	1975.88
892.20	1770.06
892.38	1747.53
892.55	1971.99
892.73	1991.24
892.90	1740.16
893.08	1799.55
893.25	1831.70
893.43	1828.22
893.60	1922.22
893.78	1691.21
893.95	1909.12
894.13	1856.48
894.30	1766.58
894.48	1829.45
894.65	1985.92
894.83	1899.70
895.00	1687.12
895.18	1664.59
895.35	1977.31
895.53	1964.41
895.70	1731.76
895.88	1938.40
896.05	1944.34
896.23	1715.17
896.40	1792.79
896.58	1858.33
896.75	1973.42
896.93	2081.15
897.10	1795.66
897.28	1725.21
897.45	1893.76
897.63	1958.88
897.80	1945.98
897.98	1838.87
898.15	1934.51
898.33	1804.67
898.50	1898.88
898.67	1849.93
898.85	1831.70
899.02	1962.36
899.20	2002.30
899.37	1823.92
899.55	1881.67
899.72	2049.40
899.90	1768.22
900.07	1750.40
900.25	1944.96
900.42	2043.26
900.59	1798.12
900.77	1933.28
900.94	1945.57
901.12	1932.05
901.29	1785.83
901.47	1939.43
901.64	1967.48
901.82	1892.32
901.99	1638.58
902.16	1774.97
902.34	2025.24
902.51	1925.71
902.69	1806.51
902.86	1857.71
903.03	2358.24
903.21	1880.24
903.38	1844.20
903.56	1787.06
903.73	2011.92
903.91	1851.16
904.08	1752.45
904.25	1677.90
904.43	1795.45
904.60	2012.54
904.78	1845.22
904.95	1759.41
905.12	1828.63
905.30	2090.57
905.47	1917.10
905.65	1916.49
905.82	1860.99
905.99	1953.35
906.17	1865.09
906.34	1764.53
906.52	1816.96
906.69	1954.99
906.86	1933.08
907.04	1885.77
907.21	2025.65
907.38	2012.54
907.56	1805.90
907.73	1813.27
907.91	2080.74
908.08	2062.92
908.25	1808.77
908.43	1768.63
908.60	1967.07
908.77	1945.57
908.95	1846.24
909.12	1781.12
909.30	2015.00
909.47	1757.77
909.64	1877.17
909.82	1969.53
909.99	1884.34
910.16	1907.68
910.34	1799.55
910.51	1839.49
910.68	1960.93
910.86	1936.35
911.03	1959.29
911.20	2696.36
911.38	4792.66
911.55	7835.12
911.72	9457.31
911.90	10562.19
912.07	11485.21
912.24	11051.04
912.42	8533.68
912.59	6069.97
912.76	5651.98
912.94	4749.03
913.11	4210.21
913.28	3775.02
913.46	3559.37
913.63	3468.03
913.80	3478.07
913.98	3113.32
914.15	3169.85
914.32	3062.12
914.49	2876.99
914.67	2705.57
914.84	2842.17
915.01	2863.88
915.19	2698.61
915.36	2494.63
915.53	2544.60
915.71	2346.97
915.88	2152.21
916.05	1971.37
916.22	2115.76
916.40	1990.63
916.57	1826.58
916.74	1938.81
916.92	2128.66
917.09	1803.65
917.26	1766.58
917.43	1754.90
917.61	1841.74
917.78	1712.31
917.95	1665.82
918.13	1731.15
918.30	2164.70
918.47	1898.67
918.64	1814.91
918.82	1774.56
918.99	1934.72
919.16	2165.73
919.33	1894.17
919.51	1820.64
919.68	1915.47
919.85	2059.44
920.02	1718.66
920.20	1841.94
920.37	2100.19
920.54	2012.33
920.71	1774.36
920.89	1815.73
921.06	2116.37
921.23	1824.13
921.40	1933.08
921.58	2558.73
921.75	3437.11
921.92	3182.13
922.09	3383.86
922.27	3430.35
922.44	3310.13
922.61	2882.11
922.78	2461.45
922.96	2354.14
923.13	2227.37
923.30	2366.02
923.47	2029.54
923.64	2090.57
923.82	2227.17
923.99	2166.96
924.16	2099.58
924.33	1946.18
924.50	2079.71
924.68	2262.39
924.85	1883.72
925.02	1976.09
925.19	2129.89
925.36	2070.29
925.54	1995.95
925.71	1932.46
925.88	2346.56
926.05	1910.35
926.22	1786.85
926.40	1899.29
926.57	1935.94
926.74	2001.89
926.91	1782.55
927.08	1978.54
927.26	1987.35
927.43	1886.38
927.60	1773.13
927.77	1800.37
927.94	2114.32
928.11	2024.42
928.29	1742.62
928.46	1857.51
928.63	1804.26
928.80	1859.15
928.97	1911.16
929.14	1738.52
929.32	2164.09
929.49	1903.59
929.66	1770.88
929.83	1724.18
930.00	1828.84
930.17	1924.89
930.35	1716.61
930.52	1792.18
930.69	2077.87
930.86	1747.74
931.03	1867.54
931.20	1625.06
931.37	2002.91
931.55	1871.84
931.72	1856.28
931.89	1705.55
932.06	1742.41
932.23	2088.93
932.40	1917.51
932.57	1876.96
932.74	2050.84
932.92	2026.06
933.09	1921.20
933.26	1577.35
933.43	1827.81
933.60	1906.25
933.77	1845.22
933.94	1861.19
934.11	1864.06
934.29	1892.94
934.46	1740.57
934.63	1893.35
934.80	1812.25
934.97	1935.74
935.14	1910.14
935.31	1768.22
935.48	1843.79
935.65	1948.23
935.82	1882.49
936.00	1740.98
936.17	2101.22
936.34	1893.14
936.51	1924.89
936.68	1723.98
936.85	1930.82
937.02	1922.02
937.19	1889.66
937.36	1857.71
937.53	1926.32
937.70	2000.46
937.87	1838.87
938.05	1901.54
938.22	1891.30
938.39	1753.88
938.56	1831.09
938.73	1752.24
938.90	1842.15
939.07	1772.31
939.24	1837.85
939.41	1673.60
939.58	1918.13
939.75	1942.09
939.92	1732.58
940.09	1958.88
940.26	1841.12
940.43	1973.01
940.60	1784.40
940.77	1770.88
940.95	1917.51
941.12	1980.80
941.29	1788.90
941.46	1847.68
941.63	2036.09
941.80	2090.36
941.97	1686.91
942.14	1706.78
942.31	1973.83
942.48	1858.12
942.65	1905.63
942.82	1834.98
942.99	1947.62
943.16	1895.40
943.33	1748.56
943.50	1762.28
943.67	1965.23
943.84	2028.72
944.01	1778.66
944.18	1742.82
944.35	2033.63
944.52	1780.30
944.69	1827.20
944.86	1715.17
945.03	1950.28
945.20	2194.40
945.37	1637.56
945.54	1815.52
945.71	2029.74
945.88	2104.08
946.05	1713.54
946.22	1733.20
946.39	2025.85
946.56	1861.60
946.73	1721.32
946.90	1732.38
947.07	1836.41
947.24	1849.73
947.41	1657.63
947.58	1907.68
947.75	1952.74
947.92	1913.21
948.09	1581.44
948.26	1678.11
948.43	1917.31
948.60	2088.72
948.77	1710.05
948.94	1794.84
949.11	1978.34
949.27	1917.92
949.44	1755.31
949.61	1741.18
949.78	1928.78
949.95	1996.97
950.12	1737.50
950.29	1719.68
950.46	1816.55
950.63	1988.17
950.80	1761.87
950.97	1824.33
951.14	1984.07
951.31	1864.27
951.48	1770.26
951.65	1705.34
951.82	2096.92
951.99	1884.54
952.15	1697.36
952.32	1803.65
952.49	1819.21
952.66	1814.71
952.83	1744.05
953.00	1755.72
953.17	1867.75
953.34	1990.42
953.51	1846.45
953.68	1784.40
953.85	2008.85
954.02	2012.74
954.18	1805.69
954.35	1820.03
954.52	1807.95
954.69	1911.78
954.86	1654.96
955.03	1820.03
955.20	1974.65
955.37	1846.04
955.54	1778.46
955.71	1769.65
955.87	1879.63
956.04	2073.57
956.21	1778.66
956.38	1747.33
956.55	1891.91
956.72	2182.11
956.89	1810.40
957.06	1752.45
957.23	1806.31
957.39	2064.97
957.56	1770.26
957.73	1723.37
957.90	1638.58
958.07	2126.00
958.24	1821.26
958.41	1785.42
958.57	1966.66
958.74	1866.72
958.91	1713.54
959.08	1763.51
959.25	1952.53
959.42	1853.82
959.59	1832.73
959.75	1764.53
959.92	2026.47
960.09	1996.36
960.26	1743.85
960.43	1790.13
960.60	1884.13
960.76	1858.33
960.93	1685.07
961.10	1846.24
961.27	2002.50
961.44	1867.13
961.61	1716.40
961.77	1717.22
961.94	1893.14
962.11	1980.39
962.28	1763.10
962.45	1700.63
962.62	1841.53
962.78	1989.60
962.95	1748.56
963.12	1777.43
963.29	1960.93
963.46	2240.68
963.62	1831.29
963.79	1795.25
963.96	2200.75
964.13	1852.39
964.30	1861.81
964.46	1789.92
964.63	1793.82
964.80	2362.33
964.97	1876.14
965.14	2286.97
965.30	2482.34
965.47	2608.70
965.64	2535.18
965.81	2455.31
965.98	2535.18
966.14	2255.63
966.31	2076.23
966.48	2019.50
966.65	2264.85
966.81	2132.75
966.98	1986.94
967.15	1995.34
967.32	2050.43
967.49	1935.74
967.65	1801.60
967.82	1762.07
967.99	1987.55
968.16	1821.05
968.32	2030.15
968.49	1869.80
968.66	1944.55
968.83	2172.89
968.99	1931.64
969.16	1801.80
969.33	2110.84
969.50	2005.37
969.66	1942.70
969.83	2029.95
970.00	2012.74
970.17	1957.86
970.33	1780.30
970.50	1710.26
970.67	2065.58
970.84	2035.27
971.00	1721.32
971.17	1711.28
971.34	1985.10
971.50	1889.87
971.67	1911.16
971.84	1837.85
972.01	1736.06
972.17	1635.92
972.34	1731.56
972.51	1886.79
972.67	2007.21
972.84	1914.44
973.01	1720.09
973.18	1745.89
973.34	2001.07
973.51	1795.25
973.68	1778.46
973.84	1807.33
974.01	1836.82
974.18	2096.30
974.34	1855.46
974.51	1881.06
974.68	1807.33
974.85	2143.81
975.01	1895.19
975.18	1766.78
975.35	1880.24
975.51	1754.29
975.68	1675.65
975.85	1930.01
976.01	1785.42
976.18	2048.99
976.35	1790.95
976.51	1767.19
976.68	2086.06
976.85	2011.92
977.01	1811.84
977.18	1864.06
977.35	1975.06
977.51	1740.36
977.68	1672.99
977.85	1729.30
978.01	2061.69
978.18	2018.89
978.35	1907.27
978.51	1888.23
978.68	2051.04
978.85	2150.37
979.01	1827.81
979.18	1865.09
979.34	1867.34
979.51	1924.48
979.68	1775.38
979.84	1826.17
980.01	2217.13
980.18	1916.08
980.34	1784.19
980.51	1855.46
980.67	2003.32
980.84	2004.55
981.01	1799.35
981.17	1884.34
981.34	1679.13
981.51	1958.68
981.67	1743.03
981.84	1914.85
982.00	1950.08
982.17	1868.36
982.34	1672.99
982.50	1570.59
982.67	2088.52
982.83	1822.49
983.00	1705.75
983.17	1627.32
983.33	1988.17
983.50	1710.67
983.66	1689.16
983.83	1599.87
984.00	1815.11
984.16	1898.47
984.33	1634.69
984.49	1619.74
984.66	1758.39
984.83	1970.97
984.99	1655.78
985.16	1619.53
985.32	1950.69
985.49	1993.08
985.65	1754.49
985.82	1606.84
985.99	2052.47
986.15	1870.41
986.32	1706.78
986.48	1663.77
986.65	1853.62
986.81	1972.40
986.98	1619.94
987.14	1696.95
987.31	1886.59
987.48	1685.68
987.64	1537.82
987.81	1575.50
987.97	2161.02
988.14	1765.55
988.30	1613.59
988.47	1510.99
988.63	1927.55
988.80	1727.67
988.96	1672.17
989.13	1724.59
989.30	1832.32
989.46	1987.96
989.63	1582.88
989.79	1590.25
989.96	1834.37
990.12	2058.41
990.29	1656.40
990.45	1686.71
990.62	1875.73
990.78	2020.12
990.95	1723.16
991.11	1623.02
991.28	1812.66
991.44	1906.66
991.61	1543.96
991.77	1709.23
991.94	1900.72
992.10	2013.97
992.27	1698.18
992.43	1654.14
992.60	1939.63
992.76	1820.85
992.93	1812.86
993.09	1610.11
993.26	1984.89
993.42	2093.23
993.59	1685.68
993.75	1564.03
993.92	1765.14
994.08	1787.26
994.25	1739.95
994.41	1624.65
994.58	1949.26
994.74	2053.09
994.91	1590.25
995.07	1721.73
995.24	1856.07
995.40	1856.89
995.56	1794.64
995.73	1738.32
995.89	2066.20
996.06	1864.68
996.22	1614.82
996.39	1590.04
996.55	1857.51
996.72	1898.26
996.88	1572.43
997.05	1625.68
997.21	2102.65
997.37	1941.06
997.54	1691.42
997.70	1666.23
997.87	1905.63
998.03	1865.49
998.20	1557.48
998.36	1580.62
998.52	1927.34
998.69	1965.03
998.85	1563.42
999.02	1674.62
999.18	1990.63
999.35	1991.24
999.51	1674.62
999.67	1671.55
999.84	1727.87
1000.00	1948.44
1000.17	1730.94
1000.33	1597.42
1000.49	1771.29
1000.66	1835.80
1000.82	1621.38
1000.99	1708.21
1001.15	2025.24
1001.31	1799.96
1001.48	1685.68
1001.64	1701.04
1001.81	1854.64
1001.97	2108.38
1002.13	1652.10
1002.30	1657.01
1002.46	2031.99
1002.63	1830.06
1002.79	1716.61
1002.95	1621.17
1003.12	2011.51
1003.28	1926.11
1003.45	1622.61
1003.61	1584.92
1003.77	1936.76
1003.94	1710.67
1004.10	1659.47
1004.26	1703.91
1004.43	1959.29
1004.59	2093.43
1004.75	1618.10
1004.92	1592.71
1005.08	1815.32
1005.25	1903.59
1005.41	1644.31
1005.57	1722.75
1005.74	2004.14
1005.90	1833.96
1006.06	1732.58
1006.23	1651.07
1006.39	1950.08
1006.55	2204.64
1006.72	1782.96
1006.88	1603.35
1007.04	1757.36
1007.21	1842.56
1007.37	1657.01
1007.53	1645.34
1007.70	2028.51
1007.86	1946.18
1008.02	1712.51
1008.19	1621.58
1008.35	1879.01
1008.51	1747.12
1008.68	1657.01
1008.84	1563.42
1009.00	1786.44
1009.17	2024.01
1009.33	1782.14
1009.49	1723.16
1009.65	1786.24
1009.82	1898.47
1009.98	1707.60
1010.14	1560.35
1010.31	1961.75
1010.47	1917.10
1010.63	1710.05
1010.80	1714.97
1010.96	1957.24
1011.12	1832.93
1011.28	1663.57
1011.45	1653.33
1011.61	2197.88
1011.77	1760.84
1011.94	1640.01
1012.10	1570.59
1012.26	1754.70
1012.42	1817.37
1012.59	1685.68
1012.75	1685.07
1012.91	1831.09
1013.07	1977.11
1013.24	1589.84
1013.40	1635.71
1013.56	1897.24
1013.72	1838.05
1013.89	1722.14
1014.05	1732.58
1014.21	2113.71
1014.37	2198.49
1014.54	1705.75
1014.70	1607.45
1014.86	1825.35
1015.02	1762.48
1015.19	1653.33
1015.35	1607.25
1015.51	1857.92
1015.67	1826.99
1015.84	1636.53
1016.00	1625.47
1016.16	2015.20
1016.32	1957.65
1016.49	1617.08
1016.65	1621.99
1016.81	1865.49
1016.97	1928.98
1017.14	1753.68
1017.30	1639.19
1017.46	1827.81
1017.62	1905.84
1017.78	1699.61
1017.95	1592.71
1018.11	1963.39
1018.27	2159.58
1018.43	1769.04
1018.59	1713.74
1018.76	1962.98
1018.92	2217.54
1019.08	1653.33
1019.24	1663.77
1019.40	2065.17
1019.57	1913.01
1019.73	1738.11
1019.89	1662.75
1020.05	1907.48
1020.21	2147.70
1020.38	1626.91
1020.54	1794.64
1020.70	1954.17
1020.86	1973.83
1021.02	1675.85
1021.18	1664.79
1021.35	1795.66
1021.51	1919.77
1021.67	1766.99
1021.83	1671.35
1021.99	1873.07
1022.15	1905.02
1022.32	1717.22
1022.48	1729.51
1022.64	2055.55
1022.80	2065.79
1022.96	1680.56
1023.12	1594.96
1023.29	2010.49
1023.45	1934.92
1023.61	1641.86
1023.77	1819.83
1023.93	1901.74
1024.09	1776.20
1024.25	1640.83
1024.42	1620.76
1024.58	1830.06
1024.74	1937.79
1024.90	1670.94
1025.06	1700.43
1025.22	1819.42
1025.38	2075.00
1025.54	1616.26
1025.71	1711.90
1025.87	1946.80
1026.03	1953.35
1026.19	1648.41
1026.35	1772.11
1026.51	1932.87
1026.67	1872.25
1026.83	1708.83
1026.99	1754.09
1027.16	1916.90
1027.32	1843.38
1027.48	1691.21
1027.64	1621.58
1027.80	1965.64
1027.96	1869.59
1028.12	1662.54
1028.28	1623.02
1028.44	1917.92
1028.60	2060.26
1028.77	1762.28
1028.93	1708.62
1029.09	1825.76
1029.25	1759.21
1029.41	1696.95
1029.57	1740.57
1029.73	1911.98
1029.89	2063.53
1030.05	1757.57
1030.21	1732.38
1030.37	2170.03
1030.53	1964.62
1030.69	1701.04
1030.85	1620.35
1031.02	1757.16
1031.18	1854.03
1031.34	1679.33
1031.50	1750.81
1031.66	1804.06
1031.82	2061.28
1031.98	1710.46
1032.14	1618.92
1032.30	1763.10
1032.46	1980.18
1032.62	1775.79
1032.78	1590.66
1032.94	1781.53
1033.10	1829.45
1033.26	1726.64
1033.42	1733.20
1033.58	2142.79
1033.74	1804.87
1033.90	1661.93
1034.06	1849.93
1034.22	2167.57
1034.38	2008.24
1034.54	1674.62
1034.70	1696.74
1034.86	2114.32
>>>>>End Processed Spectral Data<<<<<
