SpectraSuite Data File
++++++++++++++++++++++++++++++++++++
Date: Thu Mar 30 16:23:20 PDT 2017
User: UCSD _CER
Dark Spectrum Present: No
Reference Spectrum Present: No
Number of Sampled Component Spectra: 1
Spectrometers: USB4C00073
Integration Time (usec): 250000 (USB4C00073)
Spectra Averaged: 10 (USB4C00073)
Boxcar Smoothing: 0 (USB4C00073)
Correct for Electrical Dark: No (USB4C00073)
Strobe/Lamp Enabled: No (USB4C00073)
Correct for Detector Non-linearity: No (USB4C00073)
Correct for Stray Light: No (USB4C00073)
Number of Pixels in Processed Spectrum: 3648
>>>>>Begin Processed Spectral Data<<<<<
345.37	1255.61
345.58	1255.61
345.80	1255.61
346.01	1272.61
346.22	1273.84
346.43	1966.25
346.65	1769.04
346.86	2124.15
347.07	2089.13
347.28	1789.72
347.50	1810.81
347.71	1925.91
347.92	1725.41
348.13	1792.59
348.35	1717.22
348.56	1929.60
348.77	1753.68
348.98	1806.72
349.20	1678.11
349.41	1919.77
349.62	1981.82
349.83	1842.15
350.05	1714.76
350.26	1946.80
350.47	2065.58
350.68	1773.13
350.90	1698.59
351.11	2103.06
351.32	2065.17
351.53	1808.77
351.75	1733.40
351.96	1936.97
352.17	1893.96
352.38	1838.05
352.60	1858.74
352.81	1913.42
353.02	2148.93
353.23	1780.09
353.44	1782.35
353.66	1808.36
353.87	1870.21
354.08	1908.50
354.29	1822.49
354.51	1848.70
354.72	1903.79
354.93	1802.21
355.14	1762.48
355.35	1762.69
355.57	2054.93
355.78	1848.91
355.99	1889.05
356.20	1955.61
356.42	1897.03
356.63	1911.98
356.84	1834.37
357.05	2042.03
357.26	2201.36
357.48	1896.21
357.69	1847.88
357.90	1946.80
358.11	1869.18
358.32	1790.54
358.54	1856.48
358.75	1847.06
358.96	2011.31
359.17	1779.89
359.38	1829.45
359.60	2013.97
359.81	1897.03
360.02	1811.43
360.23	1786.85
360.44	1850.34
360.66	2044.49
360.87	1764.12
361.08	1757.77
361.29	1967.07
361.50	1902.77
361.72	1785.21
361.93	1845.22
362.14	1914.24
362.35	1754.49
362.56	1906.66
362.77	1730.74
362.99	1988.78
363.20	1923.45
363.41	1858.12
363.62	1733.20
363.83	1956.01
364.05	2020.12
364.26	1708.21
364.47	1782.35
364.68	2059.23
364.89	1817.37
365.10	1757.36
365.32	1824.94
365.53	1808.36
365.74	1831.29
365.95	1798.32
366.16	1698.79
366.37	1900.11
366.59	1883.31
366.80	1803.65
367.01	1666.23
367.22	2183.75
367.43	2293.93
367.64	1799.55
367.86	1828.63
368.07	1965.44
368.28	2064.76
368.49	1754.49
368.70	1848.70
368.91	1842.97
369.12	1904.61
369.34	1730.53
369.55	1729.30
369.76	1926.32
369.97	1849.32
370.18	1734.02
370.39	1746.71
370.60	1738.93
370.82	1764.94
371.03	1810.81
371.24	1742.00
371.45	1986.94
371.66	1979.16
371.87	1797.30
372.08	1763.30
372.30	1746.51
372.51	2016.23
372.72	1868.16
372.93	1764.73
373.14	2095.07
373.35	1816.34
373.56	1764.53
373.78	1822.49
373.99	2011.11
374.20	2257.68
374.41	1801.60
374.62	1809.38
374.83	2093.02
375.04	1870.00
375.25	1806.31
375.47	1753.27
375.68	1831.70
375.89	1995.95
376.10	1834.37
376.31	1875.94
376.52	1962.57
376.73	1965.23
376.94	1818.60
377.15	1790.33
377.37	1928.16
377.58	1886.79
377.79	1683.84
378.00	1728.69
378.21	1922.84
378.42	1982.02
378.63	1810.81
378.84	1869.18
379.05	2021.75
379.27	1926.32
379.48	1902.56
379.69	1742.21
379.90	2055.34
380.11	1655.37
380.32	1792.79
380.53	1886.59
380.74	2081.35
380.95	1912.80
381.16	1797.50
381.37	1784.19
381.59	2096.51
381.80	2011.11
382.01	1761.87
382.22	1676.67
382.43	1984.07
382.64	1914.65
382.85	1748.15
383.06	1873.28
383.27	2024.01
383.48	1895.19
383.69	1870.82
383.91	1768.83
384.12	1987.14
384.33	1936.97
384.54	1821.05
384.75	1666.84
384.96	2249.49
385.17	2023.39
385.38	1771.70
385.59	1766.58
385.80	1994.52
386.01	2081.35
386.22	1898.67
386.43	1813.68
386.64	2192.35
386.86	1898.26
387.07	1908.50
387.28	1703.09
387.49	1851.98
387.70	2073.36
387.91	1869.80
388.12	1731.35
388.33	1931.03
388.54	1870.61
388.75	1787.88
388.96	1856.89
389.17	1878.60
389.38	1904.00
389.59	1855.87
389.80	1843.58
390.01	1900.72
390.22	1844.40
390.43	1909.94
390.64	1667.87
390.86	1946.39
391.07	2014.18
391.28	1805.49
391.49	1838.67
391.70	1758.80
391.91	1823.72
392.12	1785.01
392.33	1777.23
392.54	1896.62
392.75	1873.69
392.96	1894.78
393.17	1755.72
393.38	2186.82
393.59	2056.98
393.80	1740.98
394.01	1884.54
394.22	2003.94
394.43	2286.35
394.64	1879.22
394.85	2066.61
395.06	2001.68
395.27	1980.59
395.48	1842.56
395.69	1742.41
395.90	1889.87
396.11	1911.16
396.32	1798.73
396.53	1888.23
396.74	1858.12
396.95	2053.91
397.16	1765.55
397.37	1711.28
397.58	2030.15
397.79	1917.92
398.00	1865.29
398.21	1812.25
398.42	1940.25
398.63	2176.79
398.84	1802.62
399.05	1774.16
399.26	2063.12
399.47	1950.69
399.68	1648.21
399.89	1736.06
400.10	1751.01
400.31	1865.49
400.52	1826.79
400.73	1779.89
400.94	1708.42
401.15	1931.44
401.36	1778.25
401.57	1866.93
401.78	2050.84
401.99	2019.09
402.20	1731.56
402.41	1894.58
402.62	2111.25
402.83	1858.74
403.04	1794.23
403.25	1944.96
403.46	1986.12
403.67	2203.61
403.88	1985.30
404.09	1950.69
404.30	2066.40
404.51	1990.42
404.72	1885.16
404.93	1978.95
405.14	1861.81
405.35	1928.16
405.56	1818.39
405.77	1798.32
405.98	1933.08
406.19	1881.47
406.40	1763.92
406.61	1789.92
406.82	1832.73
407.03	2178.01
407.24	1717.02
407.45	1814.50
407.66	1959.09
407.87	2008.65
408.08	1866.31
408.29	1883.72
408.49	1959.91
408.70	1895.40
408.91	1816.96
409.12	1896.62
409.33	1783.58
409.54	2078.48
409.75	1782.35
409.96	1805.90
410.17	2029.54
410.38	1885.56
410.59	1799.75
410.80	1918.74
411.01	1898.88
411.22	1886.38
411.43	1881.47
411.64	1781.73
411.85	1813.48
412.06	1798.32
412.27	1661.31
412.47	1775.59
412.68	1876.14
412.89	1946.59
413.10	1783.17
413.31	1731.35
413.52	2168.59
413.73	2142.79
413.94	1782.35
414.15	1917.10
414.36	1854.64
414.57	1806.51
414.78	1839.90
414.99	2343.70
415.19	2878.42
415.40	3041.64
415.61	3267.53
415.82	3077.48
416.03	2940.47
416.24	2640.65
416.45	2319.53
416.66	2018.89
416.87	1834.78
417.08	2036.09
417.29	1823.92
417.50	1983.25
417.70	2193.17
417.91	2196.24
418.12	2151.80
418.33	2269.56
418.54	2455.10
418.75	2622.22
418.96	2722.16
419.17	3101.44
419.38	3691.05
419.59	3741.84
419.79	3624.29
420.00	3453.28
420.21	3402.29
420.42	2647.00
420.63	2287.79
420.84	2141.77
421.05	1971.99
421.26	1938.81
421.47	1741.80
421.67	2058.21
421.88	1804.06
422.09	1771.29
422.30	1943.73
422.51	1812.04
422.72	2134.60
422.93	1980.59
423.14	1802.01
423.35	1689.16
423.55	1721.11
423.76	1830.68
423.97	1837.03
424.18	1721.11
424.39	1941.27
424.60	2099.99
424.81	1879.83
425.02	2132.14
425.22	2261.16
425.43	2284.92
425.64	2489.10
425.85	2515.52
426.06	2784.01
426.27	2657.24
426.48	2683.25
426.68	2662.77
426.89	2714.79
427.10	2799.98
427.31	2322.60
427.52	2021.14
427.73	2167.16
427.94	2084.42
428.14	1929.39
428.35	1823.51
428.56	2121.90
428.77	2043.05
428.98	1907.48
429.19	2088.72
429.40	2238.63
429.60	2335.71
429.81	2364.38
430.02	2319.32
430.23	2185.59
430.44	2154.67
430.65	1919.56
430.85	1923.04
431.06	1997.38
431.27	1744.05
431.48	1817.98
431.69	1888.84
431.90	1916.08
432.10	1906.45
432.31	1910.14
432.52	1997.79
432.73	2657.44
432.94	2652.12
433.15	2526.17
433.35	2406.16
433.56	2511.63
433.77	2283.28
433.98	2241.50
434.19	2077.66
434.40	2118.01
434.60	2002.09
434.81	1907.89
435.02	1928.78
435.23	1928.57
435.44	1863.86
435.64	1709.64
435.85	1790.95
436.06	1884.13
436.27	1844.20
436.48	1748.56
436.68	1784.80
436.89	2138.49
437.10	1978.54
437.31	1825.97
437.52	1927.75
437.73	1927.14
437.93	1907.48
438.14	1871.64
438.35	1691.21
438.56	1878.40
438.77	1873.48
438.97	1964.62
439.18	1764.94
439.39	2041.82
439.60	1764.33
439.80	1725.82
440.01	1816.55
440.22	1855.25
440.43	1971.99
440.64	1734.83
440.84	1826.17
441.05	1791.97
441.26	2285.12
441.47	1866.31
441.68	1763.30
441.88	1882.08
442.09	1904.82
442.30	1954.58
442.51	1857.71
442.71	1831.09
442.92	1971.37
443.13	1777.64
443.34	1755.31
443.55	1796.48
443.75	1974.24
443.96	1782.55
444.17	1762.69
444.38	2021.14
444.58	1809.79
444.79	1876.76
445.00	1856.69
445.21	1868.77
445.41	1885.97
445.62	1632.03
445.83	1895.80
446.04	1937.38
446.24	1766.99
446.45	1639.60
446.66	1794.43
446.87	1988.17
447.07	1860.78
447.28	2003.94
447.49	1838.67
447.70	1997.79
447.90	2034.04
448.11	1802.42
448.32	1907.27
448.53	2077.25
448.73	2101.63
448.94	1803.85
449.15	1928.16
449.36	1941.47
449.56	1970.35
449.77	1779.48
449.98	1738.73
450.19	1940.25
450.39	2054.52
450.60	2053.29
450.81	2063.12
451.02	2122.92
451.22	2231.67
451.43	1882.29
451.64	1924.68
451.84	2017.25
452.05	2192.15
452.26	1961.75
452.47	1875.53
452.67	1890.48
452.88	2103.88
453.09	1795.25
453.30	1748.97
453.50	2002.91
453.71	2081.76
453.92	1793.20
454.12	1907.07
454.33	1833.96
454.54	1896.01
454.75	1753.27
454.95	1751.63
455.16	1925.30
455.37	1967.89
455.57	1836.62
455.78	1824.74
455.99	1915.26
456.19	1921.40
456.40	1771.08
456.61	1833.14
456.82	1890.68
457.02	1983.25
457.23	1847.68
457.44	1964.41
457.64	1820.64
457.85	1988.99
458.06	1860.78
458.26	2057.59
458.47	1950.08
458.68	2087.49
458.89	1821.87
459.09	2016.02
459.30	2291.06
459.51	2011.51
459.71	1803.44
459.92	1849.93
460.13	2031.99
460.33	2203.41
460.54	1809.99
460.75	1819.83
460.95	1795.86
461.16	1952.33
461.37	1803.24
461.57	1845.63
461.78	1919.15
461.99	1839.69
462.19	2085.24
462.40	1836.62
462.61	2413.53
462.81	2109.41
463.02	1800.16
463.23	1824.33
463.43	2051.25
463.64	1875.73
463.85	2780.94
464.05	1858.33
464.26	2386.29
464.47	2124.56
464.67	2026.47
464.88	1907.27
465.09	1837.03
465.29	1947.41
465.50	1947.41
465.71	1843.79
465.91	1867.75
466.12	1890.07
466.33	1884.95
466.53	1813.07
466.74	2116.78
466.94	1884.54
467.15	1834.78
467.36	2003.32
467.56	1812.04
467.77	1963.59
467.98	1892.73
468.18	1787.26
468.39	1858.94
468.60	2174.12
468.80	1882.29
469.01	1780.50
469.21	1986.32
469.42	2090.98
469.63	1927.55
469.83	1875.12
470.04	2108.79
470.25	2248.06
470.45	1971.17
470.66	1846.86
470.86	2008.24
471.07	1962.36
471.28	1953.76
471.48	1991.44
471.69	1967.48
471.90	2362.74
472.10	1814.91
472.31	1836.21
472.51	1859.35
472.72	1815.73
472.93	1783.58
473.13	1933.28
473.34	1970.76
473.54	1877.17
473.75	1873.07
473.96	2013.15
474.16	1936.76
474.37	2045.92
474.57	1972.81
474.78	1862.83
474.99	2041.21
475.19	2022.78
475.40	1865.49
475.60	1779.68
475.81	2077.87
476.02	1936.35
476.22	1966.05
476.43	2074.18
476.63	1997.18
476.84	2208.73
477.05	1781.32
477.25	1847.27
477.46	2327.72
477.66	1964.62
477.87	1758.39
478.08	1836.00
478.28	2058.41
478.49	1925.09
478.69	1783.99
478.90	1850.34
479.10	1978.13
479.31	2147.70
479.52	1914.65
479.72	1990.01
479.93	2034.04
480.13	1870.82
480.34	1812.66
480.54	1924.68
480.75	1794.02
480.96	2052.68
481.16	1792.59
481.37	1919.97
481.57	2008.65
481.78	1985.92
481.98	2027.90
482.19	1909.53
482.40	2163.27
482.60	2016.63
482.81	1977.11
483.01	1890.48
483.22	2135.42
483.42	2104.70
483.63	2007.42
483.83	1953.15
484.04	1879.01
484.24	2037.93
484.45	1930.21
484.66	1757.77
484.86	1969.53
485.07	1844.81
485.27	1910.55
485.48	1841.33
485.68	2090.98
485.89	1847.68
486.09	1943.73
486.30	1800.16
486.50	1955.20
486.71	2010.49
486.91	2040.80
487.12	2093.64
487.33	2319.12
487.53	2342.26
487.74	2078.89
487.94	2087.90
488.15	2200.75
488.35	2295.16
488.56	2151.60
488.76	2144.63
488.97	2123.95
489.17	2168.39
489.38	1997.79
489.58	1951.30
489.79	2048.79
489.99	2020.73
490.20	1884.75
490.40	1990.42
490.61	2011.92
490.81	1890.68
491.02	1900.11
491.22	1964.82
491.43	2056.16
491.63	1978.95
491.84	2030.56
492.04	1760.02
492.25	2020.73
492.45	1924.07
492.66	1844.61
492.86	1753.88
493.07	1929.19
493.27	2219.18
493.48	1738.93
493.68	1873.07
493.89	1942.91
494.09	2030.56
494.30	1839.28
494.50	2109.61
494.71	2019.50
494.91	1866.72
495.12	1972.40
495.32	2072.54
495.53	2071.11
495.73	1819.42
495.94	1919.15
496.14	1726.23
496.35	2185.39
496.55	1933.08
496.76	1880.44
496.96	1904.20
497.17	1967.07
497.37	2009.26
497.58	1849.73
497.78	1803.24
497.98	1908.50
498.19	1949.05
498.39	1959.70
498.60	1972.40
498.80	1798.73
499.01	2082.37
499.21	1841.94
499.42	1877.78
499.62	1939.43
499.83	2225.94
500.03	1766.17
500.24	1937.17
500.44	2121.49
500.64	2067.63
500.85	1848.91
501.05	1970.97
501.26	1788.90
501.46	2107.36
501.67	1814.71
501.87	1781.94
502.08	1819.83
502.28	1922.22
502.48	1945.57
502.69	2021.35
502.89	1842.97
503.10	1898.26
503.30	1968.71
503.51	1948.44
503.71	1803.03
503.92	2075.21
504.12	2026.67
504.32	2007.01
504.53	2178.83
504.73	2233.72
504.94	2155.49
505.14	2312.98
505.35	2327.72
505.55	2307.65
505.75	2229.62
505.96	2312.77
506.16	2417.83
506.37	2061.08
506.57	1955.40
506.78	2071.32
506.98	2201.16
507.18	1903.79
507.39	1876.14
507.59	1990.01
507.80	1932.46
508.00	2051.45
508.20	2118.01
508.41	1979.77
508.61	2206.69
508.82	2129.07
509.02	2017.86
509.22	1810.40
509.43	1809.18
509.63	1865.90
509.84	1912.39
510.04	1770.88
510.24	2104.70
510.45	2047.76
510.65	1795.86
510.86	1919.15
511.06	1863.86
511.26	2099.17
511.47	2049.81
511.67	1912.39
511.88	2065.79
512.08	2109.20
512.28	1814.50
512.49	1989.81
512.69	1977.72
512.90	1983.66
513.10	1836.82
513.30	1931.64
513.51	2004.35
513.71	2141.77
513.91	1956.63
514.12	1960.73
514.32	2146.07
514.53	2016.23
514.73	2162.86
514.93	2102.04
515.14	2210.58
515.34	2474.56
515.54	2362.95
515.75	2471.69
515.95	2620.79
516.15	2639.01
516.36	2318.92
516.56	2226.76
516.77	1875.32
516.97	2134.80
517.17	1998.61
517.38	2103.26
517.58	2295.98
517.78	2176.17
517.99	2381.38
518.19	2501.80
518.39	2811.86
518.60	2593.55
518.80	2402.06
519.00	2365.20
519.21	2191.94
519.41	2333.66
519.61	1950.49
519.82	2065.79
520.02	2041.62
520.22	2049.40
520.43	2003.53
520.63	2000.87
520.83	1998.41
521.04	1924.27
521.24	2299.46
521.44	2362.13
521.65	2463.71
521.85	2682.22
522.05	2439.95
522.26	2281.85
522.46	2452.85
522.66	2229.01
522.87	1999.43
523.07	2136.44
523.27	2016.02
523.48	2262.60
523.68	2054.11
523.88	2062.92
524.09	2193.58
524.29	2143.20
524.49	1995.34
524.70	2299.87
524.90	2470.67
525.10	2400.83
525.31	2121.08
525.51	1987.55
525.71	2176.38
525.91	2082.99
526.12	1877.58
526.32	1844.61
526.52	1888.02
526.73	1870.41
526.93	1939.02
527.13	1754.49
527.34	1947.62
527.54	1967.28
527.74	1947.21
527.94	1877.17
528.15	1902.97
528.35	1998.61
528.55	2017.66
528.76	1980.39
528.96	1756.13
529.16	2066.81
529.36	2030.36
529.57	1807.95
529.77	2076.85
529.97	1834.98
530.18	1974.04
530.38	1876.96
530.58	2004.96
530.78	1949.67
530.99	1884.95
531.19	2004.76
531.39	1893.76
531.60	1976.90
531.80	1888.02
532.00	2021.96
532.20	1994.93
532.41	1849.11
532.61	1865.90
532.81	1885.36
533.01	1873.28
533.22	1988.58
533.42	1998.61
533.62	1726.44
533.82	2082.58
534.03	1937.79
534.23	1956.83
534.43	1837.23
534.63	1906.66
534.84	1964.00
535.04	1922.63
535.24	1899.90
535.44	2258.70
535.65	1851.77
535.85	1843.99
536.05	1808.97
536.25	1932.46
536.46	1866.31
536.66	2118.62
536.86	2008.44
537.06	2110.23
537.27	2198.70
537.47	2015.82
537.67	1897.44
537.87	2148.73
538.08	1954.99
538.28	1842.15
538.48	1846.04
538.68	1967.07
538.88	2096.30
539.09	1816.75
539.29	1908.30
539.49	2057.18
539.69	1997.59
539.90	1982.43
540.10	1854.64
540.30	2169.82
540.50	1984.48
540.70	1887.20
540.91	2031.99
541.11	2207.92
541.31	2346.77
541.51	2231.67
541.72	2267.92
541.92	2323.22
542.12	2138.28
542.32	2067.42
542.52	2039.98
542.73	1973.63
542.93	2097.12
543.13	1987.76
543.33	2090.57
543.53	2241.30
543.74	2281.23
543.94	2121.08
544.14	2304.37
544.34	2483.57
544.54	2383.02
544.75	2485.62
544.95	2705.57
545.15	2548.70
545.35	2596.62
545.55	2345.33
545.75	2128.66
545.96	2436.06
546.16	1949.05
546.36	2041.62
546.56	2073.16
546.76	2212.01
546.97	2261.98
547.17	1996.16
547.37	2055.75
547.57	1922.43
547.77	2081.35
547.97	1971.99
548.18	1985.71
548.38	2056.78
548.58	2621.60
548.78	2767.83
548.98	3232.10
549.18	3622.24
549.39	3780.55
549.59	3368.09
549.79	2988.40
549.99	3031.81
550.19	2818.62
550.39	2645.57
550.60	2401.04
550.80	2318.10
551.00	2310.93
551.20	2105.52
551.40	2036.09
551.60	2110.23
551.80	2101.63
552.01	2154.46
552.21	2062.10
552.41	2085.04
552.61	2287.58
552.81	2054.52
553.01	1892.12
553.21	2072.75
553.42	1909.32
553.62	1895.19
553.82	1868.98
554.02	2176.79
554.22	2071.52
554.42	1837.23
554.62	2003.32
554.83	2420.49
555.03	2786.47
555.23	2758.82
555.43	3232.51
555.63	3222.68
555.83	3030.58
556.03	2662.56
556.23	2480.70
556.44	2623.65
556.64	2707.62
556.84	2292.91
557.04	2491.56
557.24	2462.89
557.44	2344.11
557.64	2221.02
557.84	2037.11
558.04	2044.69
558.25	2156.10
558.45	1988.99
558.65	2028.72
558.85	2126.00
559.05	1936.15
559.25	2097.32
559.45	2239.45
559.65	2688.57
559.85	3263.85
560.05	2754.31
560.26	2896.24
560.46	2927.57
560.66	2686.12
560.86	2440.36
561.06	2295.57
561.26	2513.88
561.46	2330.18
561.66	2136.24
561.86	2209.35
562.06	2037.52
562.26	2069.27
562.47	2055.14
562.67	1857.71
562.87	2095.28
563.07	1853.21
563.27	2062.30
563.47	2092.61
563.67	2006.80
563.87	2175.56
564.07	2088.52
564.27	2248.67
564.47	2352.71
564.67	2453.67
564.87	2317.89
565.08	2364.38
565.28	2213.65
565.48	2298.03
565.68	2213.24
565.88	2144.84
566.08	2333.87
566.28	2028.10
566.48	1844.20
566.68	1929.39
566.88	1902.36
567.08	2085.45
567.28	1981.41
567.48	1974.65
567.68	2111.66
567.88	1952.94
568.08	2165.73
568.28	2253.99
568.48	2110.02
568.68	2306.22
568.89	2118.01
569.09	1894.78
569.29	2145.86
569.49	2116.17
569.69	1892.73
569.89	1858.33
570.09	1745.48
570.29	1877.58
570.49	1773.95
570.69	1848.50
570.89	2055.14
571.09	2175.97
571.29	1788.70
571.49	2052.47
571.69	1947.41
571.89	1978.95
572.09	1851.36
572.29	1820.44
572.49	2025.03
572.69	2007.42
572.89	1993.70
573.09	1809.99
573.29	2157.33
573.49	2204.84
573.69	2179.04
573.89	2251.13
574.09	2040.39
574.29	2226.35
574.49	1976.49
574.69	1889.05
574.89	1852.18
575.09	1852.59
575.29	1843.38
575.49	1907.48
575.69	1979.57
575.89	1777.43
576.09	1923.45
576.29	1951.30
576.49	1869.18
576.69	2019.09
576.89	1954.99
577.09	2029.74
577.29	1839.08
577.49	2252.77
577.69	1899.49
577.89	2013.77
578.09	1981.20
578.29	1777.64
578.49	1960.11
578.69	1867.34
578.89	2087.70
579.09	1965.03
579.29	1846.86
579.49	2097.73
579.69	1957.04
579.89	2247.24
580.09	1826.38
580.29	1788.49
580.49	1921.61
580.69	1849.93
580.89	1895.60
581.09	1887.41
581.29	1866.31
581.49	1894.37
581.69	1812.25
581.89	1830.47
582.09	1832.93
582.28	1845.63
582.48	2069.06
582.68	2156.51
582.88	2221.64
583.08	2069.68
583.28	2041.21
583.48	2053.29
583.68	1957.45
583.88	2021.75
584.08	1984.28
584.28	1939.63
584.48	2211.81
584.68	2002.09
584.88	1908.30
585.08	2077.25
585.28	2087.70
585.48	2151.39
585.68	2061.49
585.87	2082.58
586.07	2050.84
586.27	1982.02
586.47	2026.87
586.67	1962.98
586.87	1929.60
587.07	1916.08
587.27	1857.71
587.47	2033.22
587.67	2373.19
587.87	2725.85
588.07	2656.42
588.27	2691.85
588.46	2933.31
588.66	2933.51
588.86	2588.84
589.06	2514.29
589.26	2446.91
589.46	2334.68
589.66	2031.58
589.86	1981.00
590.06	2083.81
590.26	2317.07
590.46	2253.99
590.66	2403.50
590.85	2375.23
591.05	2449.78
591.25	2173.51
591.45	2170.44
591.65	2262.19
591.85	2294.54
592.05	2265.26
592.25	2466.37
592.45	2558.32
592.64	2412.51
592.84	2313.18
593.04	2110.64
593.24	2540.30
593.44	2121.29
593.64	2238.43
593.84	2259.11
594.04	2133.57
594.24	2353.12
594.43	2019.30
594.63	2057.80
594.83	2140.74
595.03	2119.03
595.23	1845.02
595.43	1791.97
595.63	1878.81
595.83	2076.85
596.02	1768.83
596.22	1981.20
596.42	2064.15
596.62	2021.96
596.82	1937.79
597.02	2086.06
597.22	2164.50
597.41	2019.71
597.61	1938.20
597.81	2109.61
598.01	2207.51
598.21	2058.21
598.41	2063.12
598.61	1999.84
598.80	2116.37
599.00	2132.55
599.20	2214.67
599.40	2072.95
599.60	2106.95
599.80	2207.51
599.99	2204.43
600.19	2063.53
600.39	2107.77
600.59	2123.33
600.79	2079.30
600.99	2097.12
601.19	2286.97
601.38	2295.98
601.58	2106.54
601.78	1908.50
601.98	2454.08
602.18	3392.26
602.37	4254.86
602.57	4562.06
602.77	5121.97
602.97	5303.83
603.17	4917.99
603.37	4691.69
603.56	4646.84
603.76	4469.69
603.96	4304.63
604.16	4027.74
604.36	3681.84
604.56	3371.57
604.75	2912.42
604.95	2853.23
605.15	2846.27
605.35	2702.91
605.55	2465.14
605.74	2341.85
605.94	2469.44
606.14	2229.62
606.34	2155.69
606.54	2085.86
606.73	1969.74
606.93	2078.48
607.13	1909.94
607.33	1992.26
607.53	2167.37
607.72	2088.31
607.92	2058.21
608.12	2068.24
608.32	1998.20
608.51	2122.51
608.71	1968.92
608.91	2158.76
609.11	2242.94
609.31	2202.80
609.50	2374.01
609.70	2566.10
609.90	2539.48
610.10	2526.78
610.29	2421.52
610.49	2244.37
610.69	2356.60
610.89	2203.61
611.09	2198.70
611.28	2225.94
611.48	2212.63
611.68	2056.37
611.88	2000.25
612.07	1965.64
612.27	2148.93
612.47	1991.85
612.67	2049.81
612.86	2101.63
613.06	2005.58
613.26	1794.02
613.46	2025.85
613.65	2124.77
613.85	2553.00
614.05	2346.36
614.25	2340.42
614.44	2204.64
614.64	2224.30
614.84	2154.46
615.04	2128.25
615.23	2163.88
615.43	2267.51
615.63	2236.59
615.83	2030.97
616.02	2069.88
616.22	2389.57
616.42	2312.77
616.62	2360.90
616.81	2511.63
617.01	2551.56
617.21	2450.80
617.41	2191.74
617.60	2204.43
617.80	2258.50
618.00	2192.35
618.19	2094.46
618.39	2068.24
618.59	2055.34
618.79	1976.90
618.98	1742.21
619.18	1878.40
619.38	2204.02
619.57	1897.24
619.77	1893.76
619.97	1891.09
620.17	1946.59
620.36	1965.64
620.56	2331.41
620.76	2169.00
620.95	2238.63
621.15	2304.17
621.35	2157.33
621.54	2178.83
621.74	2193.78
621.94	2051.25
622.14	1958.88
622.33	1867.34
622.53	1996.56
622.73	1976.90
622.92	1805.69
623.12	1939.63
623.32	2202.18
623.51	2040.39
623.71	1799.35
623.91	2047.35
624.10	1863.65
624.30	1959.70
624.50	1818.60
624.69	1802.01
624.89	2445.27
625.09	1880.85
625.29	1736.47
625.48	1789.72
625.68	1962.36
625.88	2057.59
626.07	1939.22
626.27	1804.26
626.47	1843.99
626.66	1731.76
626.86	1881.47
627.06	1879.83
627.25	1907.89
627.45	2122.31
627.64	1886.18
627.84	2073.36
628.04	1830.47
628.23	2187.03
628.43	1801.19
628.63	1910.96
628.82	1988.58
629.02	2352.09
629.22	2236.79
629.41	2318.30
629.61	2190.30
629.81	2492.79
630.00	2179.86
630.20	2169.41
630.40	2365.20
630.59	2351.68
630.79	2192.76
630.98	2124.36
631.18	2076.64
631.38	2052.06
631.57	2139.72
631.77	1824.33
631.97	2004.14
632.16	2009.88
632.36	1934.51
632.56	1918.33
632.75	1952.33
632.95	2026.47
633.14	1788.08
633.34	2044.69
633.54	1706.16
633.73	1850.13
633.93	1840.71
634.12	1730.53
634.32	2214.67
634.52	1903.18
634.71	1770.88
634.91	1936.76
635.11	1788.49
635.30	1817.57
635.50	1940.66
635.69	1838.67
635.89	2185.39
636.09	2123.74
636.28	1893.14
636.48	1939.63
636.67	2131.53
636.87	2091.59
637.07	2029.74
637.26	1947.62
637.46	2081.76
637.65	2201.77
637.85	2097.53
638.04	1998.82
638.24	2058.82
638.44	2091.59
638.63	2004.35
638.83	1936.97
639.02	2017.45
639.22	2045.51
639.42	1928.78
639.61	1937.17
639.81	1939.84
640.00	1892.12
640.20	1976.49
640.39	2035.89
640.59	2561.80
640.79	2609.52
640.98	2680.59
641.18	2806.13
641.37	2838.48
641.57	2583.92
641.76	2480.29
641.96	2205.05
642.15	2330.38
642.35	2207.51
642.55	2202.59
642.74	2039.78
642.94	2212.01
643.13	2188.66
643.33	1942.50
643.52	1892.32
643.72	1864.06
643.91	1928.37
644.11	1844.40
644.31	1815.73
644.50	1811.43
644.70	2096.92
644.89	1866.11
645.09	1951.92
645.28	1939.43
645.48	1990.83
645.67	1836.41
645.87	1730.94
646.06	1901.95
646.26	1968.71
646.45	1712.72
646.65	1698.79
646.84	2163.06
647.04	1900.72
647.24	1766.99
647.43	1929.19
647.63	1968.71
647.82	2117.19
648.02	1743.44
648.21	1836.62
648.41	2077.66
648.60	1896.01
648.80	2014.59
648.99	1942.09
649.19	1865.09
649.38	1706.16
649.58	1904.00
649.77	1936.56
649.97	2053.91
650.16	1959.70
650.36	1695.31
650.55	1988.17
650.75	1962.98
650.94	2106.75
651.14	1897.65
651.33	1945.57
651.53	2118.21
651.72	1809.59
651.92	1875.32
652.11	1688.96
652.31	1955.81
652.50	1962.98
652.70	1940.45
652.89	1798.94
653.09	2141.77
653.28	1921.20
653.48	1778.25
653.67	1801.80
653.87	2355.16
654.06	1959.70
654.25	2077.25
654.45	1846.45
654.64	1869.39
654.84	1917.92
655.03	1684.25
655.23	2027.28
655.42	2000.46
655.62	2106.95
655.81	1898.88
656.01	1818.19
656.20	1999.02
656.40	2100.60
656.59	1916.08
656.79	2037.11
656.98	1924.48
657.17	2009.88
657.37	1892.53
657.56	1845.83
657.76	1949.46
657.95	2016.23
658.15	1580.42
658.34	1885.77
658.54	1917.51
658.73	1786.44
658.92	1846.86
659.12	1960.73
659.31	2026.47
659.51	1897.44
659.70	2060.46
659.90	2018.48
660.09	2168.18
660.29	2050.84
660.48	1909.94
660.67	2156.51
660.87	1937.99
661.06	2019.50
661.26	2039.16
661.45	1992.47
661.65	1986.12
661.84	1880.85
662.03	1852.59
662.23	1848.09
662.42	2166.55
662.62	1775.18
662.81	1800.57
663.00	1843.17
663.20	1915.26
663.39	1965.03
663.59	1977.31
663.78	1854.23
663.97	1870.41
664.17	2050.63
664.36	1746.92
664.56	1774.77
664.75	1990.63
664.94	1995.75
665.14	1953.35
665.33	1963.59
665.53	2045.31
665.72	2023.80
665.91	2124.56
666.11	2016.84
666.30	2027.69
666.50	1962.16
666.69	2007.62
666.88	1940.45
667.08	1992.88
667.27	1961.13
667.47	1967.89
667.66	1901.95
667.85	2036.30
668.05	1953.56
668.24	1832.52
668.43	2036.50
668.63	1886.18
668.82	2079.30
669.02	2002.50
669.21	1933.08
669.40	1806.10
669.60	2191.33
669.79	1802.83
669.98	2376.67
670.18	1815.73
670.37	1807.33
670.56	1876.35
670.76	1933.90
670.95	1914.65
671.15	2055.96
671.34	2018.68
671.53	1960.52
671.73	1947.00
671.92	1893.35
672.11	1836.00
672.31	1878.81
672.50	1986.53
672.69	1807.54
672.89	1705.14
673.08	1868.36
673.27	2001.68
673.47	1948.23
673.66	1936.35
673.85	1839.28
674.05	2097.94
674.24	2549.52
674.43	2661.74
674.63	3126.22
674.82	3553.84
675.01	3045.74
675.21	3118.44
675.40	2841.76
675.59	2709.46
675.79	2898.08
675.98	2548.49
676.17	2624.47
676.37	2526.78
676.56	2312.57
676.75	2252.15
676.95	2136.65
677.14	2069.68
677.33	2167.57
677.52	1857.10
677.72	1909.73
677.91	2014.79
678.10	1773.54
678.30	1834.98
678.49	1777.23
678.68	2198.70
678.88	1712.72
679.07	2018.89
679.26	1851.57
679.45	2161.84
679.65	2037.11
679.84	1721.93
680.03	1745.28
680.23	1871.43
680.42	2237.41
680.61	1783.99
680.81	1868.16
681.00	1910.14
681.19	1994.93
681.38	1995.34
681.58	2012.33
681.77	1912.39
681.96	2049.81
682.15	1897.24
682.35	1982.64
682.54	2026.26
682.73	1832.32
682.93	1809.79
683.12	1855.66
683.31	2022.37
683.50	2279.80
683.70	1811.43
683.89	1910.96
684.08	1812.86
684.27	2079.51
684.47	1753.68
684.66	1907.89
684.85	2200.13
685.04	2061.89
685.24	1820.64
685.43	1907.07
685.62	1742.00
685.81	2025.65
686.01	2206.48
686.20	2338.58
686.39	2474.56
686.58	3014.20
686.78	2820.46
686.97	2732.81
687.16	2643.52
687.35	2514.09
687.55	2415.17
687.74	2406.98
687.93	2298.64
688.12	2364.58
688.32	2331.20
688.51	2099.99
688.70	2220.61
688.89	2004.55
689.08	1901.13
689.28	1924.48
689.47	1995.75
689.66	1990.83
689.85	2031.99
690.05	1894.58
690.24	1862.63
690.43	1975.47
690.62	1930.82
690.81	1862.22
691.01	1919.56
691.20	1881.06
691.39	1802.42
691.58	1938.40
691.77	2161.63
691.97	1948.64
692.16	1966.87
692.35	1906.25
692.54	1908.71
692.73	2155.08
692.93	2140.74
693.12	2265.67
693.31	2321.58
693.50	2305.19
693.69	2241.30
693.89	2108.79
694.08	2315.84
694.27	2309.90
694.46	2036.70
694.65	2115.96
694.85	2194.81
695.04	2178.63
695.23	2155.28
695.42	2850.77
695.61	3373.41
695.80	3767.65
696.00	4148.37
696.19	4280.66
696.38	3793.66
696.57	3377.71
696.76	3309.93
696.95	3054.95
697.15	3146.70
697.34	2951.33
697.53	2626.32
697.72	2585.15
697.91	2393.46
698.10	2494.02
698.30	2145.45
698.49	2080.94
698.68	2121.49
698.87	2004.76
699.06	1869.80
699.25	1940.25
699.45	2091.80
699.64	2004.96
699.83	2022.98
700.02	1806.72
700.21	1987.55
700.40	1852.18
700.59	1865.90
700.79	1863.45
700.98	1994.52
701.17	1828.63
701.36	1841.74
701.55	1843.38
701.74	2153.44
701.93	2260.34
702.12	2691.85
702.32	2785.85
702.51	3147.11
702.70	3234.56
702.89	2931.87
703.08	2599.08
703.27	2800.80
703.46	2595.19
703.65	2415.58
703.85	2261.37
704.04	2274.47
704.23	2418.65
704.42	2096.71
704.61	2075.82
704.80	2227.17
704.99	1935.94
705.18	2014.79
705.37	1998.00
705.57	2529.86
705.76	3357.03
705.95	3558.96
706.14	4288.86
706.33	4595.64
706.52	4643.15
706.71	3776.66
706.90	3405.16
707.09	3370.34
707.28	3181.52
707.47	2906.27
707.67	2948.26
707.86	2652.53
708.05	2719.91
708.24	2455.92
708.43	2288.20
708.62	2105.31
708.81	1983.66
709.00	1892.53
709.19	1884.13
709.38	2070.91
709.57	1869.59
709.76	2069.06
709.96	2022.78
710.15	2269.56
710.34	2138.90
710.53	2175.76
710.72	2043.46
710.91	2196.04
711.10	2082.17
711.29	2095.07
711.48	1949.26
711.67	1911.98
711.86	2098.76
712.05	1901.54
712.24	1976.09
712.43	2094.05
712.62	2167.77
712.81	1976.70
713.00	2080.33
713.19	1833.96
713.39	2004.96
713.58	1831.09
713.77	2029.13
713.96	2119.65
714.15	2060.26
714.34	2013.77
714.53	1935.33
714.72	2276.93
714.91	1978.75
715.10	2127.84
715.29	1993.70
715.48	2498.93
715.67	2211.60
715.86	2080.94
716.05	2024.21
716.24	2011.92
716.43	1960.52
716.62	1854.85
716.81	1849.93
717.00	1943.11
717.19	2116.37
717.38	1965.85
717.57	1907.89
717.76	1782.55
717.95	2044.69
718.14	1937.79
718.33	1860.58
718.52	1719.47
718.71	1726.85
718.90	1784.19
719.09	1836.21
719.28	1916.49
719.47	2040.19
719.66	2117.19
719.85	2176.99
720.04	2177.81
720.23	2238.02
720.42	2142.99
720.61	2193.78
720.80	1939.84
720.99	2109.20
721.18	2001.68
721.37	1942.91
721.56	1990.01
721.75	2139.10
721.94	1896.21
722.13	1976.29
722.32	1960.73
722.51	2089.34
722.70	1909.94
722.89	1951.51
723.08	1905.84
723.27	1998.61
723.46	1927.55
723.65	1877.99
723.84	1852.18
724.03	2060.67
724.22	1764.53
724.41	1947.00
724.60	1885.56
724.79	2026.06
724.98	1947.21
725.16	1852.39
725.35	1972.19
725.54	1799.35
725.73	1917.72
725.92	1954.17
726.11	2071.73
726.30	2338.78
726.49	2229.01
726.68	2372.78
726.87	2514.50
727.06	2596.41
727.25	2203.20
727.44	2315.64
727.63	2231.67
727.82	2150.37
728.01	2160.40
728.20	2231.06
728.38	2298.03
728.57	2058.00
728.76	2039.57
728.95	2115.55
729.14	1855.66
729.33	1842.35
729.52	1720.09
729.71	1839.28
729.90	1822.49
730.09	1928.78
730.28	2038.14
730.47	2059.23
730.66	2354.75
730.84	2270.58
731.03	2227.99
731.22	2216.93
731.41	2169.41
731.60	2172.69
731.79	1893.55
731.98	1970.35
732.17	2112.48
732.36	2078.28
732.55	1940.04
732.73	1869.80
732.92	2106.54
733.11	2025.03
733.30	1889.46
733.49	1748.56
733.68	2043.67
733.87	1989.40
734.06	1940.45
734.25	2121.29
734.43	2326.08
734.62	2524.12
734.81	2578.39
735.00	2549.31
735.19	2467.19
735.38	2388.96
735.57	2184.77
735.76	2372.78
735.94	2519.82
736.13	3171.69
736.32	3263.64
736.51	3385.09
736.70	3819.67
736.89	3959.13
737.08	3737.34
737.27	4163.93
737.45	5235.84
737.64	5527.47
737.83	6079.80
738.02	6294.23
738.21	6050.52
738.40	5192.42
738.59	4653.19
738.77	4434.06
738.96	4091.23
739.15	3862.06
739.34	3622.86
739.53	3349.45
739.72	3239.89
739.90	3030.79
740.09	2564.26
740.28	2530.67
740.47	2444.46
740.66	2310.52
740.85	2052.06
741.03	2092.20
741.22	1968.71
741.41	2012.13
741.60	1911.78
741.79	2085.45
741.98	2244.57
742.16	2359.06
742.35	2184.98
742.54	2234.95
742.73	2611.77
742.92	2334.27
743.10	2271.40
743.29	2326.70
743.48	2604.81
743.67	2157.33
743.86	2053.29
744.05	2056.57
744.23	2013.56
744.42	2033.22
744.61	2056.98
744.80	1944.96
744.99	1980.18
745.17	1809.59
745.36	1807.13
745.55	2011.92
745.74	1946.59
745.93	1826.38
746.11	1845.83
746.30	1815.32
746.49	2031.79
746.68	1813.89
746.86	1886.38
747.05	1887.61
747.24	2016.43
747.43	2072.34
747.62	1876.76
747.80	1974.86
747.99	2209.76
748.18	2169.82
748.37	2097.73
748.56	2075.21
748.74	2191.33
748.93	2091.18
749.12	2389.16
749.31	3197.29
749.49	3865.95
749.68	4344.15
749.87	4791.22
750.06	4907.34
750.24	5065.04
750.43	5470.94
750.62	6080.42
750.81	6492.06
750.99	6879.54
751.18	6847.59
751.37	5831.39
751.56	5136.10
751.74	5165.59
751.93	4894.44
752.12	4063.37
752.31	3774.82
752.49	3487.08
752.68	3452.88
752.87	3025.87
753.06	2738.95
753.24	2578.80
753.43	2581.46
753.62	2213.24
753.81	2095.07
753.99	2299.66
754.18	2112.07
754.37	1910.35
754.55	1987.96
754.74	2205.87
754.93	1755.11
755.12	1920.79
755.30	1852.39
755.49	2078.89
755.68	1941.47
755.86	1963.80
756.05	1809.38
756.24	2130.09
756.43	1775.79
756.61	1809.99
756.80	1931.03
756.99	2098.35
757.17	1915.26
757.36	1808.77
757.55	1918.33
757.74	2024.42
757.92	1955.20
758.11	1776.20
758.30	1739.34
758.48	1899.49
758.67	1799.14
758.86	1926.93
759.04	1823.10
759.23	1882.90
759.42	1935.74
759.60	1837.03
759.79	1900.31
759.98	1876.35
760.16	1818.19
760.35	1833.14
760.54	1754.49
760.73	1918.95
760.91	1768.63
761.10	1939.02
761.29	1972.19
761.47	1941.27
761.66	2241.30
761.85	1970.76
762.03	2168.39
762.22	3068.06
762.41	5911.87
762.59	9144.79
762.78	10761.05
762.97	13031.02
763.15	13938.88
763.34	12652.35
763.52	9555.41
763.71	8922.59
763.90	8333.18
764.08	7737.23
764.27	7250.42
764.46	6758.91
764.64	5979.45
764.83	5464.39
765.02	4948.71
765.20	4387.36
765.39	3821.10
765.58	3069.29
765.76	2760.87
765.95	2513.88
766.13	2306.01
766.32	2134.60
766.51	2109.20
766.69	2633.69
766.88	2053.29
767.07	1871.43
767.25	1773.95
767.44	2075.00
767.62	2144.02
767.81	1889.25
768.00	1953.76
768.18	1975.06
768.37	1900.72
768.56	1798.53
768.74	1870.41
768.93	1805.90
769.11	1979.98
769.30	1933.28
769.49	1864.68
769.67	1905.02
769.86	1870.41
770.04	1888.23
770.23	1863.86
770.42	2106.95
770.60	1934.10
770.79	1811.22
770.97	1901.54
771.16	2445.89
771.35	3277.36
771.53	4053.13
771.72	4553.45
771.90	5207.98
772.09	5581.53
772.27	5018.14
772.46	4029.17
772.65	4115.19
772.83	3781.37
773.02	3681.84
773.20	3339.83
773.39	3396.97
773.58	3175.79
773.76	2751.86
773.95	2722.36
774.13	2636.76
774.32	2380.56
774.50	2159.38
774.69	2135.01
774.87	2005.78
775.06	2300.89
775.25	1857.30
775.43	1897.24
775.62	1958.27
775.80	1984.28
775.99	1962.57
776.17	1829.25
776.36	1921.20
776.54	2075.00
776.73	1896.42
776.92	1971.17
777.10	2094.87
777.29	1974.86
777.47	1817.98
777.66	1839.49
777.84	1923.66
778.03	1940.86
778.21	1814.50
778.40	1926.11
778.58	1966.66
778.77	2056.16
778.95	1760.43
779.14	1815.93
779.32	2145.04
779.51	2043.26
779.70	1875.53
779.88	1764.12
780.07	1858.33
780.25	2236.38
780.44	1881.06
780.62	2014.59
780.81	1993.90
780.99	1944.14
781.18	1822.28
781.36	1872.87
781.55	1881.88
781.73	2085.45
781.92	1786.24
782.10	1761.87
782.29	1951.71
782.47	2093.84
782.66	1892.32
782.84	1744.46
783.03	1818.80
783.21	2067.83
783.40	1874.71
783.58	1832.32
783.77	1819.42
783.95	1890.48
784.14	1788.29
784.32	1886.38
784.51	2098.14
784.69	1882.49
784.88	1793.00
785.06	1921.40
785.24	1847.06
785.43	2072.54
785.61	2001.89
785.80	1847.06
785.98	2014.79
786.17	1971.78
786.35	1862.63
786.54	1987.55
786.72	2087.29
786.91	2049.61
787.09	1913.01
787.28	1810.40
787.46	1935.74
787.65	2016.23
787.83	1783.17
788.01	1958.27
788.20	1849.73
788.38	2022.78
788.57	1944.14
788.75	1985.92
788.94	2278.98
789.12	2152.82
789.31	1980.39
789.49	2055.75
789.67	1913.21
789.86	2053.70
790.04	1899.70
790.23	1808.77
790.41	2276.32
790.60	1970.35
790.78	1957.45
790.96	1951.92
791.15	2055.14
791.33	1962.57
791.52	1932.46
791.70	1845.02
791.89	1941.68
792.07	2033.63
792.25	1948.03
792.44	1761.87
792.62	2058.82
792.81	1880.44
792.99	1957.04
793.17	1833.96
793.36	1859.56
793.54	2355.57
793.73	2848.11
793.91	3476.43
794.10	4027.94
794.28	4536.66
794.46	4527.24
794.65	4417.88
794.83	3700.68
795.01	3537.05
795.20	3598.08
795.38	3277.98
795.57	3223.09
795.75	3138.31
795.93	2869.61
796.12	2789.33
796.30	2743.05
796.49	2628.57
796.67	2317.69
796.85	2381.79
797.04	2241.30
797.22	2211.40
797.40	1911.16
797.59	2023.19
797.77	2018.68
797.96	1909.94
798.14	1871.64
798.32	1857.30
798.51	2066.40
798.69	2187.23
798.87	1901.54
799.06	1900.52
799.24	1795.04
799.42	2264.03
799.61	2614.64
799.79	2930.64
799.98	3459.02
800.16	3567.56
800.34	4323.26
800.53	5262.46
800.71	5574.16
800.89	6433.28
801.08	6607.77
801.26	6526.67
801.44	5599.97
801.63	4779.75
801.81	4629.43
801.99	4353.16
802.18	4100.85
802.36	3974.08
802.54	3713.99
802.73	3258.11
802.91	3187.87
803.09	2997.61
803.28	2823.12
803.46	2639.22
803.64	2665.23
803.83	2163.27
804.01	2075.62
804.19	1961.75
804.38	2196.65
804.56	2127.63
804.74	2031.18
804.92	2033.22
805.11	1898.67
805.29	2151.60
805.47	1934.72
805.66	1847.27
805.84	1868.98
806.02	2111.05
806.21	1918.95
806.39	2084.83
806.57	2108.79
806.76	2060.26
806.94	1970.56
807.12	1923.04
807.30	1942.09
807.49	2071.32
807.67	2029.33
807.85	2119.24
808.04	2112.68
808.22	2308.88
808.40	1848.50
808.58	1851.36
808.77	2055.75
808.95	2258.70
809.13	2425.41
809.31	3816.59
809.50	5219.45
809.68	6013.04
809.86	6629.48
810.05	7154.17
810.23	7860.31
810.41	9824.11
810.59	15309.80
810.78	18746.29
810.96	21493.23
811.14	23317.97
811.32	22739.42
811.51	18661.91
811.69	15097.63
811.87	14873.37
812.05	13049.04
812.24	12267.74
812.42	11361.11
812.60	10256.84
812.78	8714.93
812.97	7561.10
813.15	6922.54
813.33	5993.18
813.51	5253.04
813.70	4254.25
813.88	3631.66
814.06	3114.55
814.24	2731.58
814.42	2294.13
814.61	2299.87
814.79	2375.03
814.97	1920.99
815.15	1959.91
815.34	2023.80
815.52	2098.76
815.70	1837.44
815.88	1887.20
816.06	1850.13
816.25	1889.87
816.43	1826.99
816.61	2000.25
816.79	2157.13
816.98	1806.10
817.16	1912.60
817.34	1867.95
817.52	2073.98
817.70	2181.70
817.89	1941.47
818.07	1830.68
818.25	1952.12
818.43	1959.70
818.61	1902.56
818.80	1840.10
818.98	2165.73
819.16	1964.00
819.34	1815.11
819.52	2109.00
819.70	1838.67
819.89	1937.38
820.07	1761.87
820.25	1742.41
820.43	1942.09
820.61	2024.21
820.80	1890.07
820.98	1820.23
821.16	1721.11
821.34	1779.89
821.52	1857.51
821.70	1902.36
821.89	1901.95
822.07	1894.37
822.25	1872.87
822.43	1772.31
822.61	2096.92
822.79	1936.56
822.98	1858.12
823.16	1685.27
823.34	1932.26
823.52	2049.81
823.70	1979.16
823.88	1713.33
824.06	1965.23
824.25	1916.08
824.43	1996.16
824.61	1834.98
824.79	1978.13
824.97	2052.47
825.15	2128.45
825.33	2509.58
825.52	3043.49
825.70	3234.15
825.88	3444.68
826.06	3749.63
826.24	3788.95
826.42	3525.78
826.60	3071.34
826.78	3074.00
826.97	2859.99
827.15	2940.06
827.33	2589.86
827.51	2627.54
827.69	2448.35
827.87	2468.42
828.05	2370.52
828.23	2159.38
828.41	2303.35
828.60	2243.96
828.78	1932.26
828.96	2058.21
829.14	1939.22
829.32	1923.66
829.50	1905.43
829.68	1862.63
829.86	1884.13
830.04	1998.61
830.22	1934.31
830.41	1793.00
830.59	1892.32
830.77	2001.28
830.95	1833.14
831.13	1817.37
831.31	1814.30
831.49	2046.74
831.67	1991.85
831.85	1977.72
832.03	1877.99
832.21	1999.84
832.39	1774.77
832.57	1790.54
832.76	2031.38
832.94	1901.13
833.12	1723.78
833.30	1876.76
833.48	2051.04
833.66	1958.27
833.84	1809.59
834.02	1891.30
834.20	2027.28
834.38	2000.87
834.56	1711.69
834.74	1758.39
834.92	1780.50
835.10	2134.39
835.28	1924.27
835.46	1879.63
835.64	1878.40
835.82	1810.61
836.01	2079.10
836.19	2037.93
836.37	1830.47
836.55	1787.26
836.73	1759.21
836.91	1746.92
837.09	1977.72
837.27	2091.59
837.45	1750.19
837.63	1815.32
837.81	1785.21
837.99	1973.42
838.17	1933.69
838.35	1884.54
838.53	2302.74
838.71	2112.27
838.89	1975.06
839.07	1970.56
839.25	2048.99
839.43	2170.44
839.61	2229.42
839.79	3226.37
839.97	4260.18
840.15	4850.82
840.33	5264.51
840.51	5693.15
840.69	5457.63
840.87	4654.21
841.05	4252.40
841.23	4438.36
841.41	5430.39
841.59	7359.99
841.77	8202.52
841.95	8886.96
842.13	9580.40
842.31	9092.16
842.49	7439.25
842.67	6447.21
842.85	6330.68
843.03	5523.99
843.21	5332.09
843.39	4984.76
843.57	4623.08
843.75	4246.05
843.93	3752.08
844.11	3444.68
844.29	3241.93
844.47	2970.99
844.65	2968.74
844.83	2593.75
845.01	2449.78
845.19	2430.32
845.36	2157.74
845.54	2155.08
845.72	2014.79
845.90	2048.38
846.08	1820.44
846.26	1893.96
846.44	2013.36
846.62	2020.12
846.80	1869.18
846.98	1800.78
847.16	1901.74
847.34	1914.03
847.52	1759.61
847.70	1792.18
847.88	1874.30
848.06	2081.97
848.24	1933.08
848.41	1744.87
848.59	2048.17
848.77	1936.35
848.95	1835.18
849.13	1815.32
849.31	1987.35
849.49	1953.15
849.67	1777.23
849.85	1745.07
850.03	1966.05
850.21	1924.27
850.39	1788.29
850.57	1928.57
850.74	2068.86
850.92	2112.27
851.10	2246.21
851.28	2543.99
851.46	2901.56
851.64	3327.54
851.82	3119.06
852.00	3166.77
852.18	3093.87
852.36	2778.68
852.53	2583.10
852.71	2597.23
852.89	2579.83
853.07	2509.99
853.25	2292.70
853.43	2151.80
853.61	2238.43
853.79	2221.02
853.97	2032.81
854.14	1975.06
854.32	2227.17
854.50	2128.45
854.68	1936.15
854.86	1919.77
855.04	1843.38
855.22	2014.59
855.40	1753.68
855.57	1812.04
855.75	1998.00
855.93	1974.65
856.11	1709.64
856.29	1783.17
856.47	1796.07
856.65	1920.59
856.82	1799.75
857.00	1717.63
857.18	1887.00
857.36	1843.58
857.54	1889.25
857.72	1964.62
857.89	1999.43
858.07	1916.08
858.25	2006.60
858.43	1719.27
858.61	1854.44
858.79	1901.54
858.97	1757.57
859.14	1905.63
859.32	1874.92
859.50	1842.35
859.68	1926.52
859.86	1827.40
860.03	1961.54
860.21	2029.13
860.39	1866.31
860.57	1977.93
860.75	1987.14
860.93	2199.72
861.10	2049.40
861.28	1840.10
861.46	2010.49
861.64	2024.21
861.82	1890.07
861.99	1981.00
862.17	2056.37
862.35	2019.09
862.53	1881.47
862.71	1901.74
862.88	1952.94
863.06	2007.42
863.24	1834.78
863.42	1809.38
863.60	1886.79
863.77	1964.62
863.95	1709.23
864.13	1853.41
864.31	1830.88
864.49	1982.43
864.66	1720.91
864.84	1810.61
865.02	1913.21
865.20	2214.67
865.37	1881.26
865.55	1805.90
865.73	1805.08
865.91	2106.75
866.09	2061.89
866.26	2066.20
866.44	2189.89
866.62	2098.76
866.80	1951.51
866.97	2057.39
867.15	2026.87
867.33	2032.81
867.51	2036.09
867.68	1942.50
867.86	1939.22
868.04	1887.00
868.22	1744.05
868.39	1870.00
868.57	1956.42
868.75	2111.87
868.93	1777.43
869.10	1825.35
869.28	2147.30
869.46	2075.82
869.64	1871.84
869.81	1857.10
869.99	1905.63
870.17	1901.33
870.35	1788.90
870.52	1787.26
870.70	1991.04
870.88	1842.76
871.05	1755.11
871.23	1664.79
871.41	1841.53
871.59	1868.77
871.76	1835.39
871.94	1781.12
872.12	1860.58
872.29	1749.99
872.47	1796.48
872.65	1760.02
872.83	1909.32
873.00	2070.29
873.18	1859.56
873.36	1796.48
873.53	1999.02
873.71	1737.09
873.89	1805.49
874.06	1838.87
874.24	1944.96
874.42	2031.18
874.60	1946.59
874.77	1890.68
874.95	1792.38
875.13	2017.86
875.30	1782.55
875.48	1837.64
875.66	2113.71
875.83	1864.47
876.01	1862.42
876.19	1972.19
876.36	1785.01
876.54	1916.28
876.72	1768.22
876.89	1904.61
877.07	2003.12
877.25	1689.37
877.42	1916.69
877.60	1838.87
877.78	2108.18
877.95	1834.98
878.13	1808.56
878.31	1927.96
878.48	2008.24
878.66	1983.46
878.84	1808.97
879.01	1863.24
879.19	1943.32
879.37	1982.23
879.54	1798.12
879.72	1752.86
879.90	1693.87
880.07	1988.58
880.25	1632.64
880.42	1947.41
880.60	1910.55
880.78	1999.23
880.95	1802.42
881.13	1847.68
881.31	1884.75
881.48	1806.72
881.66	1786.03
881.83	1876.96
882.01	1779.48
882.19	1726.64
882.36	1862.01
882.54	1803.65
882.72	1946.39
882.89	1880.65
883.07	1747.33
883.24	1809.38
883.42	1986.94
883.60	1901.95
883.77	1759.41
883.95	1832.32
884.12	2062.51
884.30	1997.59
884.48	2072.75
884.65	1936.56
884.83	2035.07
885.00	2016.23
885.18	1835.59
885.36	1866.31
885.53	2018.89
885.71	2092.20
885.88	1743.23
886.06	1829.66
886.23	1986.32
886.41	1849.93
886.59	1793.61
886.76	1779.68
886.94	1955.61
887.11	2216.31
887.29	1855.46
887.47	1741.39
887.64	2009.88
887.82	2057.18
887.99	1691.62
888.17	1875.94
888.34	1856.69
888.52	1740.16
888.69	1865.90
888.87	1756.95
889.05	1847.88
889.22	1835.59
889.40	1805.69
889.57	1941.68
889.75	2068.24
889.92	1822.90
890.10	1742.62
890.27	1817.78
890.45	1800.16
890.62	1678.52
890.80	1758.59
890.98	1688.76
891.15	2066.20
891.33	1995.34
891.50	1791.15
891.68	1698.59
891.85	1991.65
892.03	1966.87
892.20	1788.49
892.38	1738.93
892.55	1973.42
892.73	1936.15
892.90	1751.22
893.08	1813.07
893.25	1791.77
893.43	1831.50
893.60	1941.27
893.78	1661.72
893.95	1943.52
894.13	1883.72
894.30	1752.24
894.48	1836.82
894.65	1992.88
894.83	1913.21
895.00	1652.92
895.18	1679.54
895.35	1985.30
895.53	1956.01
895.70	1747.94
895.88	1934.51
896.05	1965.44
896.23	1740.16
896.40	1812.04
896.58	1906.04
896.75	1998.61
896.93	2074.80
897.10	1793.00
897.28	1738.73
897.45	1910.14
897.63	1944.75
897.80	1929.39
897.98	1836.00
898.15	1943.93
898.33	1790.95
898.50	1889.05
898.67	1841.33
898.85	1842.35
899.02	1934.31
899.20	2012.54
899.37	1848.29
899.55	1896.01
899.72	2073.57
899.90	1770.26
900.07	1769.45
900.25	1944.96
900.42	2029.54
900.59	1764.73
900.77	1919.77
900.94	1950.28
901.12	1909.32
901.29	1773.34
901.47	1920.79
901.64	1948.64
901.82	1871.23
901.99	1633.26
902.16	1772.31
902.34	1991.85
902.51	1906.86
902.69	1795.45
902.86	1841.74
903.03	2320.35
903.21	1889.25
903.38	1862.83
903.56	1761.25
903.73	2012.13
903.91	1833.34
904.08	1755.11
904.25	1651.48
904.43	1759.41
904.60	2005.17
904.78	1812.66
904.95	1727.05
905.12	1839.90
905.30	2113.50
905.47	1914.03
905.65	1992.47
905.82	1925.30
905.99	2002.71
906.17	1909.53
906.34	1848.91
906.52	1865.70
906.69	2087.29
906.86	2032.81
907.04	1951.10
907.21	2101.42
907.38	2063.33
907.56	1851.36
907.73	1854.03
907.91	2104.49
908.08	2050.43
908.25	1794.43
908.43	1773.95
908.60	1955.40
908.77	1940.04
908.95	1813.48
909.12	1772.31
909.30	2010.29
909.47	1738.11
909.64	1833.75
909.82	1962.77
909.99	1857.30
910.16	1912.60
910.34	1759.61
910.51	1817.57
910.68	1947.62
910.86	1890.89
911.03	1771.90
911.20	2022.78
911.38	2817.80
911.55	3849.16
911.72	4268.99
911.90	4478.70
912.07	4870.68
912.24	4868.23
912.42	3924.73
912.59	3148.55
912.76	3157.56
912.94	2775.00
913.11	2562.83
913.28	2429.51
913.46	2281.23
913.63	2391.41
913.80	2482.55
913.98	2161.22
914.15	2323.63
914.32	2348.00
914.49	2187.23
914.67	2013.77
914.84	2158.15
915.01	2219.79
915.19	2106.54
915.36	1989.81
915.53	2136.65
915.71	2069.88
915.88	1956.83
916.05	1826.79
916.22	2030.77
916.40	1931.03
916.57	1784.19
916.74	1913.62
916.92	2084.01
917.09	1751.42
917.26	1764.53
917.43	1755.72
917.61	1857.71
917.78	1707.80
917.95	1674.83
918.13	1757.57
918.30	2163.27
918.47	1922.43
918.64	1769.24
918.82	1799.14
918.99	1935.74
919.16	2209.96
919.33	1947.21
919.51	1859.76
919.68	2005.78
919.85	2123.13
920.02	1770.67
920.20	1863.04
920.37	2115.76
920.54	2031.58
920.71	1812.86
920.89	1823.51
921.06	2140.74
921.23	1822.90
921.40	1819.62
921.58	2167.98
921.75	2744.48
921.92	2350.45
922.09	2481.52
922.27	2456.33
922.44	2423.98
922.61	2313.39
922.78	2067.83
922.96	2007.21
923.13	2023.39
923.30	2099.17
923.47	1817.98
923.64	1886.38
923.82	2044.90
923.99	1987.14
924.16	1943.93
924.33	1790.95
924.50	1966.87
924.68	2140.13
924.85	1776.61
925.02	1850.13
925.19	2006.39
925.36	1959.91
925.54	1912.19
925.71	1873.48
925.88	2294.13
926.05	1886.79
926.22	1753.88
926.40	1865.09
926.57	1933.28
926.74	1971.99
926.91	1785.42
927.08	1964.41
927.26	1979.77
927.43	1921.20
927.60	1770.26
927.77	1829.04
927.94	2088.52
928.11	2046.74
928.29	1715.17
928.46	1853.62
928.63	1811.43
928.80	1882.08
928.97	1944.55
929.14	1768.83
929.32	2130.71
929.49	1897.03
929.66	1773.95
929.83	1695.31
930.00	1828.63
930.17	1922.22
930.35	1702.27
930.52	1781.32
930.69	2084.22
930.86	1784.19
931.03	1866.31
931.20	1636.94
931.37	2050.22
931.55	1877.58
931.72	1881.06
931.89	1697.56
932.06	1753.06
932.23	2092.82
932.40	1924.07
932.57	1877.58
932.74	2048.79
932.92	2044.69
933.09	1923.25
933.26	1566.70
933.43	1838.26
933.60	1918.33
933.77	1839.90
933.94	1871.43
934.11	1858.74
934.29	1897.03
934.46	1735.24
934.63	1859.56
934.80	1765.35
934.97	1905.02
935.14	1839.28
935.31	1707.39
935.48	1812.66
935.65	1920.99
935.82	1869.39
936.00	1735.86
936.17	2079.10
936.34	1870.82
936.51	1937.79
936.68	1727.46
936.85	1918.54
937.02	1930.42
937.19	1873.69
937.36	1841.94
937.53	1932.26
937.70	2008.03
937.87	1856.07
938.05	1894.17
938.22	1905.43
938.39	1764.94
938.56	1835.18
938.73	1763.51
938.90	1870.21
939.07	1813.48
939.24	1837.03
939.41	1662.13
939.58	1946.59
939.75	1940.66
939.92	1751.83
940.09	1976.90
940.26	1842.56
940.43	1982.84
940.60	1779.48
940.77	1801.80
940.95	1918.74
941.12	1961.95
941.29	1802.62
941.46	1848.91
941.63	2034.66
941.80	2071.52
941.97	1678.31
942.14	1700.63
942.31	1964.41
942.48	1854.44
942.65	1913.83
942.82	1825.35
942.99	1965.23
943.16	1896.21
943.33	1742.21
943.50	1723.57
943.67	1984.69
943.84	2008.85
944.01	1801.19
944.18	1740.36
944.35	2040.19
944.52	1781.94
944.69	1844.61
944.86	1689.57
945.03	1964.41
945.20	2203.61
945.37	1664.59
945.54	1839.28
945.71	2062.30
945.88	2118.21
946.05	1743.85
946.22	1764.73
946.39	2071.93
946.56	1886.59
946.73	1709.23
946.90	1718.25
947.07	1812.04
947.24	1882.49
947.41	1683.84
947.58	1922.02
947.75	1961.54
947.92	1921.40
948.09	1603.35
948.26	1701.66
948.43	1904.00
948.60	2133.37
948.77	1761.87
948.94	1785.62
949.11	1979.77
949.27	1932.05
949.44	1760.43
949.61	1769.85
949.78	1917.10
949.95	2007.83
950.12	1737.29
950.29	1700.02
950.46	1834.16
950.63	2001.68
950.80	1776.20
950.97	1814.30
951.14	2014.18
951.31	1807.33
951.48	1766.58
951.65	1719.47
951.82	2113.09
951.99	1873.48
952.15	1689.98
952.32	1783.99
952.49	1766.37
952.66	1800.78
952.83	1743.85
953.00	1731.76
953.17	1893.96
953.34	1996.16
953.51	1822.28
953.68	1795.86
953.85	2001.68
954.02	2031.18
954.18	1824.13
954.35	1809.99
954.52	1756.95
954.69	1906.86
954.86	1644.52
955.03	1824.54
955.20	1947.62
955.37	1874.30
955.54	1765.35
955.71	1749.17
955.87	1944.14
956.04	2123.74
956.21	1791.56
956.38	1769.65
956.55	1862.22
956.72	2193.78
956.89	1828.63
957.06	1753.68
957.23	1814.50
957.39	2036.09
957.56	1798.73
957.73	1694.49
957.90	1606.63
958.07	2130.09
958.24	1805.90
958.41	1783.78
958.57	1975.27
958.74	1870.82
958.91	1707.39
959.08	1777.02
959.25	1951.71
959.42	1853.62
959.59	1854.85
959.75	1789.11
959.92	2048.58
960.09	2023.19
960.26	1754.09
960.43	1858.74
960.60	1904.61
960.76	1847.47
960.93	1691.62
961.10	1848.09
961.27	1970.35
961.44	1855.46
961.61	1688.14
961.77	1712.51
961.94	1889.66
962.11	1968.10
962.28	1788.90
962.45	1707.60
962.62	1817.37
962.78	1977.72
962.95	1746.51
963.12	1772.11
963.29	1936.76
963.46	2250.51
963.62	1825.56
963.79	1766.58
963.96	2184.57
964.13	1846.24
964.30	1842.56
964.46	1776.00
964.63	1783.17
964.80	2248.26
964.97	1676.88
965.14	1969.53
965.30	2082.58
965.47	2125.59
965.64	2099.78
965.81	2029.95
965.98	2197.47
966.14	1999.23
966.31	1891.09
966.48	1878.40
966.65	2102.85
966.81	2002.09
966.98	1881.67
967.15	1872.87
967.32	1928.57
967.49	1808.36
967.65	1677.49
967.82	1664.79
967.99	1922.63
968.16	1723.98
968.32	1962.16
968.49	1798.73
968.66	1875.73
968.83	2102.65
968.99	1843.38
969.16	1716.81
969.33	2080.12
969.50	1956.22
969.66	1885.36
969.83	1979.77
970.00	1979.77
970.17	1947.00
970.33	1786.44
970.50	1716.20
970.67	2077.46
970.84	2043.05
971.00	1730.12
971.17	1705.75
971.34	1961.54
971.50	1885.77
971.67	1893.35
971.84	1828.02
972.01	1759.41
972.17	1622.40
972.34	1746.10
972.51	1861.60
972.67	2011.11
972.84	1911.57
973.01	1732.38
973.18	1739.75
973.34	1976.90
973.51	1773.34
973.68	1787.88
973.84	1798.12
974.01	1832.93
974.18	2080.53
974.34	1858.53
974.51	1861.60
974.68	1806.92
974.85	2093.84
975.01	1903.79
975.18	1807.74
975.35	1903.18
975.51	1776.61
975.68	1668.28
975.85	1913.42
976.01	1796.48
976.18	2037.52
976.35	1771.90
976.51	1750.60
976.68	2107.77
976.85	2020.73
977.01	1797.09
977.18	1872.46
977.35	1954.17
977.51	1733.61
977.68	1632.23
977.85	1727.67
978.01	2025.24
978.18	1967.07
978.35	1819.42
978.51	1848.50
978.68	2005.17
978.85	2086.27
979.01	1783.78
979.18	1827.40
979.34	1841.53
979.51	1887.20
979.68	1735.24
979.84	1821.05
980.01	2204.23
980.18	1891.91
980.34	1744.66
980.51	1843.17
980.67	1982.64
980.84	1994.11
981.01	1793.41
981.17	1858.94
981.34	1675.85
981.51	1952.12
981.67	1728.69
981.84	1906.86
982.00	1942.91
982.17	1864.27
982.34	1639.40
982.50	1564.03
982.67	2059.03
982.83	1828.43
983.00	1716.40
983.17	1618.51
983.33	1994.31
983.50	1698.38
983.66	1701.25
983.83	1608.27
984.00	1827.40
984.16	1896.83
984.33	1625.06
984.49	1604.79
984.66	1779.68
984.83	1994.93
984.99	1630.59
985.16	1593.93
985.32	1949.46
985.49	1957.45
985.65	1735.04
985.82	1608.27
985.99	2074.59
986.15	1907.48
986.32	1710.87
986.48	1678.52
986.65	1843.99
986.81	1968.71
986.98	1617.08
987.14	1673.40
987.31	1872.05
987.48	1703.91
987.64	1566.49
987.81	1589.43
987.97	2139.10
988.14	1771.08
988.30	1637.15
988.47	1510.38
988.63	1904.00
988.80	1761.66
988.96	1693.87
989.13	1729.92
989.30	1824.54
989.46	1969.33
989.63	1568.74
989.79	1607.04
989.96	1862.42
990.12	2035.27
990.29	1659.47
990.45	1688.96
990.62	1866.11
990.78	2019.91
990.95	1739.75
991.11	1658.04
991.28	1821.67
991.44	1917.31
991.61	1544.37
991.77	1684.25
991.94	1900.72
992.10	1995.34
992.27	1700.84
992.43	1689.57
992.60	1913.83
992.76	1833.75
992.93	1785.62
993.09	1600.90
993.26	1986.12
993.42	2082.99
993.59	1658.85
993.75	1572.64
993.92	1773.13
994.08	1810.20
994.25	1728.90
994.41	1613.18
994.58	1937.79
994.74	2039.98
994.91	1612.98
995.07	1716.20
995.24	1855.87
995.40	1865.09
995.56	1771.70
995.73	1743.23
995.89	2076.85
996.06	1862.42
996.22	1618.71
996.39	1565.47
996.55	1858.74
996.72	1935.54
996.88	1570.59
997.05	1631.82
997.21	2095.28
997.37	1976.49
997.54	1712.10
997.70	1682.61
997.87	1908.09
998.03	1866.52
998.20	1549.08
998.36	1585.54
998.52	1959.70
998.69	1971.99
998.85	1574.68
999.02	1668.28
999.18	1998.61
999.35	1970.76
999.51	1673.40
999.67	1687.53
999.84	1747.74
1000.00	1966.25
1000.17	1742.21
1000.33	1607.04
1000.49	1794.84
1000.66	1836.82
1000.82	1650.87
1000.99	1708.62
1001.15	2013.97
1001.31	1831.09
1001.48	1665.20
1001.64	1719.88
1001.81	1820.44
1001.97	2111.05
1002.13	1649.23
1002.30	1681.59
1002.46	2034.04
1002.63	1827.40
1002.79	1727.26
1002.95	1638.38
1003.12	2014.79
1003.28	1900.72
1003.45	1642.47
1003.61	1613.18
1003.77	1893.55
1003.94	1709.85
1004.10	1666.84
1004.26	1726.44
1004.43	1945.78
1004.59	2096.51
1004.75	1631.41
1004.92	1611.55
1005.08	1820.64
1005.25	1891.30
1005.41	1649.64
1005.57	1727.87
1005.74	2022.98
1005.90	1878.60
1006.06	1782.96
1006.23	1647.39
1006.39	1975.27
1006.55	2212.42
1006.72	1825.76
1006.88	1607.45
1007.04	1789.11
1007.21	1847.47
1007.37	1691.83
1007.53	1648.21
1007.70	2052.88
1007.86	1970.56
1008.02	1700.43
1008.19	1609.91
1008.35	1888.64
1008.51	1777.43
1008.68	1687.32
1008.84	1581.03
1009.00	1777.84
1009.17	2002.91
1009.33	1771.49
1009.49	1729.10
1009.65	1790.33
1009.82	1953.76
1009.98	1739.95
1010.14	1556.25
1010.31	1966.25
1010.47	1934.10
1010.63	1722.55
1010.80	1697.36
1010.96	1911.16
1011.12	1858.12
1011.28	1662.95
1011.45	1668.68
1011.61	2230.03
1011.77	1778.46
1011.94	1623.22
1012.10	1609.09
1012.26	1751.63
1012.42	1803.24
1012.59	1680.15
1012.75	1692.85
1012.91	1825.35
1013.07	1969.94
1013.24	1600.28
1013.40	1642.06
1013.56	1916.08
1013.72	1843.99
1013.89	1746.51
1014.05	1726.44
1014.21	2102.85
1014.37	2167.16
1014.54	1723.16
1014.70	1626.29
1014.86	1837.64
1015.02	1743.44
1015.19	1667.87
1015.35	1606.22
1015.51	1839.28
1015.67	1822.90
1015.84	1648.82
1016.00	1637.35
1016.16	2002.91
1016.32	1982.84
1016.49	1632.23
1016.65	1603.56
1016.81	1824.13
1016.97	1930.42
1017.14	1764.53
1017.30	1649.23
1017.46	1787.06
1017.62	1908.71
1017.78	1725.41
1017.95	1603.35
1018.11	1986.73
1018.27	2153.44
1018.43	1763.92
1018.59	1703.50
1018.76	1958.68
1018.92	2204.84
1019.08	1614.62
1019.24	1638.38
1019.40	2017.45
1019.57	1903.79
1019.73	1740.98
1019.89	1653.94
1020.05	1899.08
1020.21	2112.48
1020.38	1629.36
1020.54	1800.37
1020.70	1960.73
1020.86	1948.85
1021.02	1671.55
1021.18	1615.23
1021.35	1814.30
1021.51	1955.81
1021.67	1769.04
1021.83	1660.90
1021.99	1871.43
1022.15	1907.68
1022.32	1720.09
1022.48	1713.54
1022.64	2056.37
1022.80	2054.93
1022.96	1701.45
1023.12	1601.51
1023.29	2021.14
1023.45	1900.92
1023.61	1635.51
1023.77	1797.09
1023.93	1886.79
1024.09	1787.47
1024.25	1653.12
1024.42	1622.20
1024.58	1817.98
1024.74	1909.53
1024.90	1658.65
1025.06	1740.98
1025.22	1818.80
1025.38	2052.27
1025.54	1588.81
1025.71	1727.05
1025.87	1963.39
1026.03	1932.87
1026.19	1632.44
1026.35	1768.22
1026.51	1945.78
1026.67	1893.35
1026.83	1699.61
1026.99	1785.42
1027.16	1944.55
1027.32	1872.25
1027.48	1677.29
1027.64	1620.97
1027.80	1968.10
1027.96	1897.03
1028.12	1658.24
1028.28	1629.57
1028.44	1910.96
1028.60	2091.18
1028.77	1757.98
1028.93	1727.67
1029.09	1820.44
1029.25	1733.40
1029.41	1686.91
1029.57	1736.27
1029.73	1894.17
1029.89	2069.06
1030.05	1777.02
1030.21	1750.81
1030.37	2171.26
1030.53	1955.20
1030.69	1720.70
1030.85	1595.37
1031.02	1766.17
1031.18	1869.59
1031.34	1692.44
1031.50	1719.68
1031.66	1778.25
1031.82	2079.10
1031.98	1690.60
1032.14	1641.04
1032.30	1781.73
1032.46	1968.51
1032.62	1785.42
1032.78	1617.90
1032.94	1772.11
1033.10	1841.94
1033.26	1735.04
1033.42	1756.13
1033.58	2113.71
1033.74	1804.06
1033.90	1666.23
1034.06	1840.51
1034.22	2150.98
1034.38	1993.70
1034.54	1691.21
1034.70	1712.92
1034.86	2106.75
>>>>>End Processed Spectral Data<<<<<
