SpectraSuite Data File
++++++++++++++++++++++++++++++++++++
Date: Thu Mar 30 14:19:46 PDT 2017
User: UCSD _CER
Dark Spectrum Present: No
Reference Spectrum Present: No
Number of Sampled Component Spectra: 1
Spectrometers: USB4C00073
Integration Time (usec): 380000 (USB4C00073)
Spectra Averaged: 10 (USB4C00073)
Boxcar Smoothing: 0 (USB4C00073)
Correct for Electrical Dark: No (USB4C00073)
Strobe/Lamp Enabled: No (USB4C00073)
Correct for Detector Non-linearity: No (USB4C00073)
Correct for Stray Light: No (USB4C00073)
Number of Pixels in Processed Spectrum: 3648
>>>>>Begin Processed Spectral Data<<<<<
345.37	1246.80
345.58	1246.80
345.80	1246.80
346.01	1231.24
346.22	1249.26
346.43	2027.08
346.65	1866.52
346.86	2409.44
347.07	2353.73
347.28	1834.16
347.50	1816.55
347.71	2139.51
347.92	1822.90
348.13	1805.69
348.35	1789.52
348.56	2104.90
348.77	1915.26
348.98	1817.57
349.20	1679.54
349.41	2114.94
349.62	2246.01
349.83	1889.25
350.05	1775.38
350.26	2155.90
350.47	2298.23
350.68	1815.52
350.90	1748.35
351.11	2339.39
351.32	2307.45
351.53	1831.91
351.75	1756.95
351.96	2119.24
352.17	2072.54
352.38	1897.65
352.60	1886.59
352.81	2103.26
353.02	2422.54
353.23	1765.14
353.44	1806.72
353.66	2014.38
353.87	2015.20
354.08	1894.17
354.29	1794.43
354.51	1986.12
354.72	2032.61
354.93	1781.94
355.14	1759.00
355.35	1800.78
355.57	2230.44
355.78	1837.44
355.99	1876.35
356.20	2077.25
356.42	2052.27
356.63	1882.70
356.84	1797.09
357.05	2226.76
357.26	2438.11
357.48	1946.18
357.69	1881.67
357.90	2172.28
358.11	2022.78
358.32	1842.35
358.54	1863.24
358.75	2016.02
358.96	2247.65
359.17	1772.11
359.38	1833.34
359.60	2216.52
359.81	2068.65
360.02	1820.23
360.23	1751.22
360.44	1968.92
360.66	2276.93
360.87	1769.65
361.08	1778.05
361.29	2150.78
361.50	2134.80
361.72	1790.13
361.93	1898.06
362.14	2098.14
362.35	1837.03
362.56	1948.03
362.77	1719.06
362.99	2190.10
363.20	2079.92
363.41	1900.92
363.62	1694.49
363.83	2185.18
364.05	2243.14
364.26	1745.69
364.47	1789.72
364.68	2283.49
364.89	1983.46
365.10	1749.78
365.32	1857.92
365.53	1950.69
365.74	2021.96
365.95	1799.55
366.16	1680.97
366.37	2086.68
366.59	2044.69
366.80	1823.31
367.01	1702.68
367.22	2446.30
367.43	2586.79
367.64	1870.21
367.86	1798.32
368.07	2165.93
368.28	2303.96
368.49	1710.26
368.70	1857.51
368.91	2031.99
369.12	2079.10
369.34	1728.28
369.55	1721.32
369.76	2123.33
369.97	2025.85
370.18	1736.88
370.39	1771.90
370.60	1872.66
370.82	1922.63
371.03	1838.05
371.24	1795.45
371.45	2224.30
371.66	2199.11
371.87	1813.27
372.08	1837.23
372.30	1952.94
372.51	2329.36
372.72	1958.27
372.93	1829.25
373.14	2383.43
373.35	1970.76
373.56	1746.30
373.78	1826.99
373.99	2219.59
374.20	2599.90
374.41	1823.10
374.62	1779.89
374.83	2360.69
375.04	2024.62
375.25	1846.45
375.47	1843.79
375.68	2014.38
375.89	2219.79
376.10	1863.65
376.31	1900.11
376.52	2177.61
376.73	2166.34
376.94	1867.34
377.15	1782.35
377.37	2085.24
377.58	2062.30
377.79	1724.80
378.00	1774.36
378.21	2125.18
378.42	2209.35
378.63	1882.70
378.84	1907.07
379.05	2255.22
379.27	2118.21
379.48	1905.23
379.69	1769.65
379.90	2275.50
380.11	1806.51
380.32	1824.94
380.53	1942.29
380.74	2331.61
380.95	2137.87
381.16	1872.66
381.37	1867.75
381.59	2334.48
381.80	2256.25
382.01	1786.44
382.22	1758.59
382.43	2182.52
382.64	2077.05
382.85	1747.74
383.06	1871.23
383.27	2204.43
383.48	2061.49
383.69	1851.57
383.91	1760.64
384.12	2213.85
384.33	2204.64
384.54	1861.60
384.75	1790.74
384.96	2622.83
385.17	2274.68
385.38	1812.04
385.59	1787.26
385.80	2193.17
386.01	2328.75
386.22	1921.81
386.43	1836.82
386.64	2477.02
386.86	2071.32
387.07	1907.68
387.28	1734.02
387.49	1986.12
387.70	2295.36
387.91	1930.01
388.12	1802.62
388.33	2165.52
388.54	1985.30
388.75	1779.48
388.96	1885.77
389.17	2022.98
389.38	2024.21
389.59	1885.97
389.80	1901.54
390.01	2075.62
390.22	2007.83
390.43	1899.08
390.64	1701.04
390.86	2176.17
391.07	2280.82
391.28	1815.32
391.49	1884.13
391.70	1890.07
391.91	1979.77
392.12	1843.38
392.33	1906.25
392.54	2142.99
392.75	2071.73
392.96	1921.81
393.17	1827.40
393.38	2499.34
393.59	2263.01
393.80	1735.04
394.01	1839.08
394.22	2065.17
394.43	2392.23
394.64	1731.15
394.85	1887.61
395.06	2064.15
395.27	2108.79
395.48	1834.57
395.69	1741.18
395.90	2052.27
396.11	2100.81
396.32	1834.57
396.53	1918.95
396.74	2047.15
396.95	2225.73
397.16	1805.69
397.37	1707.39
397.58	2230.24
397.79	2111.05
398.00	1876.76
398.21	1862.22
398.42	2150.98
398.63	2480.70
398.84	1837.03
399.05	1797.50
399.26	2318.92
399.47	2155.28
399.68	1703.71
399.89	1758.39
400.10	1930.62
400.31	2031.18
400.52	1887.61
400.73	1816.55
400.94	1878.60
401.15	2150.37
401.36	1850.13
401.57	1880.44
401.78	2284.51
401.99	2252.56
402.20	1772.11
402.41	1965.85
402.62	2374.82
402.83	2052.06
403.04	1769.65
403.25	2016.63
403.46	2126.20
403.67	2307.65
403.88	1821.67
404.09	1784.60
404.30	1996.97
404.51	1990.63
404.72	1759.21
404.93	1976.29
405.14	1959.91
405.35	2086.68
405.56	1856.69
405.77	1778.66
405.98	2119.24
406.19	2086.27
406.40	1766.17
406.61	1814.50
406.82	1990.01
407.03	2496.88
407.24	1780.30
407.45	1871.02
407.66	2187.85
407.87	2257.48
408.08	1890.07
408.29	1911.78
408.49	2190.51
408.70	2084.01
408.91	1806.72
409.12	1970.15
409.33	1916.90
409.54	2303.56
409.75	1786.85
409.96	1839.90
410.17	2233.72
410.38	2064.97
410.59	1799.96
410.80	1931.23
411.01	2068.04
411.22	2065.17
411.43	1898.67
411.64	1763.30
411.85	1943.11
412.06	1924.68
412.27	1661.52
412.47	1781.94
412.68	2100.40
412.89	2174.33
413.10	1824.33
413.31	1742.41
413.52	2411.07
413.73	2414.35
413.94	1794.64
414.15	1962.36
414.36	1995.95
414.57	1928.37
414.78	1733.81
414.99	1755.93
415.19	2194.81
415.40	2137.46
415.61	2038.75
415.82	1887.41
416.03	2190.92
416.24	2149.75
416.45	1830.06
416.66	1755.31
416.87	1871.64
417.08	2184.36
417.29	1785.62
417.50	1871.02
417.70	2163.88
417.91	2149.75
418.12	1863.24
418.33	1837.03
418.54	2139.51
418.75	2233.11
418.96	1963.59
419.17	1893.14
419.38	2335.09
419.59	2201.36
419.79	1951.51
420.00	1888.02
420.21	2578.19
420.42	2130.71
420.63	1810.20
420.84	1888.02
421.05	2105.31
421.26	2126.00
421.47	1742.82
421.67	2166.96
421.88	1979.98
422.09	1934.92
422.30	2078.69
422.51	1867.54
422.72	2446.91
422.93	2242.53
423.14	1856.07
423.35	1738.73
423.55	1823.72
423.76	1970.15
423.97	1833.34
424.18	1675.65
424.39	2043.26
424.60	2234.95
424.81	1864.27
425.02	1902.97
425.22	2044.69
425.43	2044.69
425.64	2022.16
425.85	1858.12
426.06	2436.06
426.27	2279.80
426.48	1972.81
426.68	1953.76
426.89	2243.14
427.10	2410.46
427.31	1865.09
427.52	1814.09
427.73	2209.55
427.94	2158.35
428.14	1981.41
428.35	1889.87
428.56	2371.75
428.77	2263.82
428.98	1883.72
429.19	1898.88
429.40	2020.32
429.60	2052.47
429.81	1986.12
430.02	1904.20
430.23	2087.70
430.44	2243.34
430.65	1787.06
430.85	1839.49
431.06	2172.69
431.27	1837.03
431.48	1860.58
431.69	1853.21
431.90	2137.06
432.10	2093.02
432.31	1927.55
432.52	1866.93
432.73	2530.88
432.94	2373.39
433.15	2028.31
433.35	1844.20
433.56	2302.33
433.77	2125.38
433.98	2113.91
434.19	2053.70
434.40	2330.38
434.60	2308.06
434.81	2162.66
435.02	2061.28
435.23	2203.41
435.44	2099.99
435.64	1792.18
435.85	1787.06
436.06	2035.68
436.27	2016.84
436.48	1761.25
436.68	1829.45
436.89	2439.54
437.10	2276.93
437.31	1978.75
437.52	2061.08
437.73	2214.06
437.93	2201.98
438.14	1982.02
438.35	1770.47
438.56	2038.55
438.77	2087.90
438.97	2008.03
439.18	1866.52
439.39	2298.03
439.60	1936.35
439.80	1844.40
440.01	1875.53
440.22	2039.57
440.43	2224.30
440.64	1798.94
440.84	1882.49
441.05	1930.01
441.26	2572.66
441.47	1943.11
441.68	1907.07
441.88	2234.54
442.09	2298.03
442.30	2236.38
442.51	2252.77
442.71	2261.57
442.92	2344.51
443.13	1984.69
443.34	1929.80
443.55	1994.72
443.75	2221.23
443.96	1871.84
444.17	1791.97
444.38	2258.91
444.58	1953.76
444.79	1941.68
445.00	1921.40
445.21	2050.63
445.41	2052.68
445.62	1694.28
445.83	1934.72
446.04	2104.90
446.24	1870.00
446.45	1688.76
446.66	1862.63
446.87	2175.56
447.07	2003.53
447.28	2075.00
447.49	1848.09
447.70	2243.34
447.90	2260.14
448.11	1889.05
448.32	1952.94
448.53	2334.68
448.73	2327.72
448.94	1851.57
449.15	1982.43
449.36	2119.03
449.56	2136.65
449.77	1884.54
449.98	1771.49
450.19	2017.86
450.39	2020.53
450.60	1940.25
450.81	1951.10
451.02	2076.85
451.22	2355.37
451.43	1814.50
451.64	1851.57
451.84	2030.36
452.05	2284.30
452.26	1898.06
452.47	1904.82
452.67	2018.07
452.88	2337.76
453.09	1774.16
453.30	1788.49
453.50	2221.84
453.71	2443.23
453.92	1974.45
454.12	2167.16
454.33	2145.66
454.54	2200.54
454.75	1926.93
454.95	1860.58
455.16	2138.28
455.37	2214.26
455.57	1971.17
455.78	1885.56
455.99	2064.97
456.19	2109.82
456.40	1791.56
456.61	1887.41
456.82	2090.16
457.02	2257.89
457.23	2028.72
457.44	2178.63
457.64	2163.47
457.85	2311.95
458.06	2017.25
458.26	2084.63
458.47	2140.95
458.68	2265.05
458.89	1856.48
459.09	2042.64
459.30	2445.48
459.51	2112.27
459.71	1745.69
459.92	1816.55
460.13	2211.60
460.33	2487.67
460.54	1943.32
460.75	1930.42
460.95	1956.01
461.16	2178.63
461.37	1889.46
461.57	1887.00
461.78	2108.18
461.99	1916.90
462.19	2118.42
462.40	1806.31
462.61	2472.92
462.81	2272.22
463.02	1838.05
463.23	1845.22
463.43	2207.51
463.64	1992.67
463.85	3080.76
464.05	1841.94
464.26	2644.34
464.47	2308.27
464.67	2060.05
464.88	2012.74
465.09	2088.72
465.29	2251.54
465.50	2132.35
465.71	2075.62
465.91	2153.23
466.12	2144.02
466.33	1975.68
466.53	1858.74
466.74	2371.96
466.94	2081.97
467.15	1930.01
467.36	2071.32
467.56	1918.13
467.77	2151.19
467.98	1905.23
468.18	1876.14
468.39	1991.44
468.60	2378.72
468.80	1880.04
469.01	1804.06
469.21	2166.96
469.42	2290.86
469.63	1908.30
469.83	1813.48
470.04	2233.92
470.25	2318.71
470.45	1996.56
470.66	1870.41
470.86	2170.44
471.07	2024.83
471.28	1971.37
471.48	1939.63
471.69	2149.55
471.90	2877.81
472.10	2108.79
472.31	2094.87
472.51	2254.61
472.72	2222.05
472.93	2013.56
473.13	2107.77
473.34	2279.80
473.54	2197.06
473.75	2022.78
473.96	2115.35
474.16	2092.41
474.37	2212.01
474.57	1991.85
474.78	1830.47
474.99	2166.96
475.19	2122.31
475.40	1898.47
475.60	1899.70
475.81	2546.65
476.02	2295.16
476.22	2194.60
476.43	2248.26
476.63	2193.58
476.84	2389.77
477.05	1827.81
477.25	1902.97
477.46	2659.49
477.66	2167.16
477.87	1855.87
478.08	1892.73
478.28	2254.20
478.49	2040.39
478.69	1864.27
478.90	1898.26
479.10	2214.67
479.31	2427.05
479.52	1971.17
479.72	2031.99
479.93	2273.45
480.13	2088.93
480.34	1969.53
480.54	2052.88
480.75	2028.51
480.96	2343.08
481.16	1867.34
481.37	1994.72
481.57	2235.56
481.78	2236.79
481.98	2100.81
482.19	1997.18
482.40	2387.11
482.60	2206.48
482.81	2017.04
483.01	1841.33
483.22	2244.37
483.42	2224.71
483.63	1992.06
483.83	1947.62
484.04	2035.89
484.24	2273.45
484.45	2080.12
484.66	1867.34
484.86	2184.16
485.07	2001.68
485.27	1988.58
485.48	1851.98
485.68	2311.95
485.89	1949.05
486.09	2030.77
486.30	1886.79
486.50	2139.51
486.71	2097.73
486.91	1997.18
487.12	2257.68
487.33	2844.63
487.53	2916.72
487.74	2532.72
487.94	2503.44
488.15	2502.82
488.35	2398.38
488.56	2099.58
488.76	1980.59
488.97	2173.51
489.17	2270.58
489.38	2003.12
489.58	1948.85
489.79	2248.87
489.99	2170.44
490.20	1931.23
490.40	2036.30
490.61	2185.39
490.81	2007.83
491.02	1996.56
491.22	1943.93
491.43	2223.07
491.63	2092.82
491.84	2045.10
492.04	1829.45
492.25	2183.95
492.45	2056.78
492.66	1859.97
492.86	1820.03
493.07	2052.88
493.27	2463.09
493.48	1788.29
493.68	1862.83
493.89	2073.16
494.09	2210.17
494.30	1899.90
494.50	2128.86
494.71	2166.75
494.91	1883.11
495.12	1904.00
495.32	1983.05
495.53	2117.60
495.73	1931.44
495.94	2146.48
496.14	1970.97
496.35	2614.85
496.55	2216.72
496.76	1954.79
496.96	2023.19
497.17	2106.34
497.37	2214.88
497.58	1927.75
497.78	1825.15
497.98	2045.92
498.19	2073.36
498.39	1933.90
498.60	1982.43
498.80	1807.13
499.01	2211.19
499.21	1836.62
499.42	1962.57
499.62	2068.45
499.83	2446.30
500.03	1818.19
500.24	2008.65
500.44	2338.37
500.64	2303.35
500.85	1931.44
501.05	2018.07
501.26	1847.68
501.46	2289.63
501.67	1860.37
501.87	1817.78
502.08	1937.79
502.28	2033.02
502.48	1996.56
502.69	2016.63
502.89	1863.45
503.10	1958.06
503.30	1967.89
503.51	1956.42
503.71	1883.31
503.92	2176.17
504.12	1974.04
504.32	1859.76
504.53	2183.75
504.73	2154.87
504.94	2036.70
505.14	2159.79
505.35	2205.46
505.55	2204.64
505.75	1977.52
505.96	2126.00
506.16	2470.87
506.37	2065.58
506.57	1866.31
506.78	1987.55
506.98	2287.58
507.18	1870.61
507.39	1819.01
507.59	1893.55
507.80	2007.42
508.00	2088.11
508.20	2118.21
508.41	1906.25
508.61	2298.44
508.82	2249.08
509.02	2053.91
509.22	1875.53
509.43	1936.76
509.63	1963.18
509.84	1941.68
510.04	1785.01
510.24	2347.59
510.45	2215.70
510.65	1816.14
510.86	1968.10
511.06	1918.13
511.26	2220.82
511.47	2099.99
511.67	1873.07
511.88	2164.91
512.08	2235.36
512.28	1832.52
512.49	1980.80
512.69	2133.78
512.90	2126.41
513.10	1880.65
513.30	1974.24
513.51	2177.20
513.71	2359.26
513.91	1990.01
514.12	1998.41
514.32	2235.56
514.53	2000.05
514.73	2021.75
514.93	1933.28
515.14	2095.07
515.34	2300.28
515.54	1904.61
515.75	1991.24
515.95	2208.73
516.15	2292.70
516.36	1961.54
516.56	1990.42
516.77	1744.87
516.97	2171.26
517.17	1920.79
517.38	1998.82
517.58	2331.00
517.78	2010.70
517.99	2027.49
518.19	1948.23
518.39	2319.12
518.60	2029.54
518.80	1813.07
519.00	1993.08
519.21	2078.69
519.41	2388.55
519.61	1874.71
519.82	2002.91
520.02	2079.71
520.22	2093.64
520.43	1894.99
520.63	1996.77
520.83	1977.31
521.04	1841.12
521.24	2017.25
521.44	1975.06
521.65	1993.08
521.85	2208.94
522.05	1902.77
522.26	1921.40
522.46	2417.63
522.66	2250.31
522.87	1922.84
523.07	2117.39
523.27	2014.59
523.48	2302.53
523.68	1941.27
523.88	2015.61
524.09	2311.54
524.29	2142.99
524.49	1814.91
524.70	2046.94
524.90	2341.65
525.10	2188.46
525.31	1834.16
525.51	1840.71
525.71	2218.36
525.91	2186.62
526.12	1920.59
526.32	1831.70
526.52	2006.19
526.73	1996.36
526.93	1992.67
527.13	1796.27
527.34	2059.64
527.54	2078.48
527.74	1954.79
527.94	1832.73
528.15	1942.70
528.35	2088.52
528.55	2040.19
528.76	2009.47
528.96	1820.44
529.16	2259.32
529.36	2033.02
529.57	1865.49
529.77	2291.06
529.97	1925.50
530.18	2024.01
530.38	1911.57
530.58	2191.94
530.78	2105.52
530.99	1903.18
531.19	1997.18
531.39	1968.92
531.60	2096.92
531.80	1986.12
532.00	2111.25
532.20	2115.55
532.41	1962.16
532.61	1905.23
532.81	1882.90
533.01	2044.69
533.22	2156.31
533.42	2069.88
533.62	1771.08
533.82	2286.35
534.03	2030.15
534.23	2022.98
534.43	1855.66
534.63	2023.39
534.84	2111.46
535.04	2011.31
535.24	1947.82
535.44	2540.10
535.65	2011.72
535.85	1878.19
536.05	1822.49
536.25	2080.53
536.46	1951.71
536.66	2084.01
536.86	1957.86
537.06	2182.52
537.27	2283.69
537.47	1977.72
537.67	1917.10
537.87	2313.80
538.08	2055.96
538.28	1840.92
538.48	1804.26
538.68	2038.14
538.88	2191.33
539.09	1798.12
539.29	1966.05
539.49	2257.27
539.69	2142.38
539.90	2021.55
540.10	1852.18
540.30	2324.24
540.50	2022.98
540.70	1819.42
540.91	1877.58
541.11	2227.17
541.31	2324.85
541.51	1987.55
541.72	2020.53
541.92	2142.99
542.12	1956.42
542.32	1984.69
542.52	1892.53
542.73	1956.01
542.93	2162.04
543.13	1908.09
543.33	2056.37
543.53	2213.85
543.74	2175.35
543.94	1886.18
544.14	2033.84
544.34	2261.57
544.54	2079.30
544.75	2013.56
544.95	2137.67
545.15	2218.56
545.35	2403.70
545.55	2077.46
545.75	1943.73
545.96	2472.72
546.16	1955.61
546.36	1931.85
546.56	1979.36
546.76	2271.61
546.97	2361.72
547.17	1967.69
547.37	2055.55
547.57	2030.36
547.77	2208.12
547.97	2031.99
548.18	2018.48
548.38	2060.46
548.58	2314.82
548.78	1912.80
548.98	1986.94
549.18	2250.31
549.39	2394.49
549.59	2053.50
549.79	2014.18
549.99	2386.29
550.19	2212.83
550.39	2118.62
550.60	1977.72
550.80	2157.13
551.00	2204.43
551.20	1906.25
551.40	1944.14
551.60	2161.63
551.80	2176.58
552.01	2038.34
552.21	1966.25
552.41	2134.39
552.61	2394.89
552.81	2042.85
553.01	1891.30
553.21	2190.92
553.42	1957.65
553.62	1919.56
553.82	1857.30
554.02	2343.70
554.22	2226.76
554.42	1847.27
554.62	2072.75
554.83	2349.84
555.03	2330.18
555.23	1975.47
555.43	2212.83
555.63	2109.82
555.83	2143.20
556.03	2025.44
556.23	1843.58
556.44	2115.14
556.64	2280.21
556.84	1723.98
557.04	1968.71
557.24	2118.83
557.44	2105.93
557.64	2001.07
557.84	1870.61
558.04	2013.97
558.25	2236.59
558.45	1879.01
558.65	1983.05
558.85	2094.46
559.05	1818.60
559.25	1947.82
559.45	2025.44
559.65	2452.65
559.85	2928.80
560.05	1992.67
560.26	2046.54
560.46	2052.88
560.66	2000.46
560.86	1938.20
561.06	1863.24
561.26	2307.65
561.46	2162.25
561.66	1934.31
561.86	2051.45
562.06	1948.23
562.26	2048.58
562.47	2001.89
562.67	1843.17
562.87	2190.51
563.07	1888.02
563.27	1987.14
563.47	1999.02
563.67	2022.78
563.87	2201.77
564.07	1896.42
564.27	1942.91
564.47	2082.58
564.67	2144.84
564.87	1878.40
565.08	1995.95
565.28	1963.39
565.48	2154.26
565.68	2003.32
565.88	2088.72
566.08	2419.06
566.28	2098.55
566.48	1848.09
566.68	1962.57
566.88	2044.69
567.08	2245.19
567.28	1945.78
567.48	1946.18
567.68	2156.51
567.88	1887.00
568.08	1950.90
568.28	2118.01
568.48	2074.39
568.68	2292.50
568.89	1978.95
569.09	1822.69
569.29	2222.87
569.49	2238.84
569.69	1884.95
569.89	1865.29
570.09	1769.04
570.29	1962.77
570.49	1830.88
570.69	1908.50
570.89	2223.68
571.09	2429.51
571.29	1843.17
571.49	2110.23
571.69	2136.44
571.89	2143.40
572.09	1954.99
572.29	2021.55
572.49	2213.85
572.69	2192.96
572.89	1967.89
573.09	1674.83
573.29	2095.28
573.49	2070.29
573.69	1918.13
573.89	1991.24
574.09	2003.32
574.29	2279.80
574.49	1960.73
574.69	1865.49
574.89	1898.67
575.09	1923.86
575.29	1835.80
575.49	1968.51
575.69	2135.01
575.89	1879.22
576.09	1939.84
576.29	1969.53
576.49	1898.67
576.69	2047.56
576.89	1906.66
577.09	1980.59
577.29	1830.47
577.49	2371.34
577.69	1912.80
577.89	2087.70
578.09	2074.18
578.29	1792.79
578.49	1961.95
578.69	1862.22
578.89	2224.30
579.09	2073.77
579.29	1862.42
579.49	2060.87
579.69	1995.54
579.89	2373.19
580.09	1743.44
580.29	1799.55
580.49	1982.43
580.69	1901.74
580.89	1886.38
581.09	1945.16
581.29	1993.90
581.49	2062.92
581.69	1847.27
581.89	1864.06
582.09	1931.44
582.28	1919.15
582.48	2039.16
582.68	2097.94
582.88	2292.29
583.08	2019.50
583.28	1978.34
583.48	1971.99
583.68	1947.82
583.88	2074.39
584.08	1973.83
584.28	1989.19
584.48	2436.47
584.68	2157.54
584.88	1932.46
585.08	2154.46
585.28	2212.63
585.48	2298.84
585.68	2032.40
585.87	2062.71
586.07	2161.63
586.27	2043.67
586.47	2019.91
586.67	1937.99
586.87	2037.32
587.07	2019.71
587.27	1846.65
587.47	2030.77
587.67	2347.79
587.87	2552.38
588.07	2037.11
588.27	1901.95
588.46	2219.18
588.66	2219.59
588.86	1935.54
589.06	1995.34
589.26	2226.55
589.46	2218.36
589.66	1882.90
589.86	1872.25
590.06	2027.28
590.26	2111.87
590.46	1913.01
590.66	1988.78
590.85	1959.50
591.05	2116.17
591.25	1865.90
591.45	1931.85
591.65	2122.92
591.85	2065.38
592.05	1878.40
592.25	2008.44
592.45	2218.97
592.64	2021.35
592.84	1969.12
593.04	1860.78
593.24	2502.00
593.44	2014.38
593.64	1960.73
593.84	2049.40
594.04	2004.96
594.24	2354.55
594.43	1924.89
594.63	1982.23
594.83	2239.86
595.03	2211.81
595.23	1885.36
595.43	1820.44
595.63	1957.04
595.83	2245.80
596.02	1737.50
596.22	1974.04
596.42	2136.44
596.62	2063.12
596.82	1918.54
597.02	2005.17
597.22	2325.47
597.41	2125.59
597.61	1898.47
597.81	2025.44
598.01	2216.11
598.21	2022.16
598.41	1853.21
598.61	1845.22
598.80	2073.16
599.00	2101.63
599.20	2099.99
599.40	1941.27
599.60	2012.33
599.80	2203.82
599.99	2056.78
600.19	1911.37
600.39	2098.14
600.59	2149.14
600.79	2034.25
600.99	1964.41
601.19	2359.26
601.38	2401.86
601.58	2016.63
601.78	1710.67
601.98	2153.03
602.18	2171.87
602.37	2226.55
602.57	2001.48
602.77	2276.93
602.97	2220.41
603.17	2210.99
603.37	2116.37
603.56	2303.35
603.76	2235.36
603.96	2055.14
604.16	2061.49
604.36	2345.33
604.56	2263.42
604.75	1907.89
604.95	1995.13
605.15	2290.04
605.35	2223.07
605.55	1900.52
605.74	1882.49
605.94	2277.55
606.14	2081.35
606.34	1956.01
606.54	1999.84
606.73	2000.05
606.93	2193.37
607.13	1923.45
607.33	2039.57
607.53	2346.77
607.72	2256.45
607.92	2036.09
608.12	2099.17
608.32	2072.95
608.51	2187.03
608.71	1845.42
608.91	2031.18
609.11	2190.10
609.31	2019.71
609.50	1952.94
609.70	2158.15
609.90	2245.39
610.10	2247.24
610.29	1906.04
610.49	1849.52
610.69	2205.46
610.89	2116.37
611.09	1958.06
611.28	2121.49
611.48	2258.91
611.68	2047.76
611.88	1944.34
612.07	1889.66
612.27	2214.26
612.47	1952.53
612.67	2010.08
612.86	2108.79
613.06	2105.93
613.26	1855.25
613.46	1897.65
613.65	2043.67
613.85	2557.50
614.05	2220.82
614.25	2050.63
614.44	1956.01
614.64	2051.66
614.84	1998.41
615.04	1923.45
615.23	1930.82
615.43	2182.11
615.63	2179.04
615.83	1891.50
616.02	1822.49
616.22	2161.63
616.42	1873.07
616.62	1853.21
616.81	1983.05
617.01	2118.01
617.21	2075.82
617.41	1817.57
617.60	1980.18
617.80	2183.54
618.00	2176.99
618.19	2056.37
618.39	1979.98
618.59	2166.55
618.79	2095.69
618.98	1803.24
619.18	1965.44
619.38	2477.02
619.57	2062.71
619.77	1965.03
619.97	1946.18
620.17	1969.53
620.36	1903.79
620.56	2115.76
620.76	1854.85
620.95	1883.93
621.15	1997.79
621.35	1849.73
621.54	1955.81
621.74	2109.20
621.94	1976.90
622.14	1837.64
622.33	1819.21
622.53	2066.40
622.73	2033.02
622.92	1773.13
623.12	1919.56
623.32	2411.07
623.51	2191.12
623.71	1843.38
623.91	2108.59
624.10	1940.25
624.30	2132.55
624.50	1835.80
624.69	1799.35
624.89	2743.25
625.09	2025.03
625.29	1748.76
625.48	1814.30
625.68	2075.00
625.88	2251.13
626.07	2000.87
626.27	1870.21
626.47	1970.76
626.66	1844.81
626.86	1975.47
627.06	1937.99
627.25	2099.58
627.45	2356.19
627.64	1935.13
627.84	2107.16
628.04	1952.74
628.23	2412.71
628.43	1816.75
628.63	1852.59
628.82	1985.71
629.02	2346.56
629.22	1982.02
629.41	2117.19
629.61	2101.22
629.81	2410.25
630.00	1901.13
630.20	1815.32
630.40	2087.90
630.59	2137.87
630.79	1951.92
630.98	1892.12
631.18	2029.33
631.38	2084.42
631.57	2048.38
631.77	1817.57
631.97	2114.12
632.16	2134.39
632.36	1969.94
632.56	2002.30
632.75	2150.78
632.95	2271.81
633.14	1824.74
633.34	2094.05
633.54	1785.21
633.73	2008.03
633.93	1912.19
634.12	1802.01
634.32	2533.13
634.52	2094.25
634.71	1819.42
634.91	1968.51
635.11	1878.19
635.30	1939.22
635.50	1959.29
635.69	1844.61
635.89	2391.00
636.09	2182.11
636.28	1873.28
636.48	1847.88
636.67	2190.10
636.87	2177.20
637.07	1986.12
637.26	1883.11
637.46	2102.04
637.65	2228.60
637.85	1992.67
638.04	1876.14
638.24	1987.14
638.44	2131.12
638.63	1961.34
638.83	1924.48
639.02	2153.23
639.22	2188.05
639.42	1923.45
639.61	1930.62
639.81	2074.59
640.00	2093.43
640.20	2068.65
640.39	1971.78
640.59	2402.27
640.79	2198.70
640.98	2013.15
641.18	1885.77
641.37	2040.19
641.57	1988.99
641.76	1973.42
641.96	1751.01
642.15	2078.69
642.35	1990.42
642.55	1975.88
642.74	1795.25
642.94	2173.10
643.13	2301.92
643.33	1917.72
643.52	1862.83
643.72	2019.50
643.91	2062.10
644.11	1828.84
644.31	1859.35
644.50	1971.17
644.70	2278.57
644.89	1956.01
645.09	2047.35
645.28	2093.02
645.48	2148.73
645.67	1846.65
645.87	1771.08
646.06	2040.80
646.26	2128.45
646.45	1721.32
646.65	1709.44
646.84	2365.61
647.04	2016.02
647.24	1800.57
647.43	1909.12
647.63	2121.29
647.82	2326.49
648.02	1813.48
648.21	1895.40
648.41	2314.20
648.60	2011.11
648.80	2057.18
648.99	1918.33
649.19	1964.82
649.38	1814.50
649.58	1913.83
649.77	1994.93
649.97	2257.89
650.16	2152.82
650.36	1712.10
650.55	2075.41
650.75	2113.71
650.94	2309.90
651.14	1940.04
651.33	1967.07
651.53	2351.89
651.72	1950.28
651.92	1904.00
652.11	1772.93
652.31	2138.49
652.50	2133.98
652.70	1948.64
652.89	1789.11
653.09	2292.29
653.28	2034.45
653.48	1717.22
653.67	1781.94
653.87	2601.33
654.06	2084.63
654.25	2159.79
654.45	1856.48
654.64	2014.18
654.84	2017.45
655.03	1744.87
655.23	2080.74
655.42	2247.85
655.62	2404.32
655.81	2103.88
656.01	1903.59
656.20	2237.61
656.40	2355.16
656.59	1992.88
656.79	2097.94
656.98	2133.16
657.17	2223.48
657.37	1951.30
657.56	1912.80
657.76	2122.31
657.95	2243.96
658.15	1607.25
658.34	1970.97
658.54	2045.31
658.73	1882.90
658.92	1895.60
659.12	1938.61
659.31	2151.19
659.51	1909.53
659.70	1957.65
659.90	1851.98
660.09	2208.12
660.29	2026.67
660.48	1846.24
660.67	2087.08
660.87	1947.62
661.06	2106.95
661.26	1997.38
661.45	2051.04
661.65	2122.11
661.84	1993.70
662.03	1848.09
662.23	1882.49
662.42	2416.19
662.62	1901.33
662.81	1828.22
663.00	1903.38
663.20	2114.73
663.39	2180.88
663.59	2088.52
663.78	1916.08
663.97	2032.61
664.17	2260.75
664.36	1812.04
664.56	1891.30
664.75	2188.05
664.94	2168.18
665.14	1994.31
665.33	1940.45
665.53	2064.15
665.72	2027.28
665.91	2027.69
666.11	1950.49
666.30	2055.34
666.50	2062.92
666.69	1974.45
666.88	1868.57
667.08	2071.11
667.27	1985.92
667.47	1933.08
667.66	1884.54
667.85	2220.41
668.05	2070.29
668.24	1879.42
668.43	2115.76
668.63	1988.99
668.82	2224.71
669.02	2026.87
669.21	1915.06
669.40	1877.58
669.60	2386.29
669.79	1802.21
669.98	2541.32
670.18	1912.39
670.37	1891.50
670.56	1927.96
670.76	2000.87
670.95	2055.34
671.15	2205.05
671.34	1962.57
671.53	1940.45
671.73	1976.09
671.92	1967.69
672.11	1840.92
672.31	1898.06
672.50	2096.30
672.69	1874.30
672.89	1694.28
673.08	1916.49
673.27	2181.09
673.47	2077.05
673.66	1954.79
673.85	1810.40
674.05	2078.28
674.24	2063.74
674.43	1829.86
674.63	2011.31
674.82	2453.26
675.01	1748.56
675.21	2037.11
675.40	1915.47
675.59	1980.59
675.79	2352.09
675.98	1889.87
676.17	2078.69
676.37	2107.16
676.56	1971.17
676.75	1929.19
676.95	1946.59
677.14	2001.89
677.33	2236.79
677.52	1802.21
677.72	1876.55
677.91	2113.91
678.10	1819.83
678.30	1822.08
678.49	1842.15
678.68	2452.65
678.88	1785.21
679.07	2099.17
679.26	1892.73
679.45	2360.28
679.65	2283.89
679.84	1744.66
680.03	1776.61
680.23	1997.18
680.42	2492.99
680.61	1812.86
680.81	1884.75
681.00	2079.10
681.19	2108.59
681.38	2029.74
681.58	1992.67
681.77	2025.03
681.96	2182.73
682.15	1836.82
682.35	1988.17
682.54	2114.53
682.73	1874.51
682.93	1811.02
683.12	1828.63
683.31	2149.55
683.50	2546.03
683.70	1827.20
683.89	1960.11
684.08	1878.60
684.27	2195.01
684.47	1792.59
684.66	1890.68
684.85	2394.69
685.04	2265.26
685.24	1819.21
685.43	1891.71
685.62	1794.23
685.81	2103.26
686.01	1980.80
686.20	1827.20
686.39	1843.58
686.58	2408.21
686.78	1959.29
686.97	1938.61
687.16	2219.59
687.35	2093.43
687.55	1894.17
687.74	1953.97
687.93	1855.05
688.12	2018.89
688.32	1936.97
688.51	1765.35
688.70	2120.88
688.89	1870.82
689.08	1770.26
689.28	1873.28
689.47	2060.67
689.66	2069.68
689.85	2029.95
690.05	1839.49
690.24	1941.06
690.43	2097.12
690.62	1939.63
690.81	1883.11
691.01	2095.48
691.20	2015.61
691.39	1790.13
691.58	1995.34
691.77	2364.38
691.97	2075.00
692.16	1959.70
692.35	1902.77
692.54	1943.11
692.73	2132.55
692.93	1925.30
693.12	1978.34
693.31	2110.23
693.50	2072.75
693.69	1993.29
693.89	1874.30
694.08	2273.86
694.27	2239.25
694.46	1875.12
694.65	1920.79
694.85	2150.37
695.04	2108.18
695.23	1823.31
695.42	2053.29
695.61	2166.14
695.80	2303.76
696.00	2249.28
696.19	2267.31
696.38	2053.70
696.57	2224.09
696.76	2121.08
696.95	1970.56
697.15	2347.79
697.34	2333.87
697.53	1933.08
697.72	2037.11
697.91	2021.96
698.10	2299.46
698.30	1927.55
698.49	1918.13
698.68	2123.95
698.87	2005.99
699.06	1853.00
699.25	1925.71
699.45	2226.14
699.64	2077.46
699.83	2100.60
700.02	1866.52
700.21	2153.85
700.40	1979.57
700.59	1883.11
700.79	1944.75
700.98	2163.06
701.17	1951.71
701.36	1872.25
701.55	1879.01
701.74	2259.93
701.93	1859.15
702.12	1905.84
702.32	1824.13
702.51	2195.63
702.70	2142.18
702.89	1967.07
703.08	1903.79
703.27	2265.26
703.46	2129.48
703.65	1821.26
703.85	1809.99
704.04	1935.94
704.23	2244.98
704.42	1835.59
704.61	1855.05
704.80	2307.24
704.99	1929.39
705.18	1976.09
705.37	1923.45
705.57	2145.45
705.76	2296.59
705.95	1954.99
706.14	2288.20
706.33	2468.42
706.52	2679.97
706.71	2113.50
706.90	2010.08
707.09	2237.41
707.28	2168.18
707.47	1850.54
707.67	2052.06
707.86	1978.75
708.05	2233.11
708.24	1916.28
708.43	1977.52
708.62	2004.55
708.81	1939.84
709.00	1841.12
709.19	1863.65
709.38	2176.17
709.57	1877.78
709.76	1936.97
709.96	1836.21
710.15	2291.47
710.34	2045.72
710.53	2021.35
710.72	1895.60
710.91	2251.54
711.10	2160.40
711.29	1979.57
711.48	1889.05
711.67	1866.11
711.86	2108.18
712.05	1774.97
712.24	1815.73
712.43	2171.87
712.62	2280.62
712.81	1915.47
713.00	2109.00
713.19	1863.86
713.39	2122.31
713.58	1776.61
713.77	1957.24
713.96	2140.95
714.15	1984.07
714.34	1883.72
714.53	1743.44
714.72	2375.44
714.91	1894.37
715.10	1953.76
715.29	1810.61
715.48	2523.51
715.67	2176.38
715.86	1940.86
716.05	1911.16
716.24	1987.76
716.43	1966.87
716.62	1812.04
716.81	1791.56
717.00	1983.46
717.19	2331.61
717.38	1885.77
717.57	1905.84
717.76	1815.93
717.95	2191.74
718.14	1924.48
718.33	1961.34
718.52	1806.92
718.71	1836.41
718.90	1811.43
719.09	1858.33
719.28	2040.19
719.47	2227.17
719.66	1994.11
719.85	1989.81
720.04	1997.59
720.23	2074.39
720.42	1860.37
720.61	1956.83
720.80	1844.40
720.99	2077.87
721.18	1886.38
721.37	1840.10
721.56	2003.12
721.75	2197.88
721.94	1820.23
722.13	1888.64
722.32	2000.05
722.51	2174.94
722.70	1945.57
722.89	2008.65
723.08	2034.45
723.27	2230.44
723.46	1994.72
723.65	1935.13
723.84	1983.46
724.03	2270.58
724.22	1804.87
724.41	1920.59
724.60	2022.16
724.79	2197.88
724.98	1944.55
725.16	1895.80
725.35	2162.45
725.54	1874.51
725.73	1881.26
725.92	1929.39
726.11	1988.58
726.30	2179.65
726.49	1827.20
726.68	1897.85
726.87	2099.17
727.06	2250.72
727.25	1877.78
727.44	1995.13
727.63	2034.66
727.82	1962.98
728.01	1931.03
728.20	1959.50
728.38	2267.92
728.57	2015.82
728.76	1870.41
728.95	2042.03
729.14	1868.77
729.33	1894.37
729.52	1673.19
729.71	1808.77
729.90	1892.73
730.09	1960.93
730.28	1856.48
730.47	1822.49
730.66	2217.75
730.84	2028.72
731.03	1917.31
731.22	1932.67
731.41	2044.08
731.60	2111.66
731.79	1710.05
731.98	1816.34
732.17	2172.28
732.36	2114.53
732.55	1865.90
732.73	1745.48
732.92	2239.66
733.11	2111.05
733.30	1817.37
733.49	1766.58
733.68	2146.68
733.87	2059.03
734.06	1752.24
734.25	1774.97
734.43	1932.05
734.62	2085.04
734.81	1882.90
735.00	1834.98
735.19	1977.11
735.38	2108.38
735.57	1768.83
735.76	1984.07
735.94	2102.04
736.13	2386.09
736.32	2004.14
736.51	1900.72
736.70	2404.32
736.89	2399.60
737.08	2100.81
737.27	2229.21
737.45	2510.20
737.64	2352.91
737.83	2405.95
738.02	2350.25
738.21	2509.79
738.40	2576.14
738.59	2073.16
738.77	2144.02
738.96	2050.63
739.15	2169.82
739.34	2119.44
739.53	2043.26
739.72	2289.42
739.90	2264.23
740.09	1883.52
740.28	1936.15
740.47	2193.78
740.66	2148.93
740.85	1808.36
741.03	1891.30
741.22	1862.63
741.41	1978.54
741.60	1734.02
741.79	1976.29
741.98	2243.75
742.16	2375.85
742.35	1930.42
742.54	1945.57
742.73	2377.90
742.92	1971.17
743.10	1741.39
743.29	1865.09
743.48	2447.53
743.67	1960.73
743.86	1745.07
744.05	1821.26
744.23	1873.89
744.42	1889.25
744.61	1934.72
744.80	1754.70
744.99	1928.78
745.17	1738.32
745.36	1721.52
745.55	1980.39
745.74	2009.88
745.93	1906.66
746.11	1810.40
746.30	1771.08
746.49	2218.56
746.68	1872.66
746.86	1893.76
747.05	1820.64
747.24	2142.38
747.43	2155.90
747.62	1792.38
747.80	1819.83
747.99	2222.05
748.18	2174.53
748.37	1923.04
748.56	1949.05
748.74	2205.66
748.93	2047.76
749.12	2099.58
749.31	2389.16
749.49	2645.98
749.68	2869.82
749.87	2987.78
750.06	2763.94
750.24	2927.98
750.43	2854.66
750.62	2719.70
750.81	2834.39
750.99	3027.10
751.18	2979.18
751.37	2617.92
751.56	2644.34
751.74	3037.14
751.93	3126.43
752.12	2230.24
752.31	2166.34
752.49	2279.39
752.68	2512.45
752.87	2057.80
753.06	2007.42
753.24	2101.83
753.43	2309.29
753.62	1882.08
753.81	1896.21
753.99	2336.53
754.18	2113.09
754.37	1827.40
754.55	1913.01
754.74	2329.97
754.93	1784.80
755.12	1866.31
755.30	1779.89
755.49	2209.96
755.68	2089.95
755.86	1990.42
756.05	1782.14
756.24	2315.23
756.43	1854.85
756.61	1833.96
756.80	1945.98
756.99	2246.62
757.17	1994.93
757.36	1823.31
757.55	1882.90
757.74	2106.75
757.92	2026.87
758.11	1775.79
758.30	1702.68
758.48	2011.11
758.67	1804.67
758.86	1915.26
759.04	1784.60
759.23	1929.39
759.42	2039.37
759.60	1805.69
759.79	1898.06
759.98	1967.07
760.16	1903.79
760.35	1825.15
760.54	1805.08
760.73	2085.24
760.91	1806.51
761.10	1867.75
761.29	1958.06
761.47	2017.45
761.66	2395.30
761.85	1928.78
762.03	2049.20
762.22	2314.00
762.41	2660.11
762.59	2873.30
762.78	3091.82
762.97	3729.35
763.15	3712.35
763.34	3408.64
763.52	2899.31
763.71	3021.57
763.90	3049.84
764.08	2659.90
764.27	2659.29
764.46	2865.52
764.64	2504.46
764.83	2378.51
765.02	2254.61
765.20	2389.37
765.39	2335.09
765.58	1932.46
765.76	2016.23
765.95	2142.58
766.13	2063.74
766.32	1905.84
766.51	1895.60
766.69	2800.80
766.88	2107.56
767.07	1766.17
767.25	1665.41
767.44	2224.91
767.62	2233.51
767.81	1820.03
768.00	1873.69
768.18	2037.52
768.37	1911.16
768.56	1703.50
768.74	1821.46
768.93	1849.93
769.11	2090.77
769.30	1940.45
769.49	1841.74
769.67	2009.26
769.86	1927.96
770.04	1872.66
770.23	1837.23
770.42	2260.96
770.60	2055.96
770.79	1807.95
770.97	1854.64
771.16	2252.97
771.35	2147.50
771.53	2078.48
771.72	2124.77
771.90	2385.88
772.09	2658.47
772.27	2381.38
772.46	2131.94
772.65	2472.51
772.83	2361.10
773.02	2198.49
773.20	1989.19
773.39	2301.51
773.58	2315.84
773.76	1901.54
773.95	1920.38
774.13	2158.76
774.32	2020.32
774.50	1840.10
774.69	1931.44
774.87	2027.69
775.06	2470.26
775.25	1889.87
775.43	1884.54
775.62	2101.01
775.80	2136.65
775.99	1941.88
776.17	1856.07
776.36	2018.68
776.54	2232.90
776.73	1853.41
776.92	1966.05
777.10	2201.98
777.29	2085.24
777.47	1846.45
777.66	1862.22
777.84	2055.96
778.03	2044.49
778.21	1818.19
778.40	1943.11
778.58	2110.64
778.77	2207.51
778.95	1819.62
779.14	1838.67
779.32	2361.10
779.51	2201.36
779.70	1837.03
779.88	1754.70
780.07	1941.88
780.25	2493.40
780.44	1912.60
780.62	1996.16
780.81	2161.84
780.99	2096.92
781.18	1859.35
781.36	1830.27
781.55	2032.61
781.73	2306.63
781.92	1774.77
782.10	1794.64
782.29	2121.08
782.47	2300.89
782.66	1833.34
782.84	1750.19
783.03	1945.57
783.21	2261.57
783.40	1829.04
783.58	1829.45
783.77	1963.18
783.95	2009.06
784.14	1830.88
784.32	1883.93
784.51	2223.89
784.69	1950.69
784.88	1776.82
785.06	1857.30
785.24	1817.16
785.43	2195.22
785.61	1955.61
785.80	1816.14
785.98	2146.27
786.17	2047.56
786.35	1756.13
786.54	1974.24
786.72	2182.93
786.91	2211.60
787.09	1858.74
787.28	1758.18
787.46	2028.72
787.65	2170.64
787.83	1737.70
788.01	1854.64
788.20	1833.75
788.38	2031.79
788.57	1833.96
788.75	1834.78
788.94	2335.91
789.12	2129.07
789.31	1909.73
789.49	1974.86
789.67	1945.16
789.86	2092.20
790.04	1791.15
790.23	1736.88
790.41	2371.34
790.60	1981.20
790.78	1856.48
790.96	1864.47
791.15	2166.14
791.33	1972.81
791.52	1872.05
791.70	1787.06
791.89	2028.72
792.07	2151.80
792.25	1907.07
792.44	1748.76
792.62	2214.67
792.81	1954.99
792.99	1868.16
793.17	1829.66
793.36	1883.11
793.54	2330.59
793.73	2053.09
793.91	2004.55
794.10	2380.15
794.28	2516.54
794.46	2185.59
794.65	2207.71
794.83	2138.08
795.01	2223.27
795.20	2197.47
795.38	2095.89
795.57	2256.25
795.75	2228.80
795.93	1981.20
796.12	1980.80
796.30	2207.92
796.49	2178.01
796.67	1813.68
796.85	2013.36
797.04	2055.55
797.22	2143.61
797.40	1803.24
797.59	1933.49
797.77	2046.54
797.96	1899.70
798.14	1786.24
798.32	1834.37
798.51	2167.37
798.69	2340.83
798.87	1884.95
799.06	1880.04
799.24	1766.37
799.42	2190.51
799.61	1959.70
799.79	1927.34
799.98	2467.19
800.16	2118.01
800.34	2141.56
800.53	2312.98
800.71	2426.02
800.89	2933.72
801.08	2572.45
801.26	2568.15
801.44	2467.39
801.63	2333.46
801.81	2227.58
801.99	2140.95
802.18	2220.82
802.36	2286.97
802.54	2167.57
802.73	1940.45
802.91	2174.12
803.09	2197.88
803.28	2084.01
803.46	2022.98
803.64	2378.31
803.83	1903.59
804.01	1836.62
804.19	1783.17
804.38	2142.79
804.56	2097.94
804.74	1884.95
804.92	1906.86
805.11	1839.90
805.29	2180.06
805.47	1814.91
805.66	1761.46
805.84	1820.64
806.02	2170.85
806.21	1833.75
806.39	2060.05
806.57	2190.30
806.76	2179.45
806.94	1890.89
807.12	1847.47
807.30	1891.30
807.49	2005.58
807.67	1930.62
807.85	1979.16
808.04	2164.29
808.22	2431.76
808.40	1790.33
808.58	1723.37
808.77	2118.21
808.95	2261.16
809.13	1887.82
809.31	2218.77
809.50	2482.75
809.68	2607.88
809.86	2336.32
810.05	2435.03
810.23	2960.34
810.41	3057.82
810.59	4142.02
810.78	4811.09
810.96	5429.57
811.14	5791.86
811.32	5277.21
811.51	4548.13
811.69	4219.02
811.87	4306.67
812.05	3700.27
812.24	3569.20
812.42	3696.38
812.60	3612.00
812.78	2977.95
812.97	2767.01
813.15	3139.33
813.33	2804.69
813.51	2578.60
813.70	2261.78
813.88	2215.90
814.06	2270.58
814.24	2106.75
814.42	1857.71
814.61	2151.19
814.79	2384.45
814.97	1776.82
815.15	1849.32
815.34	2089.34
815.52	2214.67
815.70	1802.42
815.88	1869.39
816.06	1886.79
816.25	1943.32
816.43	1847.47
816.61	1962.57
816.79	2283.69
816.98	1783.99
817.16	1794.64
817.34	1794.02
817.52	2080.33
817.70	2308.88
817.89	1870.21
818.07	1796.27
818.25	1982.23
818.43	2067.01
818.61	1863.24
818.80	1834.78
818.98	2318.71
819.16	2042.44
819.34	1769.24
819.52	2118.21
819.70	1897.65
819.89	2034.25
820.07	1755.52
820.25	1722.75
820.43	2078.69
820.61	2200.54
820.80	1880.44
820.98	1776.41
821.16	1776.82
821.34	1834.78
821.52	1857.92
821.70	1982.84
821.89	2046.54
822.07	1989.40
822.25	1926.73
822.43	1806.72
822.61	2277.75
822.79	2087.29
822.98	1869.39
823.16	1740.57
823.34	2092.20
823.52	2251.33
823.70	1958.06
823.88	1713.54
824.06	2134.60
824.25	2037.93
824.43	2001.68
824.61	1780.09
824.79	2041.21
824.97	2086.06
825.15	1974.24
825.33	2116.17
825.52	2310.31
825.70	2154.05
825.88	2029.13
826.06	2087.70
826.24	2223.27
826.42	2297.82
826.60	2036.09
826.78	2096.92
826.97	2106.54
827.15	2325.67
827.33	1905.43
827.51	1976.09
827.69	1948.44
827.87	2126.61
828.05	1995.75
828.23	1823.51
828.41	2198.29
828.60	2183.75
828.78	1773.95
828.96	1968.30
829.14	1958.68
829.32	1966.25
829.50	1863.65
829.68	1900.51
829.86	1958.68
830.04	2124.36
830.22	1961.54
830.41	1799.55
830.59	2036.70
830.77	2129.68
830.95	1813.27
831.13	1830.88
831.31	1921.40
831.49	2198.08
831.67	2018.27
831.85	2011.72
832.03	2004.35
832.21	2142.38
832.39	1757.77
832.57	1804.26
832.76	2186.00
832.94	1985.92
833.12	1691.62
833.30	1861.40
833.48	2230.44
833.66	2101.01
833.84	1827.81
834.02	1904.82
834.20	2184.98
834.38	2176.17
834.56	1728.69
834.74	1797.50
834.92	1831.50
835.10	2331.20
835.28	1909.53
835.46	1913.62
835.64	2004.96
835.82	1936.35
836.01	2136.85
836.19	2089.75
836.37	1966.46
836.55	1889.66
836.73	1787.47
836.91	1807.95
837.09	2115.96
837.27	2299.46
837.45	1726.44
837.63	1771.70
837.81	1838.67
837.99	2011.11
838.17	1907.27
838.35	1814.91
838.53	2395.51
838.71	2128.04
838.89	1828.43
839.07	1797.50
839.25	2072.54
839.43	2161.22
839.61	1887.41
839.79	2155.28
839.97	2387.32
840.15	2481.32
840.33	2276.11
840.51	2529.24
840.69	2413.53
840.87	2372.16
841.05	2270.79
841.23	2146.48
841.41	2414.76
841.59	2802.03
841.77	2683.66
841.95	2806.95
842.13	3242.34
842.31	2929.62
842.49	2593.34
842.67	2579.83
842.85	2720.73
843.03	2375.03
843.21	2263.01
843.39	2461.45
843.57	2439.13
843.75	2420.90
843.93	2137.46
844.11	2165.52
844.29	2276.73
844.47	2170.23
844.65	2193.17
844.83	1998.20
845.01	2074.18
845.19	2254.40
845.36	1971.99
845.54	2002.71
845.72	2084.83
845.90	2183.75
846.08	1855.87
846.26	1937.17
846.44	2111.05
846.62	2136.24
846.80	1991.04
846.98	1829.25
847.16	2007.62
847.34	2097.32
847.52	1822.28
847.70	1747.53
847.88	2011.92
848.06	2287.17
848.24	1988.78
848.41	1786.03
848.59	2223.68
848.77	2101.63
848.95	1879.83
849.13	1839.49
849.31	2180.68
849.49	2097.32
849.67	1822.90
849.85	1774.56
850.03	2090.77
850.21	2103.47
850.39	1775.38
850.57	2013.77
850.74	2282.05
850.92	2261.78
851.10	2021.55
851.28	1943.93
851.46	2245.19
851.64	2579.62
851.82	2030.56
852.00	2122.51
852.18	2472.51
852.36	2314.61
852.53	1992.47
852.71	2080.53
852.89	2200.34
853.07	2234.54
853.25	1917.72
853.43	1809.99
853.61	2115.76
853.79	2121.29
853.97	1845.02
854.14	1872.46
854.32	2268.74
854.50	2200.13
854.68	1896.83
854.86	1880.44
855.04	1925.30
855.22	2174.12
855.40	1752.24
855.57	1796.07
855.75	2166.14
855.93	2130.71
856.11	1739.75
856.29	1843.99
856.47	1925.50
856.65	2063.94
856.82	1795.86
857.00	1758.59
857.18	2003.94
857.36	1964.82
857.54	1957.24
857.72	2006.19
857.89	2170.03
858.07	2085.04
858.25	2075.82
858.43	1774.77
858.61	2017.04
858.79	2028.72
858.97	1813.27
859.14	1934.10
859.32	1998.00
859.50	1976.70
859.68	1920.79
859.86	1796.07
860.03	2039.37
860.21	2118.21
860.39	1806.31
860.57	2012.95
860.75	2112.27
860.93	2364.18
861.10	2031.99
861.28	1803.65
861.46	2095.48
861.64	2119.44
861.82	1864.68
861.99	1969.33
862.17	2201.36
862.35	2211.60
862.53	1878.19
862.71	1877.99
862.88	2088.52
863.06	2159.99
863.24	1872.25
863.42	1808.15
863.60	2018.89
863.77	2159.58
863.95	1736.27
864.13	1883.52
864.31	1995.34
864.49	2176.58
864.66	1780.50
864.84	1815.52
865.02	2093.43
865.20	2504.05
865.37	1960.11
865.55	1791.97
865.73	1824.54
865.91	2148.32
866.09	1977.11
866.26	1926.73
866.44	2165.11
866.62	1982.84
866.80	1788.70
866.97	1872.87
867.15	2008.03
867.33	2067.63
867.51	1930.01
867.68	1878.40
867.86	1942.29
868.04	1932.26
868.22	1674.01
868.39	1843.38
868.57	2100.81
868.75	2259.32
868.93	1755.52
869.10	1828.63
869.28	2360.90
869.46	2258.50
869.64	1860.37
869.81	1841.53
869.99	2081.76
870.17	2060.67
870.35	1815.73
870.52	1850.34
870.70	2216.93
870.88	1932.05
871.05	1801.60
871.23	1656.81
871.41	2023.39
871.59	2027.28
871.76	1840.92
871.94	1810.20
872.12	2053.09
872.29	1848.91
872.47	1845.22
872.65	1753.06
872.83	2093.23
873.00	2287.99
873.18	1871.64
873.36	1825.56
873.53	2168.39
873.71	1821.67
873.89	1763.10
874.06	1854.85
874.24	2129.07
874.42	2274.47
874.60	1998.41
874.77	1951.30
874.95	1929.60
875.13	2258.30
875.30	1846.24
875.48	1814.50
875.66	2317.07
875.83	1924.68
876.01	1814.71
876.19	1930.21
876.36	1847.88
876.54	2072.95
876.72	1796.07
876.89	1957.04
877.07	2153.03
877.25	1759.61
877.42	1906.45
877.60	1866.93
877.78	2360.49
877.95	1977.93
878.13	1790.74
878.31	1990.83
878.48	2197.06
878.66	2170.64
878.84	1860.58
879.01	1849.73
879.19	2091.39
879.37	2139.72
879.54	1868.57
879.72	1717.63
879.90	1759.41
880.07	2170.85
880.25	1616.05
880.42	2015.20
880.60	2061.08
880.78	2174.74
880.95	1836.21
881.13	1906.04
881.31	2042.23
881.48	1936.15
881.66	1813.89
881.83	1955.61
882.01	1936.97
882.19	1824.74
882.36	1889.46
882.54	1827.61
882.72	2160.61
882.89	2062.30
883.07	1843.58
883.24	1832.93
883.42	2166.55
883.60	2043.26
883.77	1763.30
883.95	1881.06
884.12	2172.69
884.30	2080.94
884.48	1978.54
884.65	1876.96
884.83	2080.94
885.00	2085.45
885.18	1739.54
885.36	1854.64
885.53	2130.50
885.71	2230.44
885.88	1772.72
886.06	1832.11
886.23	2163.06
886.41	1960.93
886.59	1835.39
886.76	1787.26
886.94	2135.01
887.11	2521.87
887.29	1873.28
887.47	1771.08
887.64	2223.89
887.82	2259.93
887.99	1699.81
888.17	1898.67
888.34	1978.95
888.52	1857.30
888.69	1831.91
888.87	1777.84
889.05	1969.74
889.22	1957.45
889.40	1849.73
889.57	2047.76
889.75	2281.64
889.92	1999.02
890.10	1774.77
890.27	1910.35
890.45	1958.88
890.62	1757.36
890.80	1790.13
890.98	1702.48
891.15	2311.75
891.33	2231.88
891.50	1826.79
891.68	1726.23
891.85	2167.16
892.03	2159.99
892.20	1820.44
892.38	1756.54
892.55	2184.16
892.73	2178.83
892.90	1726.03
893.08	1813.68
893.25	1927.55
893.43	1976.90
893.60	1922.02
893.78	1676.47
893.95	2090.36
894.13	2015.61
894.30	1802.01
894.48	1840.30
894.65	2195.63
894.83	2083.40
895.00	1694.28
895.18	1693.47
895.35	2211.19
895.53	2148.52
895.70	1754.29
895.88	1957.04
896.05	2112.48
896.23	1831.29
896.40	1834.57
896.58	1881.47
896.75	2144.63
896.93	2304.37
897.10	1848.50
897.28	1740.16
897.45	2070.70
897.63	2134.19
897.80	1951.10
897.98	1812.25
898.15	2109.61
898.33	1950.69
898.50	1895.80
898.67	1848.50
898.85	2015.20
899.02	2106.95
899.20	2046.94
899.37	1855.66
899.55	2052.68
899.72	2280.82
899.90	1817.98
900.07	1817.57
900.25	2131.32
900.42	2245.19
900.59	1805.90
900.77	1943.73
900.94	2141.77
901.12	2084.83
901.29	1855.25
901.47	1975.06
901.64	2121.08
901.82	2029.13
901.99	1620.56
902.16	1784.40
902.34	2204.84
902.51	2092.00
902.69	1813.68
902.86	1850.75
903.03	2640.04
903.21	2040.60
903.38	1848.29
903.56	1796.48
903.73	2210.78
903.91	1968.30
904.08	1778.25
904.25	1686.91
904.43	1899.49
904.60	2156.72
904.78	1841.94
904.95	1763.71
905.12	2004.96
905.30	2324.03
905.47	1933.08
905.65	1990.42
905.82	2022.98
905.99	2123.33
906.17	1834.98
906.34	1782.35
906.52	1899.49
906.69	2123.13
906.86	1934.51
907.04	1910.96
907.21	2177.40
907.38	2215.29
907.56	1778.46
907.73	1785.62
907.91	2292.70
908.08	2226.55
908.25	1824.13
908.43	1728.90
908.60	2147.91
908.77	2051.45
908.95	1852.18
909.12	1750.60
909.30	2159.17
909.47	1809.59
909.64	1862.01
909.82	2005.58
909.99	2019.30
910.16	2057.39
910.34	1782.55
910.51	1798.53
910.68	2068.24
910.86	2029.74
911.03	1720.29
911.20	1770.06
911.38	2235.15
911.55	2504.87
911.72	2370.52
911.90	2248.06
912.07	2602.56
912.24	2789.54
912.42	2240.07
912.59	2038.34
912.76	2416.81
912.94	2241.71
913.11	1972.81
913.28	1863.24
913.46	1902.15
913.63	2132.55
913.80	2177.81
913.98	1798.73
914.15	2197.47
914.32	2242.94
914.49	1919.15
914.67	1754.70
914.84	2069.68
915.01	2133.57
915.19	1909.32
915.36	1797.91
915.53	2182.52
915.71	2125.79
915.88	1903.38
916.05	1826.38
916.22	2206.48
916.40	2097.12
916.57	1728.69
916.74	1994.11
916.92	2299.46
917.09	1903.79
917.26	1763.30
917.43	1743.03
917.61	1983.05
917.78	1784.80
917.95	1761.87
918.13	1747.12
918.30	2426.43
918.47	2095.28
918.64	1773.34
918.82	1757.57
918.99	1973.63
919.16	2278.16
919.33	1851.16
919.51	1825.97
919.68	2001.28
919.85	2233.11
920.02	1742.41
920.20	1877.99
920.37	2309.49
920.54	2191.74
920.71	1778.46
920.89	1812.45
921.06	2336.73
921.23	1894.37
921.40	1747.33
921.58	1883.52
921.75	2525.76
921.92	1936.56
922.09	1893.14
922.27	1859.15
922.44	2031.59
922.61	2113.71
922.78	1807.33
922.96	1817.16
923.13	1985.10
923.30	2175.15
923.47	1735.04
923.64	1788.49
923.82	2103.47
923.99	2071.93
924.16	1913.21
924.33	1741.59
924.50	2028.31
924.68	2314.82
924.85	1780.30
925.02	1813.68
925.19	2176.99
925.36	2036.91
925.54	1840.30
925.71	1898.47
925.88	2580.65
926.05	1978.13
926.22	1787.26
926.40	1924.89
926.57	2084.01
926.74	2147.50
926.91	1812.66
927.08	1946.59
927.26	2224.30
927.43	2035.68
927.60	1812.45
927.77	1871.02
927.94	2303.35
928.11	2213.65
928.29	1720.29
928.46	1894.78
928.63	1912.19
928.80	1988.37
928.97	1913.83
929.14	1775.59
929.32	2373.19
929.49	2046.74
929.66	1778.25
929.83	1747.53
930.00	1964.62
930.17	2093.02
930.35	1742.82
930.52	1811.84
930.69	2288.40
930.86	1874.30
931.03	1861.81
931.20	1632.23
931.37	2211.19
931.55	2019.91
931.72	1881.26
931.89	1737.70
932.06	1881.26
932.23	2294.95
932.40	1904.00
932.57	1936.15
932.74	2256.86
932.92	2226.55
933.09	2003.53
933.26	1583.08
933.43	1967.07
933.60	2092.00
933.77	1888.64
933.94	1933.49
934.11	1997.18
934.29	2089.13
934.46	1766.17
934.63	1922.84
934.80	1809.38
934.97	2002.91
935.14	1839.08
935.31	1674.21
935.48	1917.51
935.65	2088.11
935.82	1855.87
936.00	1714.35
936.17	2294.95
936.34	2016.23
936.51	1930.42
936.68	1728.28
936.85	2086.06
937.02	2068.86
937.19	1936.97
937.36	1850.34
937.53	2110.64
937.70	2167.16
937.87	1799.55
938.05	1920.99
938.22	2050.02
938.39	1854.44
938.56	1848.70
938.73	1737.70
938.90	1989.60
939.07	1947.00
939.24	1874.71
939.41	1697.56
939.58	2075.62
939.75	2126.41
939.92	1795.45
940.09	2075.41
940.26	1990.01
940.43	2196.65
940.60	1874.51
940.77	1853.82
940.95	2084.83
941.12	2154.87
941.29	1845.83
941.46	1854.85
941.63	2233.72
941.80	2286.15
941.97	1722.34
942.14	1710.05
942.31	2175.97
942.48	2017.04
942.65	1955.40
942.82	1876.96
942.99	2137.26
943.16	2085.86
943.33	1741.18
943.50	1806.31
943.67	2163.88
943.84	2249.08
944.01	1829.04
944.18	1781.32
944.35	2278.98
944.52	1899.49
944.69	1914.65
944.86	1745.48
945.03	2152.82
945.20	2449.99
945.37	1639.81
945.54	1879.83
945.71	2249.90
945.88	2304.37
946.05	1770.67
946.22	1773.54
946.39	2281.64
946.56	2051.04
946.73	1706.16
946.90	1777.43
947.07	1928.78
947.24	2014.18
947.41	1680.36
947.58	1919.77
947.75	2160.20
947.92	2061.28
948.09	1629.77
948.26	1683.64
948.43	2074.18
948.60	2362.33
948.77	1751.42
948.94	1813.07
949.11	2175.97
949.27	2108.59
949.44	1775.59
949.61	1726.23
949.78	2095.69
949.95	2218.97
950.12	1712.31
950.29	1672.58
950.46	1985.10
950.63	2203.41
950.80	1771.49
950.97	1806.51
951.14	2219.59
951.31	1973.83
951.48	1766.37
951.65	1731.76
951.82	2368.07
951.99	2097.32
952.15	1733.20
952.32	1793.41
952.49	1917.31
952.66	2000.87
952.83	1779.89
953.00	1753.27
953.17	2019.09
953.34	2209.14
953.51	1870.61
953.68	1859.56
953.85	2223.48
954.02	2215.90
954.18	1833.55
954.35	1798.73
954.52	1902.15
954.69	2049.61
954.86	1700.43
955.03	1902.56
955.20	2145.66
955.37	2042.23
955.54	1811.43
955.71	1773.95
955.87	2112.68
956.04	2372.16
956.21	1775.79
956.38	1760.02
956.55	2043.05
956.72	2474.97
956.89	1863.45
957.06	1780.91
957.23	1952.33
957.39	2250.10
957.56	1842.56
957.73	1726.44
957.90	1683.84
958.07	2362.95
958.24	1851.16
958.41	1820.64
958.57	2170.64
958.74	2042.85
958.91	1739.34
959.08	1782.96
959.25	2194.60
959.42	2012.54
959.59	1849.73
959.75	1836.82
959.92	2247.03
960.09	2217.13
960.26	1750.81
960.43	1855.05
960.60	2111.87
960.76	2018.89
960.93	1717.22
961.10	1893.55
961.27	2221.02
961.44	1978.95
961.61	1735.04
961.77	1736.68
961.94	2109.00
962.11	2164.70
962.28	1796.48
962.45	1726.03
962.62	2022.78
962.78	2224.09
962.95	1710.67
963.12	1804.67
963.29	2191.94
963.46	2515.11
963.62	1858.12
963.79	1797.71
963.96	2474.36
964.13	1994.31
964.30	1884.34
964.46	1803.44
964.63	1873.48
964.80	2486.03
964.97	1641.86
965.14	1897.44
965.30	2071.32
965.47	2164.09
965.64	1950.69
965.81	1882.49
965.98	2243.96
966.14	2101.01
966.31	1781.53
966.48	1782.76
966.65	2231.06
966.81	2094.46
966.98	1799.75
967.15	1796.07
967.32	2033.22
967.49	1880.85
967.65	1657.63
967.82	1626.91
967.99	2006.39
968.16	1798.94
968.32	1927.96
968.49	1765.55
968.66	2004.76
968.83	2278.57
968.99	1907.48
969.16	1734.02
969.33	2262.19
969.50	2149.75
969.66	1934.92
969.83	2043.87
970.00	2165.73
970.17	2120.47
970.33	1818.19
970.50	1720.29
970.67	2300.28
970.84	2302.53
971.00	1761.66
971.17	1708.42
971.34	2181.50
971.50	2058.82
971.67	1892.94
971.84	1821.67
972.01	1867.13
972.17	1719.27
972.34	1706.16
972.51	1971.78
972.67	2239.04
972.84	2102.44
973.01	1729.92
973.18	1790.54
973.34	2215.90
973.51	1888.64
973.68	1841.53
973.84	1834.16
974.01	1999.84
974.18	2332.84
974.34	1882.49
974.51	1900.72
974.68	1923.66
974.85	2395.51
975.01	1919.36
975.18	1809.59
975.35	2082.58
975.51	1921.81
975.68	1688.96
975.85	1976.29
976.01	1936.76
976.18	2265.46
976.35	1811.43
976.51	1854.23
976.68	2333.66
976.85	2227.78
977.01	1840.30
977.18	1898.88
977.35	2132.96
977.51	1857.71
977.68	1668.48
977.85	1738.32
978.01	2206.69
978.18	2125.59
978.35	1850.95
978.51	1862.83
978.68	2182.11
978.85	2313.59
979.01	1811.22
979.18	1826.79
979.34	2024.21
979.51	2067.63
979.68	1776.82
979.84	1845.83
980.01	2480.09
980.18	2063.33
980.34	1773.75
980.51	1875.94
980.67	2178.42
980.84	2166.34
981.01	1799.96
981.17	1885.56
981.34	1766.58
981.51	2163.06
981.67	1738.11
981.84	1910.55
982.00	2149.34
982.17	2019.71
982.34	1668.28
982.50	1574.27
982.67	2340.21
982.83	1965.44
983.00	1710.67
983.17	1603.97
983.33	2238.23
983.50	1801.60
983.66	1712.72
983.83	1608.27
984.00	1962.36
984.16	2043.87
984.33	1622.40
984.49	1596.19
984.66	1904.00
984.83	2186.41
984.99	1650.66
985.16	1588.20
985.32	2155.28
985.49	2178.22
985.65	1747.74
985.82	1598.23
985.99	2307.86
986.15	2059.23
986.32	1716.20
986.48	1651.28
986.65	1965.85
986.81	2170.23
986.98	1615.44
987.14	1695.72
987.31	2060.87
987.48	1811.22
987.64	1548.88
987.81	1578.37
987.97	2389.77
988.14	1900.92
988.30	1620.35
988.47	1489.28
988.63	2115.35
988.80	1863.24
988.96	1675.44
989.13	1726.44
989.30	1989.19
989.46	2214.06
989.63	1573.66
989.79	1593.73
989.96	2017.04
990.12	2289.42
990.29	1642.47
990.45	1705.96
990.62	2039.37
990.78	2236.59
990.95	1746.30
991.11	1656.40
991.28	1985.51
991.44	2082.58
991.61	1537.82
991.77	1691.21
991.94	2070.50
992.10	2238.23
992.27	1678.11
992.43	1670.12
992.60	2133.98
992.76	1951.30
992.93	1830.68
993.09	1576.94
993.26	2183.95
993.42	2383.43
993.59	1645.75
993.75	1548.06
993.92	1900.11
994.08	1909.12
994.25	1707.60
994.41	1577.55
994.58	2121.90
994.74	2299.05
994.91	1605.61
995.07	1706.16
995.24	1999.02
995.40	2029.74
995.56	1766.99
995.73	1728.08
995.89	2328.75
996.06	2023.19
996.22	1598.44
996.39	1563.83
996.55	2000.87
996.72	2111.87
996.88	1569.56
997.05	1583.69
997.21	2356.39
997.37	2146.07
997.54	1738.32
997.70	1629.36
997.87	2089.75
998.03	2053.09
998.20	1533.52
998.36	1559.12
998.52	2153.85
998.69	2198.49
998.85	1556.25
999.02	1645.95
999.18	2223.07
999.35	2189.89
999.51	1678.92
999.67	1654.55
999.84	1896.62
1000.00	2146.07
1000.17	1741.59
1000.33	1597.21
1000.49	1955.81
1000.66	2013.56
1000.82	1627.93
1000.99	1700.02
1001.15	2248.46
1001.31	1993.29
1001.48	1650.66
1001.64	1755.52
1001.81	1988.78
1001.97	2411.28
1002.13	1651.28
1002.30	1660.29
1002.46	2250.31
1002.63	1995.13
1002.79	1747.53
1002.95	1606.22
1003.12	2200.75
1003.28	2100.40
1003.45	1611.14
1003.61	1575.91
1003.77	2068.24
1003.94	1830.47
1004.10	1669.91
1004.26	1732.17
1004.43	2128.45
1004.59	2339.19
1004.75	1625.47
1004.92	1610.52
1005.08	1976.09
1005.25	2101.01
1005.41	1620.76
1005.57	1727.87
1005.74	2244.37
1005.90	1964.82
1006.06	1765.35
1006.23	1619.53
1006.39	2133.98
1006.55	2520.64
1006.72	1767.81
1006.88	1577.96
1007.04	1907.27
1007.21	2028.72
1007.37	1672.58
1007.53	1639.40
1007.70	2307.24
1007.86	2194.60
1008.02	1730.74
1008.19	1600.49
1008.35	2097.12
1008.51	1944.96
1008.68	1659.67
1008.84	1585.33
1009.00	1846.45
1009.17	2218.97
1009.33	1825.15
1009.49	1725.21
1009.65	1928.78
1009.82	2118.83
1009.98	1733.61
1010.14	1535.57
1010.31	2163.47
1010.47	2152.82
1010.63	1700.63
1010.80	1682.00
1010.96	2111.46
1011.12	2020.12
1011.28	1663.77
1011.45	1627.93
1011.61	2492.38
1011.77	1860.78
1011.94	1593.11
1012.10	1629.36
1012.26	1884.34
1012.42	1951.51
1012.59	1696.13
1012.75	1689.78
1012.91	2000.25
1013.07	2194.81
1013.24	1594.75
1013.40	1620.97
1013.56	2061.28
1013.72	2032.20
1013.89	1700.43
1014.05	1745.69
1014.21	2356.39
1014.37	2486.85
1014.54	1699.61
1014.70	1589.22
1014.86	1991.65
1015.02	1881.88
1015.19	1659.47
1015.35	1597.83
1015.51	2016.43
1015.67	1974.04
1015.84	1635.71
1016.00	1657.83
1016.16	2209.35
1016.32	2177.61
1016.49	1627.32
1016.65	1587.99
1016.81	2022.57
1016.97	2112.89
1017.14	1771.90
1017.30	1645.34
1017.46	1945.57
1017.62	2080.33
1017.78	1707.80
1017.95	1630.18
1018.11	2180.88
1018.27	2461.86
1018.43	1793.41
1018.59	1714.35
1018.76	2165.32
1018.92	2475.18
1019.08	1602.13
1019.24	1648.61
1019.40	2278.16
1019.57	2075.00
1019.73	1736.68
1019.89	1662.34
1020.05	2088.11
1020.21	2409.84
1020.38	1599.05
1020.54	1811.63
1020.70	2138.49
1020.86	2158.76
1021.02	1646.57
1021.18	1609.50
1021.35	1961.34
1021.51	2125.59
1021.67	1798.53
1021.83	1686.50
1021.99	2053.09
1022.15	2072.75
1022.32	1701.86
1022.48	1676.67
1022.64	2279.18
1022.80	2309.90
1022.96	1717.63
1023.12	1578.78
1023.29	2212.83
1023.45	2145.86
1023.61	1649.84
1023.77	1859.35
1023.93	2110.43
1024.09	1916.90
1024.25	1636.53
1024.42	1552.57
1024.58	1963.59
1024.74	2076.03
1024.90	1663.97
1025.06	1732.79
1025.22	1915.87
1025.38	2305.60
1025.54	1584.10
1025.71	1756.54
1025.87	2119.24
1026.03	2139.51
1026.19	1607.25
1026.35	1838.26
1026.51	2109.20
1026.67	2057.59
1026.83	1694.49
1026.99	1789.92
1027.16	2137.67
1027.32	2037.93
1027.48	1660.49
1027.64	1633.05
1027.80	2148.93
1027.96	2060.05
1028.12	1674.01
1028.28	1644.72
1028.44	2091.80
1028.60	2311.54
1028.77	1800.78
1028.93	1701.66
1029.09	1979.98
1029.25	1884.54
1029.41	1714.15
1029.57	1746.71
1029.73	2067.63
1029.89	2313.80
1030.05	1777.64
1030.21	1732.58
1030.37	2457.97
1030.53	2150.37
1030.69	1692.65
1030.85	1604.58
1031.02	1901.74
1031.18	2053.09
1031.34	1653.94
1031.50	1753.47
1031.66	1931.23
1031.82	2303.76
1031.98	1715.58
1032.14	1592.91
1032.30	1889.05
1032.46	2204.43
1032.62	1784.60
1032.78	1585.95
1032.94	1923.04
1033.10	1981.00
1033.26	1727.26
1033.42	1773.54
1033.58	2410.05
1033.74	1955.40
1033.90	1623.02
1034.06	1852.18
1034.22	2418.45
1034.38	2235.56
1034.54	1703.91
1034.70	1701.66
1034.86	2343.90
>>>>>End Processed Spectral Data<<<<<
