SpectraSuite Data File
++++++++++++++++++++++++++++++++++++
Date: Thu Mar 30 14:28:26 PDT 2017
User: UCSD _CER
Dark Spectrum Present: No
Reference Spectrum Present: No
Number of Sampled Component Spectra: 1
Spectrometers: USB4C00073
Integration Time (usec): 380000 (USB4C00073)
Spectra Averaged: 10 (USB4C00073)
Boxcar Smoothing: 0 (USB4C00073)
Correct for Electrical Dark: No (USB4C00073)
Strobe/Lamp Enabled: No (USB4C00073)
Correct for Detector Non-linearity: No (USB4C00073)
Correct for Stray Light: No (USB4C00073)
Number of Pixels in Processed Spectrum: 3648
>>>>>Begin Processed Spectral Data<<<<<
345.37	1246.60
345.58	1246.60
345.80	1246.60
346.01	1207.89
346.22	1255.20
346.43	2070.70
346.65	1898.47
346.86	2459.20
347.07	2357.42
347.28	1846.04
347.50	1820.44
347.71	2116.17
347.92	1878.19
348.13	1808.15
348.35	1818.39
348.56	2150.98
348.77	1970.15
348.98	1853.62
349.20	1702.48
349.41	2123.54
349.62	2274.47
349.83	1935.74
350.05	1817.57
350.26	2226.96
350.47	2382.61
350.68	1842.15
350.90	1736.06
351.11	2399.20
351.32	2329.36
351.53	1854.03
351.75	1792.18
351.96	2176.17
352.17	2141.15
352.38	1905.63
352.60	1897.65
352.81	2148.11
353.02	2440.56
353.23	1796.89
353.44	1833.75
353.66	2056.16
353.87	2068.65
354.08	1894.37
354.29	1815.11
354.51	1996.77
354.72	2082.37
354.93	1791.56
355.14	1815.73
355.35	1865.49
355.57	2274.47
355.78	1838.87
355.99	1920.79
356.20	2127.02
356.42	2102.85
356.63	1918.95
356.84	1808.56
357.05	2297.62
357.26	2507.74
357.48	1947.41
357.69	1887.82
357.90	2210.37
358.11	2052.06
358.32	1851.36
358.54	1870.21
358.75	2075.82
358.96	2253.99
359.17	1825.56
359.38	1856.28
359.60	2255.63
359.81	2121.29
360.02	1861.19
360.23	1777.02
360.44	2003.32
360.66	2324.85
360.87	1826.58
361.08	1805.08
361.29	2205.25
361.50	2167.16
361.72	1820.23
361.93	1898.88
362.14	2136.85
362.35	1881.47
362.56	1998.00
362.77	1728.49
362.99	2233.92
363.20	2119.44
363.41	1884.95
363.62	1684.45
363.83	2220.41
364.05	2257.07
364.26	1790.33
364.47	1802.42
364.68	2310.11
364.89	1995.95
365.10	1729.10
365.32	1878.19
365.53	1948.44
365.74	2055.96
365.95	1838.67
366.16	1710.67
366.37	2132.14
366.59	2091.80
366.80	1852.39
367.01	1724.80
367.22	2487.67
367.43	2609.73
367.64	1909.53
367.86	1831.91
368.07	2212.42
368.28	2333.05
368.49	1749.58
368.70	1888.43
368.91	2086.27
369.12	2108.38
369.34	1745.89
369.55	1748.97
369.76	2170.44
369.97	2076.85
370.18	1742.41
370.39	1813.89
370.60	1902.77
370.82	1954.58
371.03	1879.63
371.24	1800.16
371.45	2259.52
371.66	2251.54
371.87	1849.93
372.08	1854.44
372.30	1980.18
372.51	2328.75
372.72	1999.43
372.93	1838.67
373.14	2445.07
373.35	2032.81
373.56	1759.61
373.78	1852.39
373.99	2279.39
374.20	2658.26
374.41	1817.57
374.62	1815.32
374.83	2376.67
375.04	2098.14
375.25	1864.47
375.47	1881.26
375.68	2048.79
375.89	2286.97
376.10	1856.28
376.31	1934.10
376.52	2208.53
376.73	2196.86
376.94	1885.77
377.15	1808.56
377.37	2130.09
377.58	2071.73
377.79	1747.12
378.00	1778.66
378.21	2171.67
378.42	2227.58
378.63	1900.31
378.84	1928.16
379.05	2290.04
379.27	2166.75
379.48	1936.35
379.69	1799.75
379.90	2358.85
380.11	1817.57
380.32	1851.16
380.53	1967.48
380.74	2392.23
380.95	2140.95
381.16	1894.17
381.37	1871.23
381.59	2377.08
381.80	2268.33
382.01	1813.68
382.22	1748.97
382.43	2209.35
382.64	2133.37
382.85	1773.13
383.06	1853.62
383.27	2245.19
383.48	2087.70
383.69	1863.24
383.91	1766.37
384.12	2271.81
384.33	2258.70
384.54	1920.99
384.75	1788.49
384.96	2705.98
385.17	2346.77
385.38	1855.25
385.59	1825.76
385.80	2254.20
386.01	2400.22
386.22	1965.23
386.43	1836.00
386.64	2515.32
386.86	2113.91
387.07	1957.65
387.28	1744.66
387.49	2028.31
387.70	2346.56
387.91	1954.79
388.12	1838.46
388.33	2190.71
388.54	2053.09
388.75	1792.79
388.96	1912.39
389.17	2032.40
389.38	2098.96
389.59	1910.96
389.80	1955.20
390.01	2095.28
390.22	2037.52
390.43	1943.52
390.64	1698.59
390.86	2233.31
391.07	2307.86
391.28	1834.37
391.49	1880.44
391.70	1914.65
391.91	2003.73
392.12	1860.37
392.33	1952.74
392.54	2174.53
392.75	2128.04
392.96	1964.41
393.17	1838.46
393.38	2537.43
393.59	2323.01
393.80	1771.08
394.01	1879.01
394.22	2093.64
394.43	2443.64
394.64	1757.98
394.85	1908.71
395.06	2115.35
395.27	2141.97
395.48	1851.98
395.69	1746.51
395.90	2107.16
396.11	2140.95
396.32	1843.79
396.53	1943.93
396.74	2088.31
396.95	2306.83
397.16	1817.16
397.37	1727.46
397.58	2280.41
397.79	2108.79
398.00	1924.89
398.21	1848.09
398.42	2172.08
398.63	2534.57
398.84	1822.28
399.05	1814.91
399.26	2365.61
399.47	2194.40
399.68	1725.00
399.89	1796.68
400.10	1932.26
400.31	2050.84
400.52	1900.92
400.73	1837.64
400.94	1914.44
401.15	2238.02
401.36	1840.92
401.57	1892.73
401.78	2349.22
401.99	2301.71
402.20	1809.59
402.41	1984.07
402.62	2392.03
402.83	2085.65
403.04	1786.24
403.25	2025.24
403.46	2177.81
403.67	2358.85
403.88	1827.61
404.09	1802.01
404.30	1993.90
404.51	2009.47
404.72	1780.09
404.93	1979.77
405.14	1983.46
405.35	2099.37
405.56	1892.53
405.77	1806.72
405.98	2171.26
406.19	2086.88
406.40	1783.58
406.61	1821.87
406.82	2033.02
407.03	2515.32
407.24	1779.68
407.45	1880.04
407.66	2181.50
407.87	2288.20
408.08	1916.69
408.29	1951.71
408.49	2237.82
408.70	2125.18
408.91	1814.30
409.12	1993.90
409.33	1972.19
409.54	2344.92
409.75	1802.01
409.96	1869.80
410.17	2275.50
410.38	2103.06
410.59	1821.87
410.80	1954.79
411.01	2099.78
411.22	2083.40
411.43	1933.69
411.64	1832.93
411.85	1962.36
412.06	1969.12
412.27	1663.97
412.47	1789.31
412.68	2128.66
412.89	2189.07
413.10	1821.87
413.31	1748.35
413.52	2478.45
413.73	2444.25
413.94	1815.93
414.15	1986.94
414.36	2054.52
414.57	1969.74
414.78	1777.64
414.99	1758.80
415.19	2186.82
415.40	2128.25
415.61	1951.92
415.82	1905.84
416.03	2211.81
416.24	2189.07
416.45	1852.59
416.66	1738.93
416.87	1902.15
417.08	2225.53
417.29	1794.64
417.50	1887.61
417.70	2231.26
417.91	2181.91
418.12	1906.45
418.33	1830.47
418.54	2210.78
418.75	2311.34
418.96	1964.41
419.17	1905.43
419.38	2320.35
419.59	2213.85
419.79	1937.99
420.00	1858.12
420.21	2644.54
420.42	2154.67
420.63	1803.24
420.84	1900.72
421.05	2117.19
421.26	2145.45
421.47	1757.98
421.67	2230.85
421.88	2003.73
422.09	1952.12
422.30	2085.24
422.51	1873.89
422.72	2473.54
422.93	2253.18
423.14	1894.37
423.35	1749.58
423.55	1867.13
423.76	1997.79
423.97	1876.14
424.18	1713.74
424.39	2081.35
424.60	2277.55
424.81	1863.86
425.02	1940.25
425.22	2054.73
425.43	2078.07
425.64	2045.31
425.85	1872.25
426.06	2504.67
426.27	2290.86
426.48	1975.68
426.68	1961.54
426.89	2283.69
427.10	2460.84
427.31	1870.82
427.52	1803.65
427.73	2229.01
427.94	2207.92
428.14	2009.06
428.35	1915.26
428.56	2403.29
428.77	2308.06
428.98	1897.24
429.19	1877.37
429.40	2019.09
429.60	2069.27
429.81	1998.61
430.02	1875.53
430.23	2107.56
430.44	2265.87
430.65	1829.86
430.85	1847.47
431.06	2205.66
431.27	1881.88
431.48	1862.42
431.69	1906.04
431.90	2148.73
432.10	2152.21
432.31	1944.14
432.52	1835.18
432.73	2585.36
432.94	2417.22
433.15	2017.45
433.35	1866.31
433.56	2356.19
433.77	2143.61
433.98	2136.65
434.19	2037.11
434.40	2365.20
434.60	2334.07
434.81	2182.32
435.02	2086.27
435.23	2231.06
435.44	2139.10
435.64	1814.30
435.85	1824.54
436.06	2097.12
436.27	2045.10
436.48	1803.03
436.68	1841.12
436.89	2443.64
437.10	2353.53
437.31	1983.05
437.52	2095.48
437.73	2253.79
437.93	2247.44
438.14	2002.09
438.35	1789.11
438.56	2077.66
438.77	2116.17
438.97	2065.99
439.18	1860.58
439.39	2364.38
439.60	1965.03
439.80	1842.56
440.01	1908.91
440.22	2087.29
440.43	2242.12
440.64	1823.10
440.84	1931.03
441.05	1924.27
441.26	2614.03
441.47	1969.33
441.68	1936.15
441.88	2235.77
442.09	2264.85
442.30	2241.71
442.51	2289.63
442.71	2324.44
442.92	2362.95
443.13	2018.07
443.34	1922.43
443.55	2036.09
443.75	2263.62
443.96	1857.30
444.17	1813.07
444.38	2309.90
444.58	1961.34
444.79	1981.61
445.00	1915.87
445.21	2110.64
445.41	2070.29
445.62	1718.86
445.83	2001.89
446.04	2181.70
446.24	1904.00
446.45	1733.20
446.66	1868.57
446.87	2195.63
447.07	2060.46
447.28	2115.35
447.49	1874.71
447.70	2275.70
447.90	2289.83
448.11	1939.63
448.32	1994.31
448.53	2349.63
448.73	2397.15
448.94	1847.27
449.15	2028.31
449.36	2144.43
449.56	2219.79
449.77	1876.14
449.98	1783.37
450.19	2014.18
450.39	2044.49
450.60	1956.63
450.81	1957.24
451.02	2095.69
451.22	2395.51
451.43	1828.43
451.64	1857.71
451.84	2033.02
452.05	2315.84
452.26	1883.31
452.47	1925.09
452.67	2038.55
452.88	2364.99
453.09	1782.76
453.30	1805.08
453.50	2264.03
453.71	2536.20
453.92	1992.88
454.12	2195.01
454.33	2207.71
454.54	2236.59
454.75	1973.63
454.95	1881.26
455.16	2212.63
455.37	2254.61
455.57	2016.23
455.78	1918.13
455.99	2119.85
456.19	2140.74
456.40	1821.26
456.61	1910.35
456.82	2157.74
457.02	2286.97
457.23	2086.68
457.44	2188.66
457.64	2212.83
457.85	2367.25
458.06	2049.61
458.26	1996.77
458.47	2179.45
458.68	2318.51
458.89	1889.46
459.09	2065.99
459.30	2482.14
459.51	2145.25
459.71	1769.24
459.92	1862.42
460.13	2272.43
460.33	2559.55
460.54	1947.21
460.75	1963.18
460.95	1962.77
461.16	2212.42
461.37	1921.81
461.57	1918.74
461.78	2191.33
461.99	1949.26
462.19	2164.50
462.40	1847.88
462.61	2731.58
462.81	2307.45
463.02	1871.23
463.23	1873.89
463.43	2244.57
463.64	2027.08
463.85	3176.40
464.05	1871.43
464.26	2688.37
464.47	2370.32
464.67	2083.60
464.88	2056.57
465.09	2104.08
465.29	2292.91
465.50	2184.57
465.71	2111.25
465.91	2162.86
466.12	2212.01
466.33	1999.23
466.53	1890.68
466.74	2457.77
466.94	2095.89
467.15	1969.74
467.36	2094.25
467.56	1998.82
467.77	2173.51
467.98	1937.99
468.18	1917.92
468.39	2032.20
468.60	2480.50
468.80	1922.02
469.01	1826.58
469.21	2220.20
469.42	2359.26
469.63	1902.77
469.83	1855.87
470.04	2242.53
470.25	2366.63
470.45	2025.24
470.66	1894.99
470.86	2175.76
471.07	2062.51
471.28	1979.57
471.48	1973.01
471.69	2178.42
471.90	2918.36
472.10	2136.85
472.31	2138.08
472.51	2290.86
472.72	2277.96
472.93	2028.51
473.13	2123.74
473.34	2311.13
473.54	2228.80
473.75	2032.20
473.96	2179.04
474.16	2147.50
474.37	2221.43
474.57	2015.61
474.78	1836.21
474.99	2195.22
475.19	2159.38
475.40	1917.92
475.60	1921.61
475.81	2582.90
476.02	2320.14
476.22	2220.61
476.43	2299.25
476.63	2267.72
476.84	2418.04
477.05	1841.33
477.25	1914.65
477.46	2721.55
477.66	2187.23
477.87	1859.97
478.08	1925.71
478.28	2297.00
478.49	2111.87
478.69	1884.95
478.90	1897.24
479.10	2243.14
479.31	2451.83
479.52	1993.08
479.72	2044.49
479.93	2302.12
480.13	2132.96
480.34	1971.58
480.54	2022.78
480.75	2054.52
480.96	2382.40
481.16	1896.01
481.37	2032.81
481.57	2290.65
481.78	2192.76
481.98	2130.09
482.19	2039.37
482.40	2471.28
482.60	2234.33
482.81	2032.61
483.01	1833.55
483.22	2293.11
483.42	2279.59
483.63	2013.97
483.83	1953.76
484.04	2077.25
484.24	2318.51
484.45	2096.92
484.66	1900.92
484.86	2238.84
485.07	2021.96
485.27	1986.12
485.48	1897.85
485.68	2348.41
485.89	2015.41
486.09	2002.50
486.30	1905.02
486.50	2152.82
486.71	2164.70
486.91	2009.06
487.12	2247.24
487.33	2890.91
487.53	2994.13
487.74	2589.45
487.94	2540.71
488.15	2504.26
488.35	2449.17
488.56	2118.42
488.76	1989.40
488.97	2218.36
489.17	2287.79
489.38	2081.15
489.58	1988.58
489.79	2278.98
489.99	2219.79
490.20	1963.18
490.40	2068.04
490.61	2206.07
490.81	2050.63
491.02	1978.34
491.22	1987.14
491.43	2243.96
491.63	2108.18
491.84	2077.66
492.04	1859.76
492.25	2204.02
492.45	2095.89
492.66	1887.82
492.86	1862.42
493.07	2077.66
493.27	2522.69
493.48	1802.01
493.68	1881.26
493.89	2095.89
494.09	2281.23
494.30	1951.10
494.50	2155.49
494.71	2223.48
494.91	1906.25
495.12	1941.47
495.32	2022.37
495.53	2163.27
495.73	2010.70
495.94	2153.44
496.14	1988.78
496.35	2702.70
496.55	2269.15
496.76	1992.88
496.96	2047.35
497.17	2142.99
497.37	2248.06
497.58	1949.46
497.78	1857.92
497.98	2093.43
498.19	2107.16
498.39	1937.79
498.60	1991.24
498.80	1843.79
499.01	2253.38
499.21	1800.37
499.42	1962.98
499.62	2076.23
499.83	2505.69
500.03	1825.35
500.24	2034.25
500.44	2381.99
500.64	2333.46
500.85	1897.03
501.05	2029.74
501.26	1871.84
501.46	2340.62
501.67	1873.69
501.87	1834.16
502.08	1981.61
502.28	2049.61
502.48	1999.02
502.69	2045.10
502.89	1856.07
503.10	1999.64
503.30	2010.29
503.51	2004.14
503.71	1891.91
503.92	2246.62
504.12	1993.29
504.32	1877.99
504.53	2255.22
504.73	2222.87
504.94	2086.68
505.14	2163.88
505.35	2228.80
505.55	2219.79
505.75	1950.90
505.96	2115.96
506.16	2497.91
506.37	2050.43
506.57	1889.87
506.78	2055.34
506.98	2293.11
507.18	1902.97
507.39	1824.94
507.59	1951.10
507.80	2010.70
508.00	2144.63
508.20	2158.56
508.41	1964.41
508.61	2339.39
508.82	2261.78
509.02	2076.44
509.22	1877.58
509.43	1954.17
509.63	2007.42
509.84	1977.11
510.04	1798.12
510.24	2391.21
510.45	2253.38
510.65	1841.12
510.86	1982.84
511.06	1946.18
511.26	2252.97
511.47	2099.58
511.67	1884.54
511.88	2197.47
512.08	2278.37
512.28	1844.40
512.49	2008.44
512.69	2151.19
512.90	2165.11
513.10	1924.89
513.30	1992.47
513.51	2214.47
513.71	2433.60
513.91	2008.24
514.12	2016.84
514.32	2305.60
514.53	2038.55
514.73	2003.12
514.93	1934.31
515.14	2136.03
515.34	2349.63
515.54	1885.16
515.75	2027.49
515.95	2219.59
516.15	2382.81
516.36	1981.41
516.56	2014.38
516.77	1765.76
516.97	2209.14
517.17	1948.44
517.38	2034.45
517.58	2380.76
517.78	2065.38
517.99	2008.03
518.19	1961.54
518.39	2326.90
518.60	2034.04
518.80	1838.67
519.00	1987.76
519.21	2094.66
519.41	2436.67
519.61	1876.76
519.82	2044.08
520.02	2164.50
520.22	2085.24
520.43	1902.36
520.63	2010.29
520.83	1987.96
521.04	1881.47
521.24	2011.72
521.44	1957.86
521.65	2007.42
521.85	2247.03
522.05	1936.15
522.26	1918.33
522.46	2466.37
522.66	2256.45
522.87	1970.97
523.07	2143.40
523.27	2083.81
523.48	2336.94
523.68	1968.10
523.88	2041.01
524.09	2345.33
524.29	2176.38
524.49	1819.83
524.70	2035.68
524.90	2345.54
525.10	2225.12
525.31	1840.30
525.51	1841.33
525.71	2262.39
525.91	2232.90
526.12	1942.70
526.32	1846.86
526.52	2062.10
526.73	2006.19
526.93	2018.68
527.13	1870.61
527.34	2094.87
527.54	2093.84
527.74	1960.32
527.94	1845.22
528.15	1920.18
528.35	2137.26
528.55	2059.85
528.76	2008.24
528.96	1868.98
529.16	2286.97
529.36	2054.52
529.57	1869.18
529.77	2324.44
529.97	1974.45
530.18	2041.01
530.38	1914.24
530.58	2235.56
530.78	2138.08
530.99	1926.93
531.19	2020.94
531.39	1995.95
531.60	2128.25
531.80	2003.32
532.00	2097.53
532.20	2191.53
532.41	2004.14
532.61	1909.73
532.81	1900.92
533.01	2046.74
533.22	2195.42
533.42	2093.02
533.62	1830.68
533.82	2354.55
534.03	2080.53
534.23	2064.35
534.43	1900.11
534.63	2024.62
534.84	2170.64
535.04	2043.26
535.24	1961.34
535.44	2561.80
535.65	2036.09
535.85	1932.05
536.05	1891.09
536.25	2099.99
536.46	1981.00
536.66	2106.54
536.86	2002.50
537.06	2223.89
537.27	2345.54
537.47	1980.39
537.67	1961.34
537.87	2361.10
538.08	2132.96
538.28	1854.03
538.48	1813.48
538.68	2067.01
538.88	2226.14
539.09	1838.87
539.29	1979.98
539.49	2284.10
539.69	2159.17
539.90	2013.97
540.10	1892.12
540.30	2352.09
540.50	2026.47
540.70	1819.01
540.91	1897.24
541.11	2273.04
541.31	2404.93
541.51	2004.76
541.72	2052.27
541.92	2200.95
542.12	1996.77
542.32	2007.42
542.52	1941.88
542.73	2003.73
542.93	2193.99
543.13	1916.28
543.33	2054.11
543.53	2259.52
543.74	2221.02
543.94	1934.72
544.14	2043.46
544.34	2315.64
544.54	2109.61
544.75	2049.40
544.95	2122.31
545.15	2209.14
545.35	2386.70
545.55	2084.83
545.75	1949.87
545.96	2531.08
546.16	1989.81
546.36	1997.59
546.56	1972.19
546.76	2327.31
546.97	2383.63
547.17	1986.94
547.37	2045.31
547.57	2063.12
547.77	2257.89
547.97	2047.76
548.18	2012.95
548.38	2115.96
548.58	2349.22
548.78	1893.96
548.98	1983.05
549.18	2270.17
549.39	2392.23
549.59	2049.61
549.79	2023.80
549.99	2397.15
550.19	2265.67
550.39	2155.08
550.60	1997.59
550.80	2163.88
551.00	2237.20
551.20	1956.83
551.40	1965.85
551.60	2208.32
551.80	2190.10
552.01	2030.97
552.21	1974.04
552.41	2150.37
552.61	2440.15
552.81	2082.17
553.01	1888.64
553.21	2209.35
553.42	1964.82
553.62	1929.60
553.82	1894.78
554.02	2383.02
554.22	2283.28
554.42	1854.64
554.62	2083.40
554.83	2426.43
555.03	2336.32
555.23	1992.88
555.43	2232.49
555.63	2164.50
555.83	2145.45
556.03	2056.16
556.23	1851.57
556.44	2169.21
556.64	2337.14
556.84	1715.99
557.04	1962.57
557.24	2157.33
557.44	2122.31
557.64	2026.67
557.84	1895.60
558.04	2055.55
558.25	2248.67
558.45	1903.18
558.65	1981.61
558.85	2101.83
559.05	1854.03
559.25	1987.55
559.45	2034.04
559.65	2454.08
559.85	2940.88
560.05	2021.35
560.26	2051.25
560.46	2081.76
560.66	2006.19
560.86	1961.54
561.06	1914.24
561.26	2342.67
561.46	2235.36
561.66	1943.93
561.86	2098.14
562.06	1982.23
562.26	2072.34
562.47	1996.77
562.67	1873.89
562.87	2234.74
563.07	1893.14
563.27	2009.47
563.47	1994.93
563.67	2036.09
563.87	2223.27
564.07	1907.07
564.27	1945.16
564.47	2118.62
564.67	2142.99
564.87	1924.48
565.08	2015.82
565.28	2045.72
565.48	2230.85
565.68	2014.38
565.88	2100.60
566.08	2491.15
566.28	2118.01
566.48	1857.51
566.68	1986.73
566.88	2086.27
567.08	2286.56
567.28	2004.14
567.48	1999.23
567.68	2192.96
567.88	1897.24
568.08	1992.06
568.28	2104.49
568.48	2098.35
568.68	2324.24
568.89	2039.37
569.09	1858.74
569.29	2276.73
569.49	2260.75
569.69	1901.54
569.89	1894.17
570.09	1830.68
570.29	2007.01
570.49	1843.58
570.69	1916.90
570.89	2256.45
571.09	2456.74
571.29	1834.78
571.49	2147.09
571.69	2170.23
571.89	2218.15
572.09	1983.46
572.29	2026.67
572.49	2231.47
572.69	2217.75
572.89	1989.19
573.09	1715.38
573.29	2080.74
573.49	2121.29
573.69	1968.51
573.89	2002.09
574.09	2036.91
574.29	2299.46
574.49	1976.29
574.69	1896.21
574.89	1921.81
575.09	1927.55
575.29	1843.58
575.49	2001.28
575.69	2155.08
575.89	1922.84
576.09	1981.41
576.29	2014.38
576.49	1953.56
576.69	2099.58
576.89	1927.34
577.09	1991.85
577.29	1867.95
577.49	2423.98
577.69	1941.68
577.89	2122.72
578.09	2117.39
578.29	1844.81
578.49	1996.56
578.69	1898.67
578.89	2292.29
579.09	2120.47
579.29	1903.18
579.49	2085.86
579.69	2036.91
579.89	2452.03
580.09	1763.51
580.29	1810.40
580.49	2019.09
580.69	1944.34
580.89	1929.39
581.09	1948.03
581.29	2034.66
581.49	2070.70
581.69	1854.23
581.89	1901.13
582.09	1959.50
582.28	1979.77
582.48	2046.94
582.68	2093.84
582.88	2350.86
583.08	2063.74
583.28	1986.12
583.48	1990.42
583.68	1981.61
583.88	2092.41
584.08	1992.26
584.28	2008.85
584.48	2475.18
584.68	2223.07
584.88	1951.30
585.08	2159.79
585.28	2264.85
585.48	2316.46
585.68	2011.11
585.87	2100.40
586.07	2203.61
586.27	2114.32
586.47	2034.66
586.67	1961.95
586.87	2099.37
587.07	2067.63
587.27	1863.86
587.47	2022.78
587.67	2410.66
587.87	2586.17
588.07	2029.95
588.27	1921.20
588.46	2250.31
588.66	2253.18
588.86	1970.56
589.06	2011.11
589.26	2251.13
589.46	2222.25
589.66	1880.24
589.86	1855.05
590.06	2055.34
590.26	2145.45
590.46	1902.97
590.66	2014.38
590.85	1953.56
591.05	2131.12
591.25	1870.61
591.45	1965.23
591.65	2204.02
591.85	2133.78
592.05	1890.89
592.25	2037.52
592.45	2265.46
592.64	2009.67
592.84	1991.44
593.04	1904.61
593.24	2575.12
593.44	2027.90
593.64	1974.45
593.84	2044.08
594.04	2053.50
594.24	2378.31
594.43	1948.64
594.63	1993.70
594.83	2286.15
595.03	2260.75
595.23	1874.30
595.43	1859.56
595.63	2004.35
595.83	2260.34
596.02	1771.29
596.22	1967.07
596.42	2170.03
596.62	2107.36
596.82	1928.98
597.02	2003.53
597.22	2333.05
597.41	2136.44
597.61	1933.69
597.81	2072.54
598.01	2244.57
598.21	2028.72
598.41	1885.36
598.61	1891.91
598.80	2114.32
599.00	2171.46
599.20	2121.29
599.40	1965.23
599.60	2038.34
599.80	2243.75
599.99	2079.10
600.19	1932.87
600.39	2114.94
600.59	2219.18
600.79	2032.20
600.99	1963.18
601.19	2380.15
601.38	2458.38
601.58	2077.25
601.78	1746.10
601.98	2193.37
602.18	2199.31
602.37	2225.94
602.57	2022.16
602.77	2258.09
602.97	2183.75
603.17	2195.83
603.37	2095.28
603.56	2306.22
603.76	2224.71
603.96	2019.91
604.16	2026.67
604.36	2376.26
604.56	2263.01
604.75	1918.33
604.95	2003.12
605.15	2342.67
605.35	2257.07
605.55	1936.97
605.74	1899.29
605.94	2291.47
606.14	2103.88
606.34	1978.13
606.54	2006.19
606.73	2012.95
606.93	2234.54
607.13	1911.37
607.33	2053.91
607.53	2384.45
607.72	2306.83
607.92	2061.08
608.12	2149.14
608.32	2099.58
608.51	2253.38
608.71	1884.13
608.91	2051.86
609.11	2213.24
609.31	2070.91
609.50	1973.22
609.70	2207.30
609.90	2281.44
610.10	2269.15
610.29	1949.67
610.49	1879.22
610.69	2226.35
610.89	2137.46
611.09	1990.83
611.28	2170.64
611.48	2283.69
611.68	2121.08
611.88	1960.32
612.07	1887.61
612.27	2245.80
612.47	2002.71
612.67	2007.21
612.86	2095.89
613.06	2134.19
613.26	1853.62
613.46	1879.63
613.65	2066.20
613.85	2601.33
614.05	2271.61
614.25	2100.40
614.44	2011.51
614.64	2094.66
614.84	2045.51
615.04	1912.19
615.23	1975.27
615.43	2212.42
615.63	2224.30
615.83	1902.15
616.02	1816.96
616.22	2214.06
616.42	1899.70
616.62	1863.45
616.81	1989.19
617.01	2127.02
617.21	2083.40
617.41	1837.23
617.60	1982.64
617.80	2244.98
618.00	2249.08
618.19	2095.48
618.39	1999.64
618.59	2199.93
618.79	2108.38
618.98	1836.00
619.18	1988.99
619.38	2494.63
619.57	2093.43
619.77	2001.89
619.97	1947.00
620.17	2021.14
620.36	1933.49
620.56	2153.64
620.76	1870.00
620.95	1917.92
621.15	2006.60
621.35	1884.13
621.54	1973.42
621.74	2127.02
621.94	2000.87
622.14	1883.11
622.33	1830.47
622.53	2107.97
622.73	2070.29
622.92	1847.68
623.12	1971.17
623.32	2444.05
623.51	2227.37
623.71	1879.42
623.91	2126.41
624.10	1969.74
624.30	2127.43
624.50	1830.27
624.69	1856.69
624.89	2809.40
625.09	2046.13
625.29	1786.03
625.48	1863.04
625.68	2145.45
625.88	2290.24
626.07	2041.21
626.27	1915.87
626.47	2036.70
626.66	1857.71
626.86	1997.38
627.06	1981.41
627.25	2130.91
627.45	2390.18
627.64	1970.35
627.84	2136.85
628.04	1963.18
628.23	2453.47
628.43	1851.98
628.63	1879.01
628.82	2025.24
629.02	2410.46
629.22	2033.22
629.41	2102.44
629.61	2122.92
629.81	2438.72
630.00	1920.59
630.20	1858.33
630.40	2145.25
630.59	2181.91
630.79	1965.44
630.98	1905.23
631.18	2088.31
631.38	2092.82
631.57	2063.74
631.77	1825.56
631.97	2148.11
632.16	2164.50
632.36	2011.31
632.56	2012.95
632.75	2155.69
632.95	2299.87
633.14	1859.56
633.34	2136.24
633.54	1833.96
633.73	2039.37
633.93	1933.49
634.12	1817.57
634.32	2599.08
634.52	2102.44
634.71	1824.94
634.91	2007.21
635.11	1928.57
635.30	1999.23
635.50	1977.93
635.69	1904.61
635.89	2443.02
636.09	2259.93
636.28	1880.24
636.48	1875.73
636.67	2205.46
636.87	2189.48
637.07	2023.19
637.26	1919.15
637.46	2143.61
637.65	2248.67
637.85	2008.24
638.04	1909.94
638.24	2017.25
638.44	2181.09
638.63	1975.68
638.83	1950.08
639.02	2194.81
639.22	2197.88
639.42	1940.45
639.61	1980.39
639.81	2130.91
640.00	2089.75
640.20	2091.59
640.39	2000.46
640.59	2408.41
640.79	2226.14
640.98	1993.29
641.18	1911.57
641.37	2069.06
641.57	2006.60
641.76	1993.29
641.96	1742.00
642.15	2091.18
642.35	1974.24
642.55	1989.19
642.74	1834.57
642.94	2217.34
643.13	2344.11
643.33	1920.18
643.52	1892.32
643.72	2028.72
643.91	2103.88
644.11	1857.92
644.31	1884.75
644.50	1994.93
644.70	2313.18
644.89	1994.52
645.09	2039.78
645.28	2122.51
645.48	2180.27
645.67	1880.44
645.87	1822.69
646.06	2046.94
646.26	2139.51
646.45	1726.44
646.65	1725.82
646.84	2420.29
647.04	2028.10
647.24	1856.48
647.43	1931.03
647.63	2125.38
647.82	2394.28
648.02	1875.53
648.21	1928.78
648.41	2318.10
648.60	2047.35
648.80	2091.80
648.99	1951.30
649.19	2004.96
649.38	1849.93
649.58	1963.18
649.77	2022.98
649.97	2279.18
650.16	2184.36
650.36	1724.18
650.55	2097.94
650.75	2146.27
650.94	2391.21
651.14	1967.07
651.33	2004.14
651.53	2404.52
651.72	1992.88
651.92	1934.31
652.11	1758.18
652.31	2196.65
652.50	2160.81
652.70	1967.07
652.89	1838.26
653.09	2390.39
653.28	2033.22
653.48	1765.14
653.67	1766.58
653.87	2622.83
654.06	2126.20
654.25	2191.94
654.45	1906.45
654.64	2033.02
654.84	2060.26
655.03	1777.64
655.23	2109.20
655.42	2263.01
655.62	2466.98
655.81	2101.63
656.01	1961.95
656.20	2334.89
656.40	2411.69
656.59	2050.02
656.79	2130.30
656.98	2199.31
657.17	2287.79
657.37	1950.08
657.56	1945.98
657.76	2193.58
657.95	2276.32
658.15	1616.26
658.34	1996.16
658.54	2094.05
658.73	1899.08
658.92	1949.87
659.12	1961.54
659.31	2203.20
659.51	1917.72
659.70	1994.11
659.90	1857.10
660.09	2248.26
660.29	2079.30
660.48	1862.22
660.67	2121.49
660.87	2006.80
661.06	2159.79
661.26	2053.09
661.45	2064.97
661.65	2193.37
661.84	2013.56
662.03	1890.07
662.23	1928.98
662.42	2427.46
662.62	1923.86
662.81	1834.98
663.00	1899.08
663.20	2138.49
663.39	2198.29
663.59	2054.52
663.78	1943.93
663.97	2073.36
664.17	2287.38
664.36	1858.33
664.56	1911.57
664.75	2266.69
664.94	2182.11
665.14	2027.49
665.33	1954.79
665.53	2095.69
665.72	2093.23
665.91	2058.00
666.11	1951.71
666.30	2112.07
666.50	2061.89
666.69	1988.99
666.88	1894.78
667.08	2088.72
667.27	2044.90
667.47	1954.58
667.66	1914.44
667.85	2257.48
668.05	2086.88
668.24	1857.10
668.43	2143.81
668.63	2034.86
668.82	2293.32
669.02	2055.96
669.21	1924.89
669.40	1874.92
669.60	2406.16
669.79	1800.57
669.98	2582.69
670.18	1945.78
670.37	1897.85
670.56	1949.05
670.76	2017.45
670.95	2050.84
671.15	2223.68
671.34	1970.76
671.53	1960.52
671.73	2007.42
671.92	1992.67
672.11	1881.26
672.31	1882.49
672.50	2153.44
672.69	1889.46
672.89	1706.16
673.08	1943.93
673.27	2208.73
673.47	2123.54
673.66	1984.69
673.85	1806.10
674.05	2123.54
674.24	2118.42
674.43	1821.67
674.63	1987.35
674.82	2464.12
675.01	1749.99
675.21	2053.09
675.40	1922.22
675.59	1988.78
675.79	2351.48
675.98	1930.01
676.17	2094.05
676.37	2123.33
676.56	2012.13
676.75	1950.28
676.95	1969.74
677.14	2027.90
677.33	2272.43
677.52	1823.92
677.72	1892.53
677.91	2135.01
678.10	1861.81
678.30	1835.18
678.49	1877.17
678.68	2505.08
678.88	1820.44
679.07	2149.55
679.26	1899.08
679.45	2428.69
679.65	2316.05
679.84	1763.30
680.03	1822.90
680.23	2030.77
680.42	2523.10
680.61	1855.46
680.81	1913.01
681.00	2114.53
681.19	2178.01
681.38	2043.67
681.58	1996.77
681.77	2031.79
681.96	2240.68
682.15	1855.25
682.35	2045.31
682.54	2156.92
682.73	1909.12
682.93	1868.98
683.12	1855.25
683.31	2232.90
683.50	2568.36
683.70	1862.22
683.89	1991.65
684.08	1931.23
684.27	2225.73
684.47	1820.23
684.66	1897.65
684.85	2442.00
685.04	2279.39
685.24	1855.87
685.43	1933.49
685.62	1787.47
685.81	2130.09
686.01	2034.66
686.20	1851.36
686.39	1849.73
686.58	2425.20
686.78	1958.06
686.97	1927.55
687.16	2233.92
687.35	2135.62
687.55	1920.79
687.74	1956.01
687.93	1893.35
688.12	2031.38
688.32	1961.75
688.51	1780.30
688.70	2115.35
688.89	1898.26
689.08	1809.59
689.28	1866.11
689.47	2101.42
689.66	2116.17
689.85	2029.33
690.05	1856.69
690.24	1974.86
690.43	2112.27
690.62	1972.40
690.81	1908.71
691.01	2093.84
691.20	2038.96
691.39	1795.66
691.58	1978.13
691.77	2388.55
691.97	2115.76
692.16	2006.80
692.35	1949.67
692.54	1973.63
692.73	2136.24
692.93	1930.42
693.12	1969.12
693.31	2155.08
693.50	2105.31
693.69	2032.81
693.89	1912.60
694.08	2280.41
694.27	2324.44
694.46	1902.97
694.65	1937.58
694.85	2141.97
695.04	2137.26
695.23	1872.66
695.42	2084.22
695.61	2153.03
695.80	2278.98
696.00	2227.17
696.19	2245.39
696.38	2062.30
696.57	2247.03
696.76	2105.31
696.95	1975.68
697.15	2371.34
697.34	2367.86
697.53	1947.82
697.72	2018.27
697.91	2031.58
698.10	2336.12
698.30	1937.17
698.49	1930.21
698.68	2135.21
698.87	2026.06
699.06	1870.61
699.25	1966.05
699.45	2287.79
699.64	2112.48
699.83	2098.76
700.02	1905.23
700.21	2179.04
700.40	2019.50
700.59	1930.82
700.79	1966.66
700.98	2182.32
701.17	1952.74
701.36	1847.68
701.55	1889.87
701.74	2260.14
701.93	1878.60
702.12	1911.78
702.32	1855.46
702.51	2274.27
702.70	2203.61
702.89	1962.77
703.08	1902.36
703.27	2284.92
703.46	2157.33
703.65	1856.28
703.85	1824.13
704.04	1986.32
704.23	2280.21
704.42	1886.79
704.61	1907.48
704.80	2341.24
704.99	1971.99
705.18	1995.75
705.37	1947.00
705.57	2177.61
705.76	2319.12
705.95	1913.83
706.14	2258.91
706.33	2451.62
706.52	2675.88
706.71	2144.63
706.90	2004.14
707.09	2252.77
707.28	2170.64
707.47	1873.48
707.67	2066.40
707.86	1975.47
708.05	2290.04
708.24	1937.38
708.43	2010.29
708.62	2028.10
708.81	1957.04
709.00	1835.39
709.19	1891.71
709.38	2251.33
709.57	1914.24
709.76	1967.48
709.96	1862.01
710.15	2350.66
710.34	2089.34
710.53	2055.75
710.72	1899.49
710.91	2287.58
711.10	2175.35
711.29	2007.62
711.48	1903.38
711.67	1918.33
711.86	2148.73
712.05	1785.21
712.24	1858.94
712.43	2213.85
712.62	2350.66
712.81	1946.59
713.00	2101.01
713.19	1889.66
713.39	2166.55
713.58	1787.67
713.77	1988.37
713.96	2147.50
714.15	1997.79
714.34	1903.38
714.53	1764.73
714.72	2404.32
714.91	1900.31
715.10	2012.13
715.29	1820.44
715.48	2579.01
715.67	2191.12
715.86	1959.29
716.05	1911.57
716.24	2043.87
716.43	2002.30
716.62	1816.14
716.81	1806.51
717.00	2013.15
717.19	2344.72
717.38	1885.77
717.57	1919.56
717.76	1849.11
717.95	2256.86
718.14	1944.14
718.33	1962.98
718.52	1854.44
718.71	1852.59
718.90	1873.69
719.09	1868.77
719.28	2094.87
719.47	2242.73
719.66	2003.12
719.85	2034.66
720.04	1995.75
720.23	2082.58
720.42	1864.88
720.61	2023.60
720.80	1854.44
720.99	2121.29
721.18	1895.80
721.37	1846.65
721.56	2033.63
721.75	2220.00
721.94	1856.07
722.13	1879.42
722.32	2018.89
722.51	2235.15
722.70	1978.13
722.89	2032.81
723.08	2075.00
723.27	2251.54
723.46	1994.31
723.65	1945.16
723.84	2009.47
724.03	2347.18
724.22	1831.50
724.41	1946.59
724.60	2070.70
724.79	2253.18
724.98	1978.34
725.16	1909.73
725.35	2194.40
725.54	1903.38
725.73	1939.22
725.92	1946.18
726.11	2026.06
726.30	2191.74
726.49	1840.10
726.68	1890.28
726.87	2152.01
727.06	2317.48
727.25	1895.60
727.44	1991.04
727.63	2093.64
727.82	2005.17
728.01	1944.14
728.20	1993.49
728.38	2288.40
728.57	2026.47
728.76	1903.18
728.95	2041.01
729.14	1870.00
729.33	1915.06
729.52	1676.88
729.71	1851.77
729.90	1925.30
730.09	1983.05
730.28	1872.87
730.47	1854.23
730.66	2259.93
730.84	2098.35
731.03	1931.85
731.22	1956.83
731.41	2089.54
731.60	2137.87
731.79	1762.69
731.98	1828.63
732.17	2192.56
732.36	2131.32
732.55	1852.59
732.73	1789.11
732.92	2273.86
733.11	2171.05
733.30	1852.18
733.49	1791.77
733.68	2166.96
733.87	2127.43
734.06	1798.94
734.25	1815.93
734.43	1949.26
734.62	2109.61
734.81	1896.62
735.00	1866.72
735.19	2003.53
735.38	2144.02
735.57	1798.12
735.76	1982.84
735.94	2150.78
736.13	2443.43
736.32	1992.47
736.51	1914.24
736.70	2429.10
736.89	2394.49
737.08	2068.45
737.27	2209.14
737.45	2498.11
737.64	2315.23
737.83	2331.41
738.02	2298.64
738.21	2461.66
738.40	2573.27
738.59	2076.44
738.77	2129.07
738.96	2045.51
739.15	2139.31
739.34	2070.91
739.53	2037.32
739.72	2320.55
739.90	2299.05
740.09	1868.36
740.28	1945.16
740.47	2214.88
740.66	2186.82
740.85	1848.09
741.03	1909.73
741.22	1910.75
741.41	2045.92
741.60	1754.09
741.79	1978.54
741.98	2297.62
742.16	2403.70
742.35	1948.85
742.54	1966.25
742.73	2413.94
742.92	1986.73
743.10	1766.17
743.29	1880.04
743.48	2498.32
743.67	1977.11
743.86	1761.87
744.05	1822.69
744.23	1921.40
744.42	1922.43
744.61	1947.41
744.80	1773.34
744.99	1970.15
745.17	1787.06
745.36	1758.59
745.55	2009.67
745.74	2046.74
745.93	1954.58
746.11	1827.61
746.30	1780.30
746.49	2253.79
746.68	1925.09
746.86	1905.43
747.05	1882.70
747.24	2144.84
747.43	2181.70
747.62	1798.94
747.80	1849.52
747.99	2253.99
748.18	2207.92
748.37	1930.21
748.56	1988.78
748.74	2226.96
748.93	2064.76
749.12	2109.41
749.31	2387.73
749.49	2656.83
749.68	2863.06
749.87	2957.68
750.06	2745.10
750.24	2905.04
750.43	2863.88
750.62	2655.40
750.81	2803.26
750.99	2985.73
751.18	2988.81
751.37	2548.49
751.56	2644.54
751.74	3034.48
751.93	3143.22
752.12	2179.86
752.31	2162.04
752.49	2261.57
752.68	2563.65
752.87	2090.36
753.06	2017.04
753.24	2120.06
753.43	2340.62
753.62	1901.33
753.81	1898.88
753.99	2346.77
754.18	2153.85
754.37	1859.97
754.55	1926.93
754.74	2384.04
754.93	1809.18
755.12	1859.76
755.30	1815.52
755.49	2283.08
755.68	2084.22
755.86	1987.14
756.05	1793.82
756.24	2337.35
756.43	1868.16
756.61	1861.19
756.80	1944.75
756.99	2312.16
757.17	2048.58
757.36	1855.66
757.55	1912.19
757.74	2162.25
757.92	2084.83
758.11	1816.75
758.30	1747.12
758.48	2026.87
758.67	1878.60
758.86	1912.60
759.04	1810.20
759.23	1994.52
759.42	2048.17
759.60	1845.63
759.79	1909.12
759.98	2022.16
760.16	1934.51
760.35	1862.83
760.54	1814.71
760.73	2080.74
760.91	1838.87
761.10	1884.13
761.29	1978.75
761.47	2065.79
761.66	2444.05
761.85	1958.88
762.03	2075.21
762.22	2306.83
762.41	2615.26
762.59	2768.03
762.78	2935.56
762.97	3551.79
763.15	3544.01
763.34	3207.94
763.52	2755.75
763.71	2917.13
763.90	2985.73
764.08	2559.96
764.27	2574.50
764.46	2833.98
764.64	2454.29
764.83	2347.38
765.02	2253.18
765.20	2415.58
765.39	2396.12
765.58	1954.99
765.76	1996.77
765.95	2169.62
766.13	2123.54
766.32	1922.63
766.51	1896.42
766.69	2842.17
766.88	2177.61
767.07	1808.15
767.25	1694.90
767.44	2241.30
767.62	2267.51
767.81	1811.84
768.00	1922.02
768.18	2047.35
768.37	1977.52
768.56	1712.72
768.74	1859.76
768.93	1844.81
769.11	2121.08
769.30	1973.01
769.49	1878.19
769.67	2054.11
769.86	1979.77
770.04	1908.09
770.23	1828.43
770.42	2283.28
770.60	2075.82
770.79	1822.49
770.97	1863.45
771.16	2273.86
771.35	2104.90
771.53	2027.69
771.72	2114.32
771.90	2359.67
772.09	2634.10
772.27	2377.49
772.46	2122.92
772.65	2522.69
772.83	2329.77
773.02	2215.49
773.20	1990.42
773.39	2288.81
773.58	2315.64
773.76	1903.38
773.95	1909.12
774.13	2196.86
774.32	2082.37
774.50	1870.21
774.69	1981.20
774.87	2044.69
775.06	2492.17
775.25	1901.33
775.43	1909.53
775.62	2127.63
775.80	2204.43
775.99	1976.09
776.17	1880.65
776.36	2083.60
776.54	2286.97
776.73	1853.62
776.92	1960.73
777.10	2203.61
777.29	2132.14
777.47	1873.89
777.66	1896.01
777.84	2104.49
778.03	2046.94
778.21	1846.45
778.40	1970.15
778.58	2162.45
778.77	2233.11
778.95	1812.04
779.14	1867.54
779.32	2395.30
779.51	2251.54
779.70	1895.19
779.88	1782.35
780.07	2004.55
780.25	2551.36
780.44	1887.82
780.62	2008.44
780.81	2184.57
780.99	2146.89
781.18	1886.79
781.36	1845.83
781.55	2053.09
781.73	2352.30
781.92	1780.30
782.10	1802.42
782.29	2195.83
782.47	2341.44
782.66	1889.05
782.84	1778.66
783.03	1969.74
783.21	2287.58
783.40	1854.44
783.58	1857.71
783.77	1993.29
783.95	2043.26
784.14	1834.57
784.32	1936.15
784.51	2278.37
784.69	1957.45
784.88	1763.92
785.06	1894.58
785.24	1876.14
785.43	2236.38
785.61	1989.40
785.80	1809.38
785.98	2165.93
786.17	2072.75
786.35	1787.06
786.54	2003.53
786.72	2215.08
786.91	2239.45
787.09	1904.41
787.28	1762.69
787.46	2051.45
787.65	2198.08
787.83	1760.02
788.01	1892.94
788.20	1845.02
788.38	2044.08
788.57	1841.12
788.75	1845.22
788.94	2383.63
789.12	2273.65
789.31	1949.26
789.49	2031.99
789.67	1958.27
789.86	2111.66
790.04	1826.17
790.23	1733.81
790.41	2470.46
790.60	2009.67
790.78	1852.59
790.96	1892.12
791.15	2170.23
791.33	2056.98
791.52	1896.01
791.70	1787.88
791.89	2059.44
792.07	2245.39
792.25	1905.43
792.44	1773.34
792.62	2235.36
792.81	1998.41
792.99	1886.38
793.17	1871.23
793.36	1921.40
793.54	2347.38
793.73	2068.04
793.91	1976.29
794.10	2411.48
794.28	2503.85
794.46	2163.88
794.65	2187.03
794.83	2092.41
795.01	2234.74
795.20	2195.22
795.38	2138.90
795.57	2271.20
795.75	2249.28
795.93	1970.97
796.12	2017.66
796.30	2244.16
796.49	2213.65
796.67	1851.77
796.85	1998.82
797.04	2086.27
797.22	2188.25
797.40	1794.23
797.59	1932.67
797.77	2082.17
797.96	1937.38
798.14	1812.66
798.32	1864.27
798.51	2188.87
798.69	2388.75
798.87	1925.71
799.06	1889.66
799.24	1808.56
799.42	2245.19
799.61	1977.52
799.79	1958.68
799.98	2465.96
800.16	2107.56
800.34	2150.78
800.53	2275.29
800.71	2388.96
800.89	2855.89
801.08	2492.17
801.26	2512.45
801.44	2444.25
801.63	2279.18
801.81	2224.91
801.99	2112.89
802.18	2228.19
802.36	2288.61
802.54	2164.50
802.73	1944.14
802.91	2186.62
803.09	2222.46
803.28	2077.87
803.46	2042.23
803.64	2408.62
803.83	1922.02
804.01	1844.40
804.19	1800.37
804.38	2206.28
804.56	2155.49
804.74	1907.48
804.92	1894.37
805.11	1873.69
805.29	2242.53
805.47	1863.24
805.66	1768.01
805.84	1857.92
806.02	2214.88
806.21	1830.06
806.39	2068.65
806.57	2198.08
806.76	2191.12
806.94	1937.99
807.12	1839.08
807.30	1913.01
807.49	2037.73
807.67	1922.43
807.85	2020.12
808.04	2176.38
808.22	2467.60
808.40	1816.34
808.58	1749.58
808.77	2111.05
808.95	2318.92
809.13	1891.09
809.31	2183.13
809.50	2452.24
809.68	2590.27
809.86	2243.75
810.05	2388.14
810.23	2877.40
810.41	2946.21
810.59	3925.34
810.78	4523.96
810.96	5108.25
811.14	5474.43
811.32	4912.46
811.51	4330.84
811.69	4019.14
811.87	4110.27
812.05	3565.72
812.24	3423.38
812.42	3598.69
812.60	3503.46
812.78	2850.36
812.97	2706.19
813.15	3113.94
813.33	2779.30
813.51	2558.32
813.70	2242.32
813.88	2210.78
814.06	2293.32
814.24	2105.11
814.42	1882.08
814.61	2194.19
814.79	2432.58
814.97	1775.79
815.15	1866.72
815.34	2147.50
815.52	2204.43
815.70	1837.44
815.88	1911.37
816.06	1924.07
816.25	1970.15
816.43	1850.95
816.61	1977.72
816.79	2314.61
816.98	1802.01
817.16	1810.20
817.34	1794.02
817.52	2116.17
817.70	2327.93
817.89	1928.37
818.07	1811.63
818.25	2032.40
818.43	2108.18
818.61	1939.43
818.80	1860.58
818.98	2361.92
819.16	2108.38
819.34	1801.80
819.52	2163.06
819.70	1942.91
819.89	2062.51
820.07	1774.97
820.25	1756.75
820.43	2128.45
820.61	2242.94
820.80	1897.24
820.98	1797.30
821.16	1832.32
821.34	1860.58
821.52	1881.67
821.70	2024.62
821.89	2094.05
822.07	2038.75
822.25	1974.04
822.43	1845.63
822.61	2327.52
822.79	2140.74
822.98	1912.80
823.16	1749.37
823.34	2143.81
823.52	2287.79
823.70	1958.88
823.88	1750.19
824.06	2187.64
824.25	2057.39
824.43	1981.00
824.61	1806.31
824.79	2084.42
824.97	2097.94
825.15	1977.11
825.33	2130.50
825.52	2307.04
825.70	2162.45
825.88	2011.11
826.06	2096.51
826.24	2226.55
826.42	2292.70
826.60	2031.79
826.78	2076.03
826.97	2114.12
827.15	2334.48
827.33	1911.78
827.51	1993.29
827.69	1991.85
827.87	2152.62
828.05	2012.13
828.23	1869.39
828.41	2241.30
828.60	2216.72
828.78	1788.70
828.96	1996.97
829.14	1987.55
829.32	2030.15
829.50	1896.21
829.68	1854.64
829.86	2013.77
830.04	2174.53
830.22	2006.39
830.41	1816.96
830.59	2035.48
830.77	2161.43
830.95	1856.07
831.13	1861.40
831.31	1947.00
831.49	2257.07
831.67	2039.57
831.85	2032.20
832.03	2030.77
832.21	2193.78
832.39	1775.18
832.57	1823.31
832.76	2231.88
832.94	2037.52
833.12	1742.82
833.30	1857.51
833.48	2294.75
833.66	2151.39
833.84	1885.36
834.02	1918.54
834.20	2227.99
834.38	2213.85
834.56	1745.07
834.74	1802.01
834.92	1864.06
835.10	2384.45
835.28	1925.09
835.46	1949.67
835.64	2049.40
835.82	1938.61
836.01	2189.28
836.19	2107.16
836.37	2005.58
836.55	1913.83
836.73	1845.83
836.91	1799.55
837.09	2167.37
837.27	2339.39
837.45	1770.88
837.63	1785.21
837.81	1858.12
837.99	2049.20
838.17	1924.89
838.35	1827.40
838.53	2461.04
838.71	2151.19
838.89	1834.57
839.07	1828.84
839.25	2092.00
839.43	2216.93
839.61	1902.15
839.79	2138.08
839.97	2367.04
840.15	2460.22
840.33	2232.90
840.51	2470.46
840.69	2365.61
840.87	2332.43
841.05	2233.92
841.23	2114.53
841.41	2400.42
841.59	2739.16
841.77	2615.05
841.95	2694.10
842.13	3196.06
842.31	2830.70
842.49	2503.44
842.67	2521.46
842.85	2699.43
843.03	2382.40
843.21	2206.07
843.39	2420.90
843.57	2433.40
843.75	2437.08
843.93	2144.84
844.11	2180.06
844.29	2300.69
844.47	2182.73
844.65	2175.35
844.83	2014.18
845.01	2089.54
845.19	2286.15
845.36	1992.88
845.54	2005.37
845.72	2117.39
845.90	2223.07
846.08	1866.11
846.26	1973.83
846.44	2141.77
846.62	2167.37
846.80	2013.56
846.98	1857.30
847.16	2025.85
847.34	2114.53
847.52	1844.81
847.70	1804.26
847.88	2044.28
848.06	2333.05
848.24	1981.61
848.41	1787.06
848.59	2271.20
848.77	2154.46
848.95	1877.17
849.13	1863.86
849.31	2198.90
849.49	2133.16
849.67	1841.94
849.85	1809.99
850.03	2138.08
850.21	2129.07
850.39	1820.23
850.57	2020.53
850.74	2328.54
850.92	2295.57
851.10	2067.01
851.28	1945.37
851.46	2268.74
851.64	2576.14
851.82	2046.33
852.00	2113.91
852.18	2469.85
852.36	2346.15
852.53	1999.64
852.71	2095.69
852.89	2235.15
853.07	2234.13
853.25	1902.97
853.43	1861.19
853.61	2133.37
853.79	2172.08
853.97	1891.09
854.14	1905.63
854.32	2310.31
854.50	2211.40
854.68	1896.62
854.86	1902.15
855.04	1962.16
855.22	2209.55
855.40	1758.80
855.57	1844.61
855.75	2213.85
855.93	2170.23
856.11	1749.99
856.29	1872.66
856.47	1985.51
856.65	2127.43
856.82	1825.97
857.00	1789.11
857.18	2058.41
857.36	2006.60
857.54	1971.99
857.72	2042.23
857.89	2210.99
858.07	2117.19
858.25	2111.46
858.43	1792.59
858.61	2028.92
858.79	2084.22
858.97	1833.96
859.14	1976.29
859.32	2055.55
859.50	2026.87
859.68	1946.80
859.86	1835.18
860.03	2087.90
860.21	2161.22
860.39	1840.10
860.57	2038.34
860.75	2157.13
860.93	2427.66
861.10	2048.79
861.28	1796.48
861.46	2121.90
861.64	2133.98
861.82	1876.55
861.99	1998.61
862.17	2232.08
862.35	2247.03
862.53	1918.74
862.71	1913.01
862.88	2142.38
863.06	2208.94
863.24	1898.26
863.42	1827.61
863.60	2061.49
863.77	2182.93
863.95	1763.30
864.13	1877.99
864.31	2024.62
864.49	2228.80
864.66	1808.56
864.84	1839.49
865.02	2133.16
865.20	2570.00
865.37	1971.78
865.55	1844.81
865.73	1881.26
865.91	2168.18
866.09	1995.13
866.26	1923.25
866.44	2159.58
866.62	2003.53
866.80	1818.19
866.97	1870.41
867.15	2033.22
867.33	2088.72
867.51	1953.35
867.68	1904.82
867.86	1976.09
868.04	1961.54
868.22	1681.38
868.39	1838.46
868.57	2121.70
868.75	2322.40
868.93	1775.79
869.10	1841.74
869.28	2407.80
869.46	2326.70
869.64	1890.68
869.81	1878.40
869.99	2119.44
870.17	2101.42
870.35	1827.61
870.52	1863.86
870.70	2265.26
870.88	1969.12
871.05	1809.79
871.23	1697.36
871.41	2073.36
871.59	2082.37
871.76	1873.69
871.94	1803.65
872.12	2088.93
872.29	1874.10
872.47	1880.65
872.65	1799.35
872.83	2131.73
873.00	2301.92
873.18	1917.10
873.36	1837.23
873.53	2224.30
873.71	1858.33
873.89	1788.49
874.06	1889.05
874.24	2159.99
874.42	2293.93
874.60	2020.53
874.77	1998.00
874.95	1971.58
875.13	2225.73
875.30	1854.85
875.48	1841.53
875.66	2343.49
875.83	1930.01
876.01	1835.18
876.19	1957.24
876.36	1875.32
876.54	2097.32
876.72	1805.08
876.89	1979.16
877.07	2217.54
877.25	1802.83
877.42	1910.35
877.60	1879.22
877.78	2378.10
877.95	1999.64
878.13	1806.31
878.31	1985.51
878.48	2221.23
878.66	2201.57
878.84	1859.35
879.01	1891.30
879.19	2148.11
879.37	2188.25
879.54	1894.78
879.72	1743.44
879.90	1795.66
880.07	2211.81
880.25	1628.54
880.42	2050.02
880.60	2115.14
880.78	2192.76
880.95	1846.86
881.13	1965.03
881.31	2080.12
881.48	2001.28
881.66	1838.87
881.83	1994.11
882.01	1969.33
882.19	1870.41
882.36	1907.89
882.54	1876.76
882.72	2217.54
882.89	2087.29
883.07	1823.92
883.24	1852.80
883.42	2217.75
883.60	2113.71
883.77	1784.60
883.95	1899.49
884.12	2220.41
884.30	2104.29
884.48	2014.38
884.65	1907.27
884.83	2140.95
885.00	2114.53
885.18	1770.06
885.36	1859.76
885.53	2169.00
885.71	2326.08
885.88	1791.56
886.06	1863.45
886.23	2164.29
886.41	1987.76
886.59	1858.94
886.76	1803.65
886.94	2166.14
887.11	2577.37
887.29	1911.16
887.47	1815.52
887.64	2306.22
887.82	2330.79
887.99	1720.09
888.17	1888.23
888.34	2009.67
888.52	1911.57
888.69	1849.93
888.87	1793.20
889.05	2040.19
889.22	2024.83
889.40	1848.70
889.57	2079.92
889.75	2382.81
889.92	2030.56
890.10	1783.99
890.27	1950.49
890.45	1974.86
890.62	1777.23
890.80	1779.28
890.98	1707.19
891.15	2350.25
891.33	2261.98
891.50	1832.32
891.68	1749.37
891.85	2203.00
892.03	2212.83
892.20	1842.97
892.38	1794.43
892.55	2198.29
892.73	2217.13
892.90	1733.81
893.08	1826.79
893.25	1983.05
893.43	1987.55
893.60	1920.99
893.78	1680.56
893.95	2123.13
894.13	2086.06
894.30	1835.59
894.48	1883.72
894.65	2201.16
894.83	2132.75
895.00	1694.49
895.18	1704.73
895.35	2233.72
895.53	2199.93
895.70	1770.06
895.88	1977.93
896.05	2149.96
896.23	1859.56
896.40	1852.39
896.58	1922.22
896.75	2220.61
896.93	2334.89
897.10	1891.09
897.28	1729.92
897.45	2105.93
897.63	2190.71
897.80	1948.85
897.98	1819.42
898.15	2137.26
898.33	1996.16
898.50	1892.32
898.67	1871.02
898.85	2003.73
899.02	2148.52
899.20	2115.14
899.37	1871.84
899.55	2080.94
899.72	2300.89
899.90	1834.78
900.07	1833.14
900.25	2159.17
900.42	2247.24
900.59	1829.66
900.77	1963.39
900.94	2186.82
901.12	2097.73
901.29	1831.70
901.47	1994.52
901.64	2174.74
901.82	2066.61
901.99	1647.18
902.16	1789.31
902.34	2270.79
902.51	2106.75
902.69	1859.15
902.86	1899.70
903.03	2708.23
903.21	2077.87
903.38	1844.40
903.56	1824.74
903.73	2272.63
903.91	2010.49
904.08	1793.61
904.25	1698.59
904.43	1960.93
904.60	2205.25
904.78	1850.54
904.95	1800.57
905.12	2037.52
905.30	2415.78
905.47	1954.38
905.65	1988.58
905.82	2026.67
905.99	2186.82
906.17	1866.72
906.34	1814.50
906.52	1920.59
906.69	2158.56
906.86	1937.79
907.04	1896.21
907.21	2234.54
907.38	2231.26
907.56	1794.64
907.73	1801.80
907.91	2309.49
908.08	2270.17
908.25	1861.81
908.43	1766.99
908.60	2152.01
908.77	2120.06
908.95	1865.90
909.12	1797.09
909.30	2191.33
909.47	1842.76
909.64	1874.10
909.82	2072.75
909.99	2008.85
910.16	2102.24
910.34	1829.45
910.51	1811.43
910.68	2125.79
910.86	2051.04
911.03	1753.47
911.20	1797.09
911.38	2231.06
911.55	2505.69
911.72	2349.02
911.90	2254.20
912.07	2599.90
912.24	2795.68
912.42	2241.50
912.59	2071.52
912.76	2432.17
912.94	2257.89
913.11	1968.51
913.28	1859.97
913.46	1924.07
913.63	2150.16
913.80	2181.50
913.98	1823.92
914.15	2253.79
914.32	2260.55
914.49	1934.51
914.67	1746.51
914.84	2082.37
915.01	2150.16
915.19	1924.48
915.36	1799.55
915.53	2212.63
915.71	2153.85
915.88	1924.48
916.05	1821.26
916.22	2272.43
916.40	2105.93
916.57	1741.18
916.74	1993.70
916.92	2328.75
917.09	1891.50
917.26	1808.97
917.43	1746.71
917.61	2002.09
917.78	1813.48
917.95	1786.85
918.13	1766.99
918.30	2486.03
918.47	2088.93
918.64	1785.42
918.82	1751.83
918.99	2046.54
919.16	2339.80
919.33	1862.22
919.51	1836.41
919.68	2044.49
919.85	2259.32
920.02	1742.62
920.20	1857.51
920.37	2332.02
920.54	2197.47
920.71	1793.82
920.89	1845.22
921.06	2394.08
921.23	1915.26
921.40	1743.03
921.58	1922.84
921.75	2582.90
921.92	1973.42
922.09	1911.16
922.27	1865.90
922.44	2071.73
922.61	2149.75
922.78	1840.10
922.96	1829.86
923.13	1998.41
923.30	2246.42
923.47	1733.20
923.64	1820.85
923.82	2138.69
923.99	2088.72
924.16	1935.54
924.33	1757.98
924.50	2079.10
924.68	2337.35
924.85	1813.27
925.02	1857.10
925.19	2191.12
925.36	2099.99
925.54	1868.98
925.71	1929.19
925.88	2608.70
926.05	2026.67
926.22	1773.95
926.40	1914.44
926.57	2101.83
926.74	2191.53
926.91	1836.82
927.08	1994.52
927.26	2258.91
927.43	2121.70
927.60	1839.08
927.77	1887.61
927.94	2357.42
928.11	2269.35
928.29	1730.53
928.46	1923.45
928.63	1916.28
928.80	2031.38
928.97	1913.21
929.14	1811.84
929.32	2448.55
929.49	2084.42
929.66	1816.75
929.83	1754.70
930.00	1971.37
930.17	2176.99
930.35	1791.36
930.52	1838.26
930.69	2376.05
930.86	1902.36
931.03	1918.74
931.20	1653.12
931.37	2270.17
931.55	2047.76
931.72	1914.24
931.89	1759.82
932.06	1898.47
932.23	2374.41
932.40	1943.52
932.57	1966.05
932.74	2283.08
932.92	2299.46
933.09	2010.49
933.26	1587.18
933.43	1993.90
933.60	2120.88
933.77	1911.98
933.94	1955.20
934.11	2034.25
934.29	2086.47
934.46	1770.67
934.63	1936.15
934.80	1850.95
934.97	2078.28
935.14	1854.23
935.31	1694.69
935.48	1919.77
935.65	2121.90
935.82	1897.44
936.00	1783.99
936.17	2332.64
936.34	2060.67
936.51	1926.11
936.68	1762.48
936.85	2120.67
937.02	2121.29
937.19	1946.39
937.36	1839.49
937.53	2141.15
937.70	2224.09
937.87	1825.56
938.05	1983.87
938.22	2110.43
938.39	1900.92
938.56	1887.61
938.73	1765.76
938.90	2052.06
939.07	1949.26
939.24	1955.40
939.41	1706.16
939.58	2131.12
939.75	2160.61
939.92	1798.73
940.09	2094.05
940.26	2043.87
940.43	2209.55
940.60	1913.83
940.77	1834.16
940.95	2133.57
941.12	2193.17
941.29	1868.57
941.46	1876.35
941.63	2284.51
941.80	2338.99
941.97	1748.15
942.14	1714.15
942.31	2198.29
942.48	2068.45
942.65	1964.82
942.82	1887.82
942.99	2185.18
943.16	2074.18
943.33	1777.23
943.50	1825.15
943.67	2237.82
943.84	2261.57
944.01	1811.43
944.18	1802.83
944.35	2303.96
944.52	1951.30
944.69	1919.56
944.86	1741.18
945.03	2199.11
945.20	2531.70
945.37	1674.42
945.54	1885.16
945.71	2299.05
945.88	2362.33
946.05	1809.18
946.22	1768.83
946.39	2320.76
946.56	2055.14
946.73	1715.17
946.90	1798.53
947.07	1994.52
947.24	2058.41
947.41	1712.72
947.58	1937.17
947.75	2192.15
947.92	2129.68
948.09	1648.21
948.26	1733.40
948.43	2107.36
948.60	2415.78
948.77	1782.35
948.94	1865.49
949.11	2208.12
949.27	2156.31
949.44	1806.51
949.61	1767.60
949.78	2099.58
949.95	2290.24
950.12	1749.17
950.29	1701.66
950.46	1965.44
950.63	2238.84
950.80	1788.90
950.97	1829.25
951.14	2271.81
951.31	2029.74
951.48	1795.66
951.65	1751.22
951.82	2400.42
951.99	2133.16
952.15	1750.40
952.32	1856.89
952.49	1971.78
952.66	2040.60
952.83	1823.72
953.00	1798.94
953.17	2081.97
953.34	2244.37
953.51	1891.50
953.68	1886.59
953.85	2301.71
954.02	2247.44
954.18	1900.72
954.35	1841.94
954.52	1948.64
954.69	2112.89
954.86	1712.51
955.03	1887.61
955.20	2203.41
955.37	2062.71
955.54	1832.52
955.71	1798.53
955.87	2141.15
956.04	2405.95
956.21	1849.73
956.38	1769.65
956.55	2099.37
956.72	2540.30
956.89	1882.08
957.06	1774.97
957.23	1971.37
957.39	2295.36
957.56	1863.65
957.73	1743.44
957.90	1753.68
958.07	2426.64
958.24	1880.85
958.41	1853.62
958.57	2214.67
958.74	2093.43
958.91	1742.21
959.08	1797.91
959.25	2198.29
959.42	2036.50
959.59	1878.19
959.75	1872.25
959.92	2283.28
960.09	2230.65
960.26	1790.13
960.43	1879.42
960.60	2110.43
960.76	2053.29
960.93	1745.28
961.10	1910.55
961.27	2269.76
961.44	2015.82
961.61	1737.09
961.77	1723.78
961.94	2114.73
962.11	2231.67
962.28	1818.60
962.45	1759.00
962.62	2024.01
962.78	2268.74
962.95	1722.75
963.12	1817.16
963.29	2190.92
963.46	2566.72
963.62	1901.13
963.79	1816.55
963.96	2534.77
964.13	2048.99
964.30	1945.98
964.46	1829.04
964.63	1917.72
964.80	2534.77
964.97	1649.23
965.14	1950.28
965.30	2135.83
965.47	2188.87
965.64	1978.54
965.81	1914.44
965.98	2340.42
966.14	2130.71
966.31	1811.63
966.48	1755.72
966.65	2265.26
966.81	2131.53
966.98	1841.74
967.15	1801.80
967.32	2078.69
967.49	1970.97
967.65	1707.80
967.82	1661.31
967.99	2048.38
968.16	1808.36
968.32	1948.85
968.49	1798.94
968.66	2017.25
968.83	2310.11
968.99	1941.68
969.16	1751.63
969.33	2306.63
969.50	2187.85
969.66	1952.53
969.83	2071.11
970.00	2216.72
970.17	2195.22
970.33	1836.41
970.50	1727.05
970.67	2379.33
970.84	2336.53
971.00	1787.06
971.17	1718.45
971.34	2207.51
971.50	2104.49
971.67	1910.75
971.84	1835.80
972.01	1919.15
972.17	1742.41
972.34	1715.58
972.51	2003.73
972.67	2287.58
972.84	2147.91
973.01	1767.40
973.18	1790.95
973.34	2240.68
973.51	1918.33
973.68	1848.09
973.84	1880.24
974.01	2031.58
974.18	2369.91
974.34	1892.94
974.51	1893.14
974.68	1957.86
974.85	2436.88
975.01	1934.72
975.18	1817.57
975.35	2092.41
975.51	1930.42
975.68	1732.99
975.85	1994.31
976.01	2000.46
976.18	2298.64
976.35	1863.45
976.51	1871.43
976.68	2396.12
976.85	2286.35
977.01	1858.12
977.18	1913.62
977.35	2195.22
977.51	1899.29
977.68	1658.65
977.85	1735.86
978.01	2251.95
978.18	2170.03
978.35	1879.22
978.51	1896.01
978.68	2245.60
978.85	2346.97
979.01	1876.55
979.18	1860.58
979.34	2065.38
979.51	2096.10
979.68	1782.14
979.84	1888.64
980.01	2549.52
980.18	2126.61
980.34	1779.48
980.51	1886.38
980.67	2221.02
980.84	2224.50
981.01	1820.44
981.17	1911.98
981.34	1804.26
981.51	2195.63
981.67	1764.73
981.84	1911.57
982.00	2190.71
982.17	2055.96
982.34	1677.70
982.50	1583.28
982.67	2381.58
982.83	2021.35
983.00	1722.55
983.17	1615.64
983.33	2282.26
983.50	1841.94
983.66	1720.70
983.83	1626.91
984.00	2001.68
984.16	2093.02
984.33	1645.13
984.49	1623.42
984.66	1913.21
984.83	2209.35
984.99	1658.24
985.16	1614.00
985.32	2200.34
985.49	2223.48
985.65	1744.87
985.82	1632.23
985.99	2327.52
986.15	2132.14
986.32	1779.68
986.48	1706.37
986.65	2000.66
986.81	2204.43
986.98	1619.94
987.14	1700.63
987.31	2090.57
987.48	1829.66
987.64	1548.88
987.81	1578.16
987.97	2464.32
988.14	1949.26
988.30	1642.88
988.47	1491.54
988.63	2132.35
988.80	1908.91
988.96	1708.21
989.13	1756.13
989.30	2034.86
989.46	2224.71
989.63	1580.83
989.79	1592.71
989.96	2064.15
990.12	2340.83
990.29	1652.92
990.45	1720.09
990.62	2064.56
990.78	2242.73
990.95	1743.64
991.11	1673.40
991.28	2012.54
991.44	2117.19
991.61	1548.26
991.77	1708.21
991.94	2106.13
992.10	2286.56
992.27	1693.67
992.43	1688.35
992.60	2152.21
992.76	2013.77
992.93	1865.49
993.09	1593.11
993.26	2242.12
993.42	2407.39
993.59	1677.70
993.75	1594.34
993.92	1971.17
994.08	1965.64
994.25	1737.91
994.41	1615.85
994.58	2197.06
994.74	2344.11
994.91	1607.66
995.07	1778.25
995.24	2040.19
995.40	2057.18
995.56	1796.89
995.73	1749.17
995.89	2379.74
996.06	2048.38
996.22	1624.24
996.39	1572.02
996.55	2045.72
996.72	2156.10
996.88	1593.32
997.05	1600.90
997.21	2437.08
997.37	2163.88
997.54	1753.88
997.70	1679.74
997.87	2140.74
998.03	2058.41
998.20	1563.01
998.36	1557.69
998.52	2199.11
998.69	2228.19
998.85	1591.27
999.02	1692.03
999.18	2233.51
999.35	2213.85
999.51	1746.51
999.67	1675.24
999.84	1912.19
1000.00	2199.52
1000.17	1726.03
1000.33	1640.42
1000.49	1977.93
1000.66	2045.10
1000.82	1643.70
1000.99	1693.47
1001.15	2289.42
1001.31	2032.40
1001.48	1711.08
1001.64	1736.06
1001.81	2050.84
1001.97	2456.33
1002.13	1673.40
1002.30	1695.51
1002.46	2290.65
1002.63	2032.20
1002.79	1766.58
1002.95	1636.53
1003.12	2247.24
1003.28	2145.66
1003.45	1629.36
1003.61	1595.57
1003.77	2099.58
1003.94	1874.10
1004.10	1664.79
1004.26	1744.25
1004.43	2171.26
1004.59	2376.67
1004.75	1666.43
1004.92	1609.29
1005.08	2015.00
1005.25	2103.88
1005.41	1652.92
1005.57	1719.68
1005.74	2266.08
1005.90	1984.69
1006.06	1807.74
1006.23	1634.89
1006.39	2203.00
1006.55	2545.42
1006.72	1802.01
1006.88	1601.10
1007.04	1922.43
1007.21	2022.57
1007.37	1706.57
1007.53	1645.75
1007.70	2356.60
1007.86	2220.00
1008.02	1747.94
1008.19	1605.40
1008.35	2108.59
1008.51	1908.09
1008.68	1655.99
1008.84	1586.97
1009.00	1894.78
1009.17	2263.21
1009.33	1830.47
1009.49	1780.09
1009.65	1974.04
1009.82	2158.15
1009.98	1729.30
1010.14	1572.23
1010.31	2210.99
1010.47	2157.33
1010.63	1734.63
1010.80	1703.09
1010.96	2155.49
1011.12	2037.73
1011.28	1684.86
1011.45	1600.49
1011.61	2552.18
1011.77	1951.10
1011.94	1639.81
1012.10	1626.09
1012.26	1888.64
1012.42	1972.40
1012.59	1719.68
1012.75	1692.44
1012.91	2044.69
1013.07	2226.76
1013.24	1598.44
1013.40	1638.38
1013.56	2118.42
1013.72	2060.26
1013.89	1709.64
1014.05	1760.64
1014.21	2407.18
1014.37	2507.94
1014.54	1713.54
1014.70	1583.69
1014.86	2026.67
1015.02	1872.05
1015.19	1655.17
1015.35	1610.73
1015.51	2053.50
1015.67	1997.18
1015.84	1678.72
1016.00	1671.96
1016.16	2264.64
1016.32	2221.43
1016.49	1658.04
1016.65	1601.31
1016.81	2048.79
1016.97	2171.46
1017.14	1780.09
1017.30	1692.65
1017.46	1979.77
1017.62	2144.02
1017.78	1753.06
1017.95	1662.13
1018.11	2220.41
1018.27	2505.89
1018.43	1810.61
1018.59	1730.74
1018.76	2203.82
1018.92	2566.31
1019.08	1632.23
1019.24	1716.61
1019.40	2296.59
1019.57	2142.99
1019.73	1773.13
1019.89	1680.15
1020.05	2114.94
1020.21	2412.30
1020.38	1650.87
1020.54	1815.32
1020.70	2188.05
1020.86	2183.75
1021.02	1674.21
1021.18	1661.52
1021.35	2000.66
1021.51	2177.40
1021.67	1834.57
1021.83	1704.93
1021.99	2097.53
1022.15	2136.03
1022.32	1737.91
1022.48	1693.26
1022.64	2294.34
1022.80	2349.43
1022.96	1743.03
1023.12	1590.45
1023.29	2266.28
1023.45	2159.99
1023.61	1669.91
1023.77	1891.30
1023.93	2101.01
1024.09	1928.98
1024.25	1655.17
1024.42	1604.99
1024.58	1999.64
1024.74	2131.53
1024.90	1691.21
1025.06	1755.11
1025.22	1976.29
1025.38	2378.10
1025.54	1602.33
1025.71	1774.56
1025.87	2206.89
1026.03	2165.73
1026.19	1626.91
1026.35	1834.37
1026.51	2185.18
1026.67	2075.00
1026.83	1733.40
1026.99	1824.33
1027.16	2180.06
1027.32	2067.01
1027.48	1688.96
1027.64	1661.93
1027.80	2195.01
1027.96	2112.89
1028.12	1661.93
1028.28	1659.67
1028.44	2141.36
1028.60	2364.79
1028.77	1817.78
1028.93	1717.63
1029.09	2019.09
1029.25	1911.98
1029.41	1712.51
1029.57	1772.93
1029.73	2114.12
1029.89	2327.31
1030.05	1800.98
1030.21	1736.47
1030.37	2498.52
1030.53	2221.43
1030.69	1700.02
1030.85	1600.08
1031.02	1954.38
1031.18	2097.53
1031.34	1657.22
1031.50	1763.71
1031.66	1957.86
1031.82	2351.89
1031.98	1715.58
1032.14	1621.79
1032.30	1921.20
1032.46	2222.05
1032.62	1811.84
1032.78	1583.08
1032.94	1982.23
1033.10	2039.37
1033.26	1751.63
1033.42	1812.04
1033.58	2489.10
1033.74	1994.72
1033.90	1696.33
1034.06	1844.81
1034.22	2489.10
1034.38	2278.57
1034.54	1705.34
1034.70	1743.23
1034.86	2413.33
>>>>>End Processed Spectral Data<<<<<
