SpectraSuite Data File
++++++++++++++++++++++++++++++++++++
Date: Thu Mar 30 16:02:31 PDT 2017
User: UCSD _CER
Dark Spectrum Present: No
Reference Spectrum Present: No
Number of Sampled Component Spectra: 1
Spectrometers: USB4C00073
Integration Time (usec): 250000 (USB4C00073)
Spectra Averaged: 10 (USB4C00073)
Boxcar Smoothing: 0 (USB4C00073)
Correct for Electrical Dark: No (USB4C00073)
Strobe/Lamp Enabled: No (USB4C00073)
Correct for Detector Non-linearity: No (USB4C00073)
Correct for Stray Light: No (USB4C00073)
Number of Pixels in Processed Spectrum: 3648
>>>>>Begin Processed Spectral Data<<<<<
345.37	1269.13
345.58	1269.13
345.80	1269.13
346.01	1260.73
346.22	1255.61
346.43	1990.83
346.65	1762.07
346.86	2122.92
347.07	2070.29
347.28	1804.87
347.50	1809.99
347.71	1918.33
347.92	1720.50
348.13	1807.74
348.35	1712.92
348.56	1926.73
348.77	1778.87
348.98	1817.98
349.20	1648.21
349.41	1923.66
349.62	1957.24
349.83	1863.45
350.05	1727.46
350.26	1936.15
350.47	2098.14
350.68	1782.76
350.90	1721.73
351.11	2097.53
351.32	2074.59
351.53	1814.30
351.75	1712.31
351.96	1933.49
352.17	1915.26
352.38	1849.93
352.60	1863.65
352.81	1911.57
353.02	2118.42
353.23	1781.12
353.44	1805.49
353.66	1843.79
353.87	1856.89
354.08	1882.49
354.29	1805.08
354.51	1833.96
354.72	1877.58
354.93	1774.36
355.14	1744.25
355.35	1738.32
355.57	2038.34
355.78	1818.19
355.99	1856.69
356.20	1893.96
356.42	1905.43
356.63	1898.06
356.84	1837.44
357.05	2020.12
357.26	2190.10
357.48	1888.64
357.69	1825.56
357.90	1940.45
358.11	1860.78
358.32	1809.79
358.54	1866.52
358.75	1847.88
358.96	2002.50
359.17	1782.76
359.38	1816.14
359.60	2002.91
359.81	1902.97
360.02	1797.50
360.23	1780.50
360.44	1830.88
360.66	2013.77
360.87	1765.14
361.08	1745.28
361.29	1932.87
361.50	1942.09
361.72	1783.78
361.93	1842.76
362.14	1906.86
362.35	1739.54
362.56	1888.23
362.77	1730.33
362.99	1986.53
363.20	1945.57
363.41	1877.99
363.62	1721.52
363.83	1984.07
364.05	2035.68
364.26	1689.98
364.47	1772.52
364.68	2048.58
364.89	1814.50
365.10	1739.34
365.32	1797.09
365.53	1815.32
365.74	1864.88
365.95	1806.72
366.16	1705.14
366.37	1870.82
366.59	1872.46
366.80	1806.51
367.01	1693.47
367.22	2187.23
367.43	2256.04
367.64	1809.59
367.86	1802.42
368.07	1976.70
368.28	2061.49
368.49	1730.53
368.70	1843.17
368.91	1842.56
369.12	1902.56
369.34	1710.26
369.55	1723.98
369.76	1897.24
369.97	1848.91
370.18	1761.05
370.39	1721.32
370.60	1749.78
370.82	1769.65
371.03	1801.80
371.24	1762.07
371.45	1993.08
371.66	1979.77
371.87	1797.91
372.08	1740.36
372.30	1786.44
372.51	2003.53
372.72	1875.53
372.93	1754.29
373.14	2090.57
373.35	1803.03
373.56	1751.83
373.78	1814.71
373.99	1994.93
374.20	2269.76
374.41	1803.03
374.62	1829.86
374.83	2098.14
375.04	1874.10
375.25	1790.74
375.47	1765.14
375.68	1858.94
375.89	2016.43
376.10	1809.18
376.31	1894.37
376.52	1973.83
376.73	1935.94
376.94	1815.52
377.15	1766.37
377.37	1909.73
377.58	1861.60
377.79	1663.57
378.00	1734.63
378.21	1928.16
378.42	1974.65
378.63	1831.09
378.84	1889.05
379.05	2034.86
379.27	1897.65
379.48	1924.48
379.69	1746.10
379.90	2078.48
380.11	1668.07
380.32	1790.33
380.53	1894.99
380.74	2080.74
380.95	1907.48
381.16	1791.15
381.37	1780.50
381.59	2066.81
381.80	2038.14
382.01	1776.41
382.22	1696.13
382.43	1967.89
382.64	1936.15
382.85	1739.95
383.06	1840.92
383.27	1991.65
383.48	1898.88
383.69	1818.39
383.91	1719.47
384.12	1962.16
384.33	1958.06
384.54	1822.28
384.75	1693.47
384.96	2243.34
385.17	2027.90
385.38	1753.68
385.59	1746.51
385.80	1989.60
386.01	2073.57
386.22	1863.65
386.43	1820.64
386.64	2187.03
386.86	1877.17
387.07	1900.72
387.28	1690.60
387.49	1836.21
387.70	2052.88
387.91	1864.47
388.12	1742.62
388.33	1958.88
388.54	1864.47
388.75	1750.81
388.96	1861.81
389.17	1838.46
389.38	1884.13
389.59	1861.40
389.80	1838.67
390.01	1880.85
390.22	1839.90
390.43	1893.55
390.64	1684.86
390.86	1970.97
391.07	2032.81
391.28	1807.33
391.49	1848.91
391.70	1718.25
391.91	1788.29
392.12	1800.98
392.33	1769.04
392.54	1909.94
392.75	1872.25
392.96	1864.06
393.17	1740.57
393.38	2187.03
393.59	2055.96
393.80	1712.10
394.01	1834.16
394.22	1962.57
394.43	2214.88
394.64	1829.45
394.85	1980.59
395.06	1973.63
395.27	1971.37
395.48	1811.43
395.69	1753.47
395.90	1886.38
396.11	1895.40
396.32	1791.36
396.53	1907.68
396.74	1879.83
396.95	2048.99
397.16	1768.63
397.37	1693.67
397.58	1996.36
397.79	1905.63
398.00	1862.63
398.21	1798.53
398.42	1933.28
398.63	2176.99
398.84	1813.27
399.05	1763.30
399.26	2081.35
399.47	1960.93
399.68	1644.52
399.89	1745.28
400.10	1786.24
400.31	1863.24
400.52	1811.02
400.73	1763.10
400.94	1711.69
401.15	1915.26
401.36	1780.30
401.57	1840.10
401.78	2059.23
401.99	2036.70
402.20	1731.97
402.41	1904.82
402.62	2089.13
402.83	1866.31
403.04	1763.92
403.25	1935.74
403.46	1965.64
403.67	2124.15
403.88	1886.18
404.09	1886.79
404.30	1944.96
404.51	1906.25
404.72	1810.81
404.93	1936.76
405.14	1830.27
405.35	1898.26
405.56	1844.61
405.77	1774.97
405.98	1934.10
406.19	1877.99
406.40	1744.25
406.61	1785.62
406.82	1808.77
407.03	2182.32
407.24	1691.83
407.45	1837.03
407.66	1914.24
407.87	1994.31
408.08	1846.04
408.29	1874.30
408.49	1990.83
408.70	1911.78
408.91	1825.56
409.12	1877.58
409.33	1798.94
409.54	2059.03
409.75	1793.41
409.96	1805.28
410.17	2008.65
410.38	1890.07
410.59	1795.86
410.80	1898.88
411.01	1903.79
411.22	1890.48
411.43	1855.25
411.64	1737.70
411.85	1820.23
412.06	1821.46
412.27	1623.42
412.47	1784.19
412.68	1904.41
412.89	1928.16
413.10	1769.04
413.31	1697.56
413.52	2148.52
413.73	2179.65
413.94	1783.58
414.15	1927.34
414.36	1857.92
414.57	1820.23
414.78	1778.46
414.99	2059.44
415.19	2512.65
415.40	2575.94
415.61	2704.14
415.82	2506.71
416.03	2522.07
416.24	2339.39
416.45	2090.16
416.66	1909.32
416.87	1782.35
417.08	2034.66
417.29	1811.84
417.50	1944.34
417.70	2090.57
417.91	2075.21
418.12	1999.84
418.33	2054.32
418.54	2219.38
418.75	2387.11
418.96	2383.63
419.17	2565.70
419.38	2980.82
419.59	3002.32
419.79	2848.11
420.00	2737.72
420.21	2906.27
420.42	2324.03
420.63	2050.63
420.84	2030.15
421.05	1932.46
421.26	1912.39
421.47	1743.64
421.67	2048.79
421.88	1798.32
422.09	1770.26
422.30	1933.49
422.51	1833.75
422.72	2115.55
422.93	2005.17
423.14	1823.51
423.35	1675.65
423.55	1711.49
423.76	1803.85
423.97	1826.38
424.18	1693.06
424.39	1909.32
424.60	2057.39
424.81	1867.75
425.02	2000.46
425.22	2058.62
425.43	2082.17
425.64	2263.82
425.85	2207.30
426.06	2531.49
426.27	2370.93
426.48	2315.23
426.68	2313.59
426.89	2421.72
427.10	2508.76
427.31	2094.66
427.52	1934.31
427.73	2096.51
427.94	2007.42
428.14	1901.74
428.35	1817.37
428.56	2069.27
428.77	2018.48
428.98	1902.97
429.19	2018.48
429.40	2071.32
429.60	2110.43
429.81	2192.56
430.02	2110.23
430.23	2049.20
430.44	2089.13
430.65	1840.71
430.85	1865.70
431.06	1973.01
431.27	1723.37
431.48	1795.45
431.69	1878.19
431.90	1905.23
432.10	1900.31
432.31	1890.89
432.52	1907.27
432.73	2439.13
432.94	2387.52
433.15	2244.57
433.35	2129.27
433.56	2322.81
433.77	2108.18
433.98	2059.03
434.19	1935.94
434.40	2004.76
434.60	1938.61
434.81	1851.77
435.02	1866.93
435.23	1915.67
435.44	1841.12
435.64	1683.64
435.85	1765.55
436.06	1893.35
436.27	1841.33
436.48	1733.40
436.68	1762.28
436.89	2112.48
437.10	1979.16
437.31	1811.02
437.52	1896.42
437.73	1907.27
437.93	1895.80
438.14	1855.66
438.35	1682.41
438.56	1838.26
438.77	1886.79
438.97	1924.07
439.18	1736.06
439.39	2034.25
439.60	1755.93
439.80	1709.85
440.01	1823.10
440.22	1817.37
440.43	1970.97
440.64	1706.57
440.84	1849.52
441.05	1752.24
441.26	2226.14
441.47	1825.35
441.68	1760.02
441.88	1851.98
442.09	1869.18
442.30	1960.11
442.51	1837.44
442.71	1877.78
442.92	1906.86
443.13	1762.89
443.34	1730.74
443.55	1777.43
443.75	1982.43
443.96	1747.94
444.17	1744.25
444.38	2016.84
444.58	1797.09
444.79	1847.47
445.00	1846.86
445.21	1895.40
445.41	1904.82
445.62	1633.46
445.83	1865.29
446.04	1915.06
446.24	1746.92
446.45	1645.54
446.66	1799.96
446.87	1941.47
447.07	1828.63
447.28	1989.19
447.49	1798.73
447.70	2028.51
447.90	2018.68
448.11	1800.98
448.32	1876.76
448.53	2055.96
448.73	2061.89
448.94	1782.76
449.15	1929.80
449.36	1907.89
449.56	1955.20
449.77	1802.83
449.98	1714.15
450.19	1878.81
450.39	1973.83
450.60	1965.85
450.81	1941.88
451.02	2015.82
451.22	2172.28
451.43	1856.07
451.64	1858.74
451.84	1933.08
452.05	2118.21
452.26	1893.55
452.47	1851.57
452.67	1884.13
452.88	2087.49
453.09	1789.31
453.30	1732.99
453.50	1999.64
453.71	2118.62
453.92	1784.19
454.12	1902.15
454.33	1808.97
454.54	1866.72
454.75	1767.40
454.95	1732.58
455.16	1921.40
455.37	1944.55
455.57	1826.17
455.78	1817.16
455.99	1885.77
456.19	1900.11
456.40	1734.83
456.61	1847.68
456.82	1891.71
457.02	2010.08
457.23	1874.51
457.44	1991.04
457.64	1838.26
457.85	1933.28
458.06	1825.35
458.26	1972.40
458.47	1902.77
458.68	2039.57
458.89	1772.93
459.09	1982.64
459.30	2206.69
459.51	1981.61
459.71	1751.63
459.92	1811.43
460.13	2017.66
460.33	2186.41
460.54	1794.64
460.75	1809.59
460.95	1759.41
461.16	1970.15
461.37	1786.24
461.57	1840.30
461.78	1912.60
461.99	1808.77
462.19	2028.31
462.40	1820.64
462.61	2283.49
462.81	2092.61
463.02	1768.42
463.23	1800.98
463.43	2012.33
463.64	1878.40
463.85	2755.75
464.05	1849.32
464.26	2321.99
464.47	2090.77
464.67	2011.92
464.88	1893.55
465.09	1823.10
465.29	1927.34
465.50	1925.50
465.71	1832.93
465.91	1854.23
466.12	1901.33
466.33	1875.73
466.53	1785.21
466.74	2106.13
466.94	1871.84
467.15	1826.58
467.36	2004.35
467.56	1795.25
467.77	1936.76
467.98	1845.63
468.18	1773.54
468.39	1847.88
468.60	2165.11
468.80	1861.81
469.01	1769.45
469.21	1968.30
469.42	2051.86
469.63	1880.04
469.83	1809.38
470.04	2090.77
470.25	2172.28
470.45	1917.92
470.66	1806.31
470.86	1975.06
471.07	1870.82
471.28	1908.09
471.48	1988.17
471.69	1961.13
471.90	2364.79
472.10	1812.04
472.31	1813.89
472.51	1814.30
472.72	1817.57
472.93	1749.99
473.13	1928.98
473.34	1945.78
473.54	1904.82
473.75	1818.60
473.96	1996.36
474.16	1911.57
474.37	1985.10
474.57	1906.25
474.78	1830.68
474.99	2003.32
475.19	2001.89
475.40	1825.97
475.60	1774.36
475.81	2100.40
476.02	1905.23
476.22	1922.02
476.43	2024.01
476.63	1941.88
476.84	2139.72
477.05	1728.69
477.25	1821.05
477.46	2311.95
477.66	1945.78
477.87	1707.80
478.08	1820.64
478.28	2034.04
478.49	1876.76
478.69	1791.97
478.90	1820.23
479.10	1970.56
479.31	2122.51
479.52	1889.05
479.72	1968.92
479.93	2000.46
480.13	1866.72
480.34	1802.42
480.54	1887.61
480.75	1813.48
480.96	2051.25
481.16	1803.44
481.37	1927.55
481.57	2013.97
481.78	2006.19
481.98	1992.26
482.19	1873.07
482.40	2135.62
482.60	2013.15
482.81	1951.92
483.01	1832.93
483.22	2088.93
483.42	2089.95
483.63	1968.30
483.83	1914.44
484.04	1867.34
484.24	2002.50
484.45	1890.68
484.66	1734.22
484.86	2000.66
485.07	1820.64
485.27	1864.27
485.48	1786.85
485.68	2051.66
485.89	1833.75
486.09	1911.98
486.30	1792.79
486.50	1937.79
486.71	1957.45
486.91	1971.17
487.12	2032.20
487.33	2267.10
487.53	2273.86
487.74	2093.64
487.94	1985.71
488.15	2132.35
488.35	2167.57
488.56	2042.64
488.76	2022.37
488.97	2029.54
489.17	2097.73
489.38	1930.21
489.58	1866.11
489.79	1993.70
489.99	2006.19
490.20	1892.12
490.40	1962.57
490.61	1996.36
490.81	1865.09
491.02	1894.58
491.22	1943.93
491.43	2042.64
491.63	1945.37
491.84	1974.45
492.04	1780.30
492.25	2007.21
492.45	1858.53
492.66	1799.35
492.86	1745.69
493.07	1908.50
493.27	2210.37
493.48	1708.83
493.68	1850.54
493.89	1894.17
494.09	2026.87
494.30	1830.88
494.50	2070.70
494.71	2016.84
494.91	1820.03
495.12	1917.10
495.32	1985.92
495.53	1980.39
495.73	1777.84
495.94	1871.84
496.14	1717.63
496.35	2138.90
496.55	1883.93
496.76	1834.78
496.96	1932.67
497.17	1909.94
497.37	1996.16
497.58	1826.99
497.78	1770.26
497.98	1912.60
498.19	1910.55
498.39	1919.36
498.60	1957.86
498.80	1751.22
499.01	2013.77
499.21	1782.96
499.42	1860.78
499.62	1862.42
499.83	2215.49
500.03	1723.57
500.24	1890.68
500.44	2115.76
500.64	2042.64
500.85	1818.19
501.05	1955.40
501.26	1722.55
501.46	2084.42
501.67	1795.25
501.87	1758.80
502.08	1802.21
502.28	1888.02
502.48	1925.91
502.69	1994.72
502.89	1812.25
503.10	1873.07
503.30	1929.60
503.51	1899.49
503.71	1799.14
503.92	2027.28
504.12	1977.93
504.32	1931.85
504.53	2130.71
504.73	2144.02
504.94	2098.14
505.14	2210.58
505.35	2190.92
505.55	2201.16
505.75	2124.56
505.96	2153.44
506.16	2328.54
506.37	1980.59
506.57	1899.70
506.78	1999.43
506.98	2110.43
507.18	1843.79
507.39	1846.86
507.59	1904.00
507.80	1899.90
508.00	1991.85
508.20	2077.05
508.41	1930.21
508.61	2116.99
508.82	2054.11
509.02	2003.94
509.22	1803.85
509.43	1800.37
509.63	1856.07
509.84	1875.73
510.04	1764.33
510.24	2115.55
510.45	2007.01
510.65	1795.04
510.86	1900.92
511.06	1834.16
511.26	2051.25
511.47	2017.04
511.67	1873.69
511.88	2015.61
512.08	2056.16
512.28	1756.34
512.49	1944.55
512.69	1968.30
512.90	1936.35
513.10	1807.54
513.30	1882.90
513.51	1990.01
513.71	2120.06
513.91	1932.26
514.12	1919.56
514.32	2086.68
514.53	1953.56
514.73	2070.91
514.93	2005.17
515.14	2110.64
515.34	2306.01
515.54	2190.92
515.75	2300.07
515.95	2397.56
516.15	2427.25
516.36	2171.87
516.56	2119.65
516.77	1832.52
516.97	2089.34
517.17	1969.33
517.38	2045.51
517.58	2210.58
517.78	2072.75
517.99	2209.55
518.19	2267.72
518.39	2538.25
518.60	2376.67
518.80	2206.28
519.00	2226.96
519.21	2072.95
519.41	2290.65
519.61	1884.34
519.82	1984.48
520.02	1987.35
520.22	1992.06
520.43	1948.85
520.63	1952.12
520.83	1921.20
521.04	1823.92
521.24	2171.26
521.44	2161.43
521.65	2231.06
521.85	2431.35
522.05	2231.88
522.26	2109.41
522.46	2353.94
522.66	2199.31
522.87	1957.45
523.07	2081.15
523.27	1979.16
523.48	2188.87
523.68	2021.35
523.88	1975.27
524.09	2144.02
524.29	2072.75
524.49	1888.43
524.70	2200.95
524.90	2334.68
525.10	2262.80
525.31	1998.82
525.51	1912.39
525.71	2111.66
525.91	2055.96
526.12	1860.99
526.32	1792.18
526.52	1879.22
526.73	1841.12
526.93	1919.15
527.13	1772.72
527.34	1932.05
527.54	1951.51
527.74	1880.85
527.94	1832.11
528.15	1836.62
528.35	1977.11
528.55	1991.65
528.76	1950.08
528.96	1748.15
529.16	2043.26
529.36	2002.50
529.57	1770.88
529.77	2073.57
529.97	1812.86
530.18	1966.46
530.38	1879.83
530.58	1988.99
530.78	1937.79
530.99	1850.95
531.19	2005.17
531.39	1861.19
531.60	1945.98
531.80	1851.16
532.00	2020.73
532.20	1949.87
532.41	1856.69
532.61	1867.54
532.81	1884.75
533.01	1885.97
533.22	1962.16
533.42	2009.67
533.62	1711.90
533.82	2076.64
534.03	1901.54
534.23	1928.57
534.43	1814.09
534.63	1884.13
534.84	1956.63
535.04	1912.80
535.24	1897.24
535.44	2232.29
535.65	1870.41
535.85	1836.82
536.05	1814.50
536.25	1921.61
536.46	1819.21
536.66	2039.98
536.86	1973.01
537.06	2068.04
537.27	2157.54
537.47	1998.41
537.67	1875.73
537.87	2126.00
538.08	1910.96
538.28	1828.02
538.48	1840.71
538.68	1930.01
538.88	2042.23
539.09	1766.78
539.29	1906.66
539.49	2042.85
539.69	1982.23
539.90	1968.51
540.10	1836.82
540.30	2147.70
540.50	1912.80
540.70	1824.54
540.91	1988.58
541.11	2122.51
541.31	2262.19
541.51	2109.82
541.72	2149.75
541.92	2203.00
542.12	2024.01
542.32	1993.70
542.52	1924.27
542.73	1900.72
542.93	2034.04
543.13	1917.72
543.33	2039.78
543.53	2174.12
543.74	2178.42
543.94	2043.26
544.14	2206.07
544.34	2341.85
544.54	2209.55
544.75	2323.22
544.95	2483.37
545.15	2378.31
545.35	2386.29
545.55	2230.65
545.75	2044.08
545.96	2381.58
546.16	1939.84
546.36	1993.29
546.56	1999.23
546.76	2147.91
546.97	2193.78
547.17	1931.64
547.37	2004.76
547.57	1898.88
547.77	2037.52
547.97	1949.87
548.18	1963.39
548.38	1988.78
548.58	2431.55
548.78	2504.46
548.98	2797.32
549.18	3118.03
549.39	3277.16
549.59	2954.60
549.79	2659.08
549.99	2736.70
550.19	2567.54
550.39	2461.86
550.60	2226.14
550.80	2213.65
551.00	2203.41
551.20	1995.13
551.40	1947.82
551.60	2057.59
551.80	2032.61
552.01	2109.61
552.21	2000.46
552.41	2031.18
552.61	2204.64
552.81	2025.65
553.01	1839.69
553.21	2044.28
553.42	1881.26
553.62	1862.83
553.82	1839.49
554.02	2114.94
554.22	2034.04
554.42	1817.78
554.62	1981.41
554.83	2312.57
555.03	2579.42
555.23	2510.60
555.43	2816.57
555.63	2806.54
555.83	2645.98
556.03	2433.19
556.23	2241.71
556.44	2375.23
556.64	2458.18
556.84	2064.76
557.04	2232.49
557.24	2287.58
557.44	2208.53
557.64	2124.77
557.84	1936.15
558.04	1977.11
558.25	2106.54
558.45	1918.33
558.65	2015.82
558.85	2048.17
559.05	1838.46
559.25	2003.73
559.45	2145.86
559.65	2512.24
559.85	3000.27
560.05	2439.75
560.26	2545.63
560.46	2539.69
560.66	2381.17
560.86	2240.27
561.06	2109.00
561.26	2376.26
561.46	2213.65
561.66	2073.36
561.86	2132.55
562.06	1943.11
562.26	2020.32
562.47	1959.91
562.67	1841.94
562.87	2055.75
563.07	1822.69
563.27	1975.68
563.47	2002.91
563.67	1967.07
563.87	2114.12
564.07	2021.14
564.27	2123.33
564.47	2193.58
564.67	2274.06
564.87	2150.16
565.08	2224.50
565.28	2110.43
565.48	2191.94
565.68	2138.49
565.88	2083.19
566.08	2241.09
566.28	1989.81
566.48	1818.39
566.68	1919.56
566.88	1935.54
567.08	2055.14
567.28	1949.87
567.48	1967.28
567.68	2050.63
567.88	1881.67
568.08	2093.02
568.28	2152.21
568.48	2025.65
568.68	2228.60
568.89	2042.23
569.09	1845.22
569.29	2097.53
569.49	2073.77
569.69	1829.04
569.89	1852.80
570.09	1722.75
570.29	1859.15
570.49	1772.11
570.69	1812.25
570.89	2028.72
571.09	2164.50
571.29	1759.00
571.49	2019.09
571.69	1966.66
571.89	1987.96
572.09	1842.97
572.29	1863.65
572.49	1979.98
572.69	2002.30
572.89	1960.73
573.09	1740.98
573.29	2054.93
573.49	2118.01
573.69	2062.92
573.89	2168.80
574.09	1979.36
574.29	2152.21
574.49	1907.48
574.69	1872.87
574.89	1840.92
575.09	1806.72
575.29	1819.42
575.49	1890.07
575.69	1958.68
575.89	1772.52
576.09	1902.36
576.29	1960.11
576.49	1821.67
576.69	1969.94
576.89	1910.96
577.09	1969.12
577.29	1798.12
577.49	2207.51
577.69	1868.77
577.89	1996.56
578.09	1956.42
578.29	1767.40
578.49	1887.41
578.69	1817.98
578.89	2054.73
579.09	1913.83
579.29	1831.91
579.49	2031.58
579.69	1932.87
579.89	2176.99
580.09	1778.25
580.29	1760.02
580.49	1829.04
580.69	1823.92
580.89	1884.75
581.09	1856.89
581.29	1860.58
581.49	1894.99
581.69	1792.59
581.89	1828.22
582.09	1777.84
582.28	1836.21
582.48	2019.50
582.68	2129.68
582.88	2199.11
583.08	1995.54
583.28	2000.25
583.48	1951.92
583.68	1884.34
583.88	1988.99
584.08	1947.21
584.28	1946.18
584.48	2183.95
584.68	1971.58
584.88	1872.87
585.08	2056.16
585.28	2062.92
585.48	2099.99
585.68	1992.67
585.87	2055.96
586.07	2016.02
586.27	1940.25
586.47	1993.49
586.67	1933.49
586.87	1930.01
587.07	1887.20
587.27	1836.21
587.47	1982.84
587.67	2262.39
587.87	2573.68
588.07	2416.60
588.27	2390.39
588.46	2615.87
588.66	2647.82
588.86	2345.54
589.06	2318.30
589.26	2305.81
589.46	2217.34
589.66	1971.78
589.86	1918.74
590.06	2008.03
590.26	2181.91
590.46	2101.83
590.66	2233.11
590.85	2169.21
591.05	2257.48
591.25	2013.15
591.45	2030.56
591.65	2156.72
591.85	2158.15
592.05	2124.77
592.25	2253.38
592.45	2355.57
592.64	2181.70
592.84	2154.46
593.04	2011.51
593.24	2411.69
593.44	2065.17
593.64	2139.72
593.84	2138.28
594.04	2028.51
594.24	2269.97
594.43	1922.02
594.63	1989.40
594.83	2113.91
595.03	2056.16
595.23	1844.40
595.43	1765.76
595.63	1880.65
595.83	2043.87
596.02	1722.75
596.22	1999.23
596.42	2019.91
596.62	1976.49
596.82	1909.53
597.02	2039.37
597.22	2128.45
597.41	1979.98
597.61	1881.67
597.81	2073.57
598.01	2137.46
598.21	1970.76
598.41	1972.81
598.61	1918.33
598.80	2031.59
599.00	2092.82
599.20	2146.07
599.40	1976.49
599.60	2029.13
599.80	2116.37
599.99	2149.55
600.19	2004.14
600.39	2051.04
600.59	2049.61
600.79	2032.81
600.99	2021.96
601.19	2229.42
601.38	2229.21
601.58	2062.51
601.78	1816.55
601.98	2284.30
602.18	2949.48
602.37	3553.84
602.57	3750.45
602.77	4154.10
602.97	4273.29
603.17	4003.16
603.37	3828.27
603.56	3819.46
603.76	3696.17
603.96	3546.47
604.16	3367.68
604.36	3193.19
604.56	2953.79
604.75	2530.88
604.95	2498.73
605.15	2568.56
605.35	2459.61
605.55	2220.41
605.74	2152.42
605.94	2294.13
606.14	2120.06
606.34	2063.74
606.54	1973.42
606.73	1946.59
606.93	2044.69
607.13	1856.07
607.33	1960.32
607.53	2173.51
607.72	2093.02
607.92	2025.44
608.12	2044.69
608.32	1962.77
608.51	2073.36
608.71	1914.85
608.91	2074.39
609.11	2160.20
609.31	2085.45
609.50	2221.23
609.70	2410.05
609.90	2355.37
610.10	2395.10
610.29	2235.56
610.49	2085.45
610.69	2217.95
610.89	2146.07
611.09	2094.87
611.28	2163.47
611.48	2139.72
611.68	1998.82
611.88	1969.12
612.07	1886.79
612.27	2104.29
612.47	1917.72
612.67	1999.84
612.86	2088.72
613.06	1969.74
613.26	1769.85
613.46	1949.67
613.65	2050.63
613.85	2472.31
614.05	2214.88
614.25	2224.71
614.44	2116.78
614.64	2106.54
614.84	2061.69
615.04	1994.11
615.23	2032.20
615.43	2176.99
615.63	2117.80
615.83	1968.71
616.02	1937.17
616.22	2296.18
616.42	2127.23
616.62	2183.13
616.81	2299.25
617.01	2320.96
617.21	2227.58
617.41	2055.34
617.60	2132.35
617.80	2177.20
618.00	2129.68
618.19	2034.25
618.39	2028.51
618.59	2044.08
618.79	1957.24
618.98	1730.94
619.18	1891.71
619.38	2173.30
619.57	1891.50
619.77	1898.88
619.97	1889.46
620.17	1893.35
620.36	1890.07
620.56	2224.91
620.76	2021.35
620.95	2078.07
621.15	2132.96
621.35	2039.98
621.54	2073.98
621.74	2118.42
621.94	1980.39
622.14	1881.26
622.33	1830.47
622.53	1935.54
622.73	1901.33
622.92	1767.40
623.12	1908.50
623.32	2138.28
623.51	2008.24
623.71	1746.51
623.91	2017.86
624.10	1833.96
624.30	1923.86
624.50	1795.04
624.69	1793.00
624.89	2406.36
625.09	1855.87
625.29	1693.06
625.48	1772.52
625.68	1931.44
625.88	2065.38
626.07	1922.43
626.27	1768.63
626.47	1841.33
626.66	1719.88
626.86	1872.25
627.06	1893.76
627.25	1896.83
627.45	2105.11
627.64	1868.98
627.84	2057.18
628.04	1790.54
628.23	2166.96
628.43	1777.23
628.63	1874.92
628.82	1946.80
629.02	2256.04
629.22	2123.33
629.41	2213.85
629.61	2094.46
629.81	2339.19
630.00	2061.89
630.20	2027.69
630.40	2177.61
630.59	2234.95
630.79	2081.97
630.98	2047.35
631.18	2049.20
631.38	1978.34
631.57	2098.96
631.77	1814.91
631.97	1973.01
632.16	1967.69
632.36	1916.90
632.56	1905.63
632.75	1916.28
632.95	2016.02
633.14	1761.25
633.34	2038.55
633.54	1697.56
633.73	1826.38
633.93	1823.31
634.12	1715.58
634.32	2212.42
634.52	1903.38
634.71	1750.81
634.91	1952.94
635.11	1764.53
635.30	1821.05
635.50	1913.83
635.69	1802.83
635.89	2185.39
636.09	2095.89
636.28	1853.21
636.48	1901.54
636.67	2064.35
636.87	2055.55
637.07	2028.72
637.26	1892.12
637.46	2010.49
637.65	2140.13
637.85	2018.07
638.04	1912.80
638.24	1940.86
638.44	2030.77
638.63	1932.26
638.83	1904.41
639.02	2006.39
639.22	2000.46
639.42	1922.84
639.61	1881.67
639.81	1927.75
640.00	1893.96
640.20	1986.94
640.39	1985.71
640.59	2363.36
640.79	2346.36
640.98	2371.96
641.18	2393.87
641.37	2416.19
641.57	2255.22
641.76	2212.83
641.96	1988.17
642.15	2143.20
642.35	2069.27
642.55	2059.85
642.74	1907.68
642.94	2123.13
643.13	2146.27
643.33	1907.48
643.52	1831.91
643.72	1829.25
643.91	1891.71
644.11	1838.46
644.31	1800.98
644.50	1816.96
644.70	2017.86
644.89	1863.65
645.09	1922.22
645.28	1912.60
645.48	1960.52
645.67	1792.18
645.87	1719.27
646.06	1868.77
646.26	1974.65
646.45	1712.51
646.65	1688.35
646.84	2136.65
647.04	1876.35
647.24	1752.04
647.43	1941.88
647.63	1924.48
647.82	2068.86
648.02	1765.35
648.21	1812.66
648.41	2086.27
648.60	1864.27
648.80	2004.76
648.99	1911.37
649.19	1836.62
649.38	1708.62
649.58	1913.83
649.77	1906.66
649.97	2020.32
650.16	1970.35
650.36	1668.48
650.55	1971.58
650.75	1946.59
650.94	2107.97
651.14	1885.77
651.33	1896.01
651.53	2108.38
651.72	1828.02
651.92	1869.39
652.11	1688.96
652.31	1956.42
652.50	1934.51
652.70	1908.91
652.89	1764.73
653.09	2115.35
653.28	1907.68
653.48	1733.61
653.67	1753.88
653.87	2336.32
654.06	1942.50
654.25	2084.63
654.45	1825.76
654.64	1887.00
654.84	1875.12
655.03	1670.73
655.23	1991.65
655.42	1953.76
655.62	2098.76
655.81	1894.78
656.01	1771.49
656.20	2007.62
656.40	2102.85
656.59	1898.26
656.79	2011.92
656.98	1912.39
657.17	2012.74
657.37	1891.91
657.56	1809.99
657.76	1958.27
657.95	2036.09
658.15	1591.27
658.34	1870.61
658.54	1905.02
658.73	1734.22
658.92	1860.37
659.12	1914.44
659.31	2003.53
659.51	1838.87
659.70	1992.67
659.90	1935.13
660.09	2115.35
660.29	1998.00
660.48	1860.78
660.67	2091.18
660.87	1872.05
661.06	1976.29
661.26	2001.68
661.45	1969.74
661.65	1979.77
661.84	1862.42
662.03	1841.94
662.23	1847.68
662.42	2161.02
662.62	1794.02
662.81	1785.42
663.00	1843.79
663.20	1931.64
663.39	1940.25
663.59	1964.00
663.78	1844.40
663.97	1843.58
664.17	2008.44
664.36	1711.69
664.56	1789.31
664.75	1989.40
664.94	1968.30
665.14	1954.99
665.33	1909.12
665.53	1954.17
665.72	1964.41
665.91	2058.62
666.11	1960.11
666.30	1991.24
666.50	1924.68
666.69	1935.54
666.88	1884.13
667.08	1952.12
667.27	1878.19
667.47	1901.95
667.66	1852.59
667.85	2026.26
668.05	1904.20
668.24	1834.16
668.43	1999.43
668.63	1862.63
668.82	2043.67
669.02	1960.52
669.21	1894.17
669.40	1777.64
669.60	2159.38
669.79	1747.12
669.98	2309.29
670.18	1806.72
670.37	1792.18
670.56	1844.20
670.76	1924.48
670.95	1900.31
671.15	2037.73
671.34	1964.21
671.53	1939.84
671.73	1878.40
671.92	1848.29
672.11	1784.19
672.31	1853.21
672.50	1971.58
672.69	1780.09
672.89	1651.28
673.08	1817.98
673.27	1994.52
673.47	1959.70
673.66	1943.32
673.85	1773.13
674.05	2000.25
674.24	2274.68
674.43	2309.70
674.63	2637.17
674.82	2986.14
675.01	2503.03
675.21	2658.47
675.40	2424.39
675.59	2358.65
675.79	2590.89
675.98	2273.86
676.17	2368.27
676.37	2273.86
676.56	2119.65
676.75	2122.92
676.95	2004.55
677.14	1952.53
677.33	2121.49
677.52	1798.73
677.72	1876.35
677.91	1978.95
678.10	1753.27
678.30	1795.25
678.49	1748.15
678.68	2180.88
678.88	1688.55
679.07	2042.64
679.26	1845.02
679.45	2120.47
679.65	2054.32
679.84	1734.02
680.03	1725.21
680.23	1881.47
680.42	2240.07
680.61	1791.36
680.81	1836.62
681.00	1916.90
681.19	1951.51
681.38	1986.53
681.58	1966.05
681.77	1894.58
681.96	2022.98
682.15	1867.13
682.35	1963.18
682.54	2022.37
682.73	1808.77
682.93	1812.66
683.12	1819.21
683.31	2008.85
683.50	2248.67
683.70	1785.83
683.89	1907.68
684.08	1788.29
684.27	2031.79
684.47	1728.08
684.66	1922.43
684.85	2195.01
685.04	2053.09
685.24	1811.63
685.43	1884.34
685.62	1677.29
685.81	1958.68
686.01	2044.69
686.20	2112.89
686.39	2134.19
686.58	2627.34
686.78	2411.48
686.97	2370.11
687.16	2360.90
687.35	2288.81
687.55	2155.28
687.74	2186.62
687.93	2063.94
688.12	2119.24
688.32	2130.09
688.51	1929.19
688.70	2108.79
688.89	1870.82
689.08	1825.35
689.28	1864.47
689.47	1992.67
689.66	1950.49
689.85	1991.24
690.05	1870.00
690.24	1853.82
690.43	1960.93
690.62	1928.57
690.81	1817.98
691.01	1905.43
691.20	1872.05
691.39	1785.62
691.58	1933.28
691.77	2138.28
691.97	1930.42
692.16	1966.87
692.35	1845.63
692.54	1841.33
692.73	2056.98
692.93	2036.30
693.12	2103.26
693.31	2153.64
693.50	2101.83
693.69	2115.14
693.89	1975.06
694.08	2177.81
694.27	2177.61
694.46	1905.84
694.65	1994.11
694.85	2089.34
695.04	2085.24
695.23	2028.31
695.42	2420.49
695.61	2760.25
695.80	2996.18
696.00	3204.66
696.19	3311.36
696.38	2924.70
696.57	2744.69
696.76	2723.59
696.95	2524.12
697.15	2673.62
697.34	2583.92
697.53	2259.73
697.72	2275.29
697.91	2163.06
698.10	2296.39
698.30	1983.05
698.49	1984.69
698.68	2045.10
698.87	1931.44
699.06	1826.58
699.25	1904.61
699.45	2070.50
699.64	1972.40
699.83	1983.66
700.02	1807.74
700.21	2005.58
700.40	1835.18
700.59	1856.28
700.79	1867.54
700.98	1955.81
701.17	1797.91
701.36	1818.39
701.55	1800.57
701.74	2108.79
701.93	2033.63
702.12	2325.67
702.32	2379.13
702.51	2689.19
702.70	2724.00
702.89	2479.07
703.08	2286.76
703.27	2456.33
703.46	2331.82
703.65	2177.20
703.85	2047.76
704.04	2086.88
704.23	2249.28
704.42	1984.69
704.61	1954.58
704.80	2182.93
704.99	1876.96
705.18	1987.55
705.37	1903.18
705.57	2255.84
705.76	2782.58
705.95	2826.81
706.14	3304.19
706.33	3504.69
706.52	3621.63
706.71	2992.08
706.90	2749.60
707.09	2758.61
707.28	2632.05
707.47	2450.39
707.67	2511.83
707.86	2298.64
708.05	2438.31
708.24	2202.80
708.43	2105.11
708.62	2012.74
708.81	1882.90
709.00	1778.46
709.19	1850.95
709.38	2038.55
709.57	1816.96
709.76	1991.85
709.96	1930.42
710.15	2190.10
710.34	2003.94
710.53	2083.81
710.72	1966.66
710.91	2124.97
711.10	2015.20
711.29	2023.39
711.48	1900.92
711.67	1871.02
711.86	2033.84
712.05	1871.43
712.24	1903.59
712.43	2030.15
712.62	2106.54
712.81	1969.53
713.00	2043.67
713.19	1786.03
713.39	1970.76
713.58	1808.15
713.77	1931.85
713.96	2042.23
714.15	1910.14
714.34	1929.19
714.53	1831.50
714.72	2216.31
714.91	1881.88
715.10	1990.83
715.29	1873.28
715.48	2381.79
715.67	2082.37
715.86	2002.71
716.05	1942.50
716.24	1929.60
716.43	1904.20
716.62	1818.80
716.81	1785.62
717.00	1920.18
717.19	2116.17
717.38	1922.84
717.57	1882.49
717.76	1731.35
717.95	2009.06
718.14	1897.85
718.33	1850.34
718.52	1696.74
718.71	1727.05
718.90	1756.54
719.09	1834.98
719.28	1896.62
719.47	2039.78
719.66	2053.50
719.85	2100.19
720.04	2019.91
720.23	2085.65
720.42	1977.11
720.61	2071.93
720.80	1839.28
720.99	2039.37
721.18	1957.24
721.37	1870.21
721.56	1918.54
721.75	2071.93
721.94	1863.24
722.13	1881.26
722.32	1879.22
722.51	2051.25
722.70	1882.90
722.89	1931.23
723.08	1861.60
723.27	2017.25
723.46	1928.16
723.65	1863.45
723.84	1843.99
724.03	2058.41
724.22	1767.40
724.41	1915.47
724.60	1879.63
724.79	2005.37
724.98	1935.33
725.16	1842.76
725.35	1981.20
725.54	1804.47
725.73	1917.51
725.92	1909.53
726.11	1965.44
726.30	2197.27
726.49	2021.55
726.68	2126.82
726.87	2239.66
727.06	2338.17
727.25	2055.34
727.44	2119.24
727.63	2074.80
727.82	2031.99
728.01	2055.55
728.20	2097.12
728.38	2174.94
728.57	1980.18
728.76	1982.84
728.95	2034.86
729.14	1820.85
729.33	1814.91
729.52	1697.36
729.71	1830.06
729.90	1812.66
730.09	1888.02
730.28	1946.59
730.47	1972.19
730.66	2206.69
730.84	2091.80
731.03	2058.82
731.22	2075.41
731.41	2051.25
731.60	2053.50
731.79	1806.31
731.98	1885.77
732.17	2048.79
732.36	2019.91
732.55	1865.09
732.73	1805.69
732.92	2073.57
733.11	1987.35
733.30	1831.09
733.49	1757.98
733.68	2007.21
733.87	1957.65
734.06	1859.76
734.25	1962.98
734.43	2123.74
734.62	2274.06
734.81	2310.11
735.00	2257.07
735.19	2221.23
735.38	2205.05
735.57	1988.78
735.76	2162.04
735.94	2285.74
736.13	2773.56
736.32	2751.45
736.51	2830.50
736.70	3219.41
736.89	3228.83
737.08	3049.22
737.27	3304.19
737.45	3964.46
737.64	4043.10
737.83	4391.05
738.02	4475.22
738.21	4412.14
738.40	3924.52
738.59	3494.65
738.77	3396.15
738.96	3130.32
739.15	3034.68
739.34	2876.99
739.53	2747.55
739.72	2707.21
739.90	2579.83
740.09	2240.48
740.28	2220.41
740.47	2247.03
740.66	2139.31
740.85	1953.35
741.03	2004.14
741.22	1871.64
741.41	1939.84
741.60	1837.23
741.79	2007.42
741.98	2172.49
742.16	2204.02
742.35	2068.04
742.54	2069.27
742.73	2395.71
742.92	2158.35
743.10	2042.44
743.29	2081.35
743.48	2411.69
743.67	2009.06
743.86	1905.84
744.05	1902.36
744.23	1901.33
744.42	1893.55
744.61	1967.28
744.80	1855.87
744.99	1886.79
745.17	1761.46
745.36	1756.75
745.55	1961.75
745.74	1892.53
745.93	1823.10
746.11	1822.08
746.30	1780.50
746.49	1995.13
746.68	1798.94
746.86	1871.02
747.05	1869.18
747.24	1975.47
747.43	2031.38
747.62	1810.61
747.80	1897.24
747.99	2150.16
748.18	2076.23
748.37	2007.21
748.56	1990.83
748.74	2095.69
748.93	1981.20
749.12	2164.70
749.31	2660.72
749.49	3024.44
749.68	3327.13
749.87	3611.18
750.06	3634.33
750.24	3727.92
750.43	4029.17
750.62	4329.00
750.81	4565.54
750.99	4834.64
751.18	4823.58
751.37	4154.30
751.56	3813.73
751.74	3983.91
751.93	3862.67
752.12	3156.94
752.31	2954.81
752.49	2844.63
752.68	2913.65
752.87	2573.07
753.06	2382.20
753.24	2261.16
753.43	2348.20
753.62	2045.10
753.81	1994.52
753.99	2211.81
754.18	2038.14
754.37	1850.13
754.55	1953.35
754.74	2158.56
754.93	1728.69
755.12	1847.27
755.30	1793.00
755.49	2033.84
755.68	1915.26
755.86	1931.44
756.05	1785.62
756.24	2102.85
756.43	1771.70
756.61	1766.58
756.80	1930.01
756.99	2050.43
757.17	1900.11
757.36	1797.30
757.55	1882.08
757.74	1949.87
757.92	1894.37
758.11	1762.48
758.30	1704.52
758.48	1868.57
758.67	1747.12
758.86	1893.35
759.04	1768.22
759.23	1852.39
759.42	1916.69
759.60	1807.95
759.79	1875.73
759.98	1851.16
760.16	1778.46
760.35	1809.79
760.54	1740.77
760.73	1917.72
760.91	1747.74
761.10	1916.28
761.29	1909.94
761.47	1901.95
761.66	2188.25
761.85	1933.08
762.03	2068.45
762.22	2630.00
762.41	4378.15
762.59	6268.01
762.78	7256.77
762.97	8711.44
763.15	9177.36
763.34	8462.82
763.52	6585.45
763.71	6198.38
763.90	5894.46
764.08	5430.39
764.27	5136.31
764.46	4937.24
764.64	4358.49
764.83	4087.54
765.02	3784.24
765.20	3400.86
765.39	3109.64
765.58	2542.14
765.76	2416.40
765.95	2289.63
766.13	2123.33
766.32	2045.31
766.51	2014.59
766.69	2521.87
766.88	1982.43
767.07	1834.16
767.25	1722.34
767.44	2056.37
767.62	2074.39
767.81	1821.67
768.00	1907.07
768.18	1922.02
768.37	1849.52
768.56	1767.81
768.74	1847.06
768.93	1785.62
769.11	1973.42
769.30	1916.90
769.49	1838.87
769.67	1883.31
769.86	1857.92
770.04	1862.83
770.23	1855.25
770.42	2063.94
770.60	1904.82
770.79	1799.14
770.97	1841.53
771.16	2277.55
771.35	2680.59
771.53	3142.81
771.72	3407.62
771.90	3854.07
772.09	4126.25
772.27	3777.48
772.46	3149.37
772.65	3233.74
772.83	3070.11
773.02	2945.80
773.20	2698.20
773.39	2770.90
773.58	2685.71
773.76	2340.62
773.95	2321.99
774.13	2340.62
774.32	2152.42
774.50	2007.83
774.69	2020.12
774.87	1942.29
775.06	2215.90
775.25	1847.88
775.43	1862.63
775.62	1929.19
775.80	2005.58
775.99	1902.77
776.17	1817.57
776.36	1893.35
776.54	2043.26
776.73	1832.32
776.92	1918.74
777.10	2000.87
777.29	1960.52
777.47	1785.83
777.66	1827.20
777.84	1883.93
778.03	1884.54
778.21	1788.49
778.40	1901.33
778.58	1954.79
778.77	2031.18
778.95	1749.17
779.14	1785.21
779.32	2126.20
779.51	2039.98
779.70	1843.38
779.88	1728.49
780.07	1838.67
780.25	2243.55
780.44	1838.05
780.62	2005.78
780.81	1963.59
780.99	1896.21
781.18	1812.66
781.36	1823.10
781.55	1889.46
781.73	2081.97
781.92	1759.61
782.10	1761.05
782.29	1951.30
782.47	2090.77
782.66	1898.26
782.84	1715.99
783.03	1833.14
783.21	2011.31
783.40	1872.25
783.58	1815.11
783.77	1806.10
783.95	1854.23
784.14	1780.91
784.32	1897.85
784.51	2081.97
784.69	1855.66
784.88	1749.37
785.06	1915.06
785.24	1769.85
785.43	2044.08
785.61	1965.85
785.80	1801.60
785.98	2006.19
786.17	1935.13
786.35	1794.23
786.54	1927.55
786.72	2026.26
786.91	2042.23
787.09	1864.88
787.28	1773.75
787.46	1902.97
787.65	2011.51
787.83	1773.13
788.01	1907.27
788.20	1806.92
788.38	1949.87
788.57	1877.58
788.75	1907.68
788.94	2195.42
789.12	2091.80
789.31	1919.36
789.49	1990.22
789.67	1880.85
789.86	1971.37
790.04	1832.11
790.23	1750.81
790.41	2231.67
790.60	1910.14
790.78	1898.88
790.96	1911.57
791.15	2036.50
791.33	1900.11
791.52	1884.13
791.70	1798.12
791.89	1914.65
792.07	1990.01
792.25	1881.26
792.44	1749.58
792.62	2048.38
792.81	1840.10
792.99	1908.71
793.17	1830.06
793.36	1821.05
793.54	2232.70
793.73	2467.19
793.91	2747.96
794.10	3183.57
794.28	3516.57
794.46	3383.24
794.65	3383.24
794.83	2928.80
795.01	2839.71
795.20	2874.32
795.38	2695.33
795.57	2674.65
795.75	2616.28
795.93	2433.19
796.12	2378.92
796.30	2425.00
796.49	2335.71
796.67	2067.01
796.85	2196.24
797.04	2088.52
797.22	2078.28
797.40	1800.37
797.59	1969.94
797.77	1938.40
797.96	1857.30
798.14	1826.99
798.32	1840.71
798.51	1992.67
798.69	2157.74
798.87	1870.21
799.06	1859.76
799.24	1766.17
799.42	2116.58
799.61	2290.04
799.79	2464.32
799.98	2881.49
800.16	2840.53
800.34	3335.32
800.53	3919.81
800.71	4088.16
800.89	4740.23
801.08	4732.24
801.26	4735.52
801.44	4099.83
801.63	3612.82
801.81	3583.74
801.99	3396.97
802.18	3207.32
802.36	3145.07
802.54	2974.67
802.73	2625.29
802.91	2661.13
803.09	2563.65
803.28	2447.53
803.46	2376.67
803.64	2418.45
803.83	2004.14
804.01	1958.06
804.19	1887.61
804.38	2086.47
804.56	2058.41
804.74	1946.18
804.92	1955.81
805.11	1836.21
805.29	2090.16
805.47	1875.94
805.66	1796.68
805.84	1805.90
806.02	2025.03
806.21	1870.82
806.39	2022.78
806.57	2034.04
806.76	2014.79
806.94	1933.08
807.12	1868.16
807.30	1867.13
807.49	1971.78
807.67	1981.00
807.85	2049.40
808.04	2059.03
808.22	2275.09
808.40	1793.41
808.58	1794.84
808.77	2007.42
808.95	2158.15
809.13	2175.97
809.31	3097.14
809.50	3924.32
809.68	4466.62
809.86	4667.53
810.05	4983.53
810.23	5562.69
810.41	6777.55
810.59	10346.95
810.78	12446.12
810.96	14386.57
811.14	15519.71
811.32	15157.84
811.51	12445.10
811.69	10260.94
811.87	10161.82
812.05	8963.55
812.24	8513.00
812.42	8006.33
812.60	7261.48
812.78	6199.20
812.97	5429.17
813.15	5193.44
813.33	4531.54
813.51	4064.60
813.70	3368.91
813.88	2999.25
814.06	2687.14
814.24	2445.48
814.42	2106.13
814.61	2129.68
814.79	2267.72
814.97	1819.01
815.15	1922.22
815.34	1995.54
815.52	2071.11
815.70	1812.86
815.88	1835.39
816.06	1819.21
816.25	1860.37
816.43	1786.85
816.61	1964.82
816.79	2115.96
816.98	1762.28
817.16	1847.47
817.34	1814.71
817.52	1992.88
817.70	2124.15
817.89	1902.97
818.07	1797.30
818.25	1930.62
818.43	1924.68
818.61	1869.59
818.80	1833.14
818.98	2134.60
819.16	1910.75
819.34	1804.87
819.52	2050.84
819.70	1814.30
819.89	1906.66
820.07	1759.00
820.25	1695.72
820.43	1923.66
820.61	2017.45
820.80	1864.68
820.98	1764.12
821.16	1700.02
821.34	1738.11
821.52	1799.35
821.70	1884.34
821.89	1879.63
822.07	1856.89
822.25	1845.22
822.43	1762.07
822.61	2099.58
822.79	1933.90
822.98	1833.14
823.16	1670.73
823.34	1930.62
823.52	2034.45
823.70	1984.28
823.88	1677.08
824.06	1984.48
824.25	1889.05
824.43	1965.85
824.61	1796.68
824.79	1951.30
824.97	1988.78
825.15	2065.99
825.33	2281.23
825.52	2612.39
825.70	2648.23
825.88	2769.47
826.06	2943.14
826.24	2972.63
826.42	2867.57
826.60	2598.67
826.78	2584.95
826.97	2415.17
827.15	2551.97
827.33	2241.50
827.51	2332.64
827.69	2193.17
827.87	2206.28
828.05	2182.73
828.23	1986.94
828.41	2185.39
828.60	2113.30
828.78	1807.95
828.96	1968.30
829.14	1868.77
829.32	1896.83
829.50	1844.20
829.68	1839.08
829.86	1832.73
830.04	1960.32
830.22	1904.20
830.41	1760.43
830.59	1880.44
830.77	1969.12
830.95	1824.54
831.13	1803.65
831.31	1777.23
831.49	2000.25
831.67	1971.78
831.85	1938.40
832.03	1843.99
832.21	1961.13
832.39	1762.48
832.57	1772.11
832.76	2023.19
832.94	1889.05
833.12	1702.48
833.30	1854.03
833.48	2060.26
833.66	1964.62
833.84	1786.03
834.02	1843.58
834.20	2008.65
834.38	2003.12
834.56	1685.89
834.74	1760.84
834.92	1772.52
835.10	2103.26
835.28	1917.72
835.46	1864.27
835.64	1871.43
835.82	1792.59
836.01	2064.76
836.19	1993.90
836.37	1823.92
836.55	1774.16
836.73	1779.48
836.91	1739.14
837.09	1953.15
837.27	2087.29
837.45	1748.15
837.63	1754.09
837.81	1766.78
837.99	1910.35
838.17	1892.94
838.35	1821.26
838.53	2262.19
838.71	2029.33
838.89	1912.19
839.07	1877.99
839.25	2003.73
839.43	2094.46
839.61	2048.17
839.79	2727.48
839.97	3310.95
840.15	3652.76
840.33	3840.15
840.51	4215.13
840.69	3945.41
840.87	3476.22
841.05	3315.05
841.23	3410.48
841.41	3973.67
841.59	5194.67
841.77	5676.35
841.95	6056.25
842.13	6597.74
842.31	6242.82
842.49	5223.96
842.67	4682.89
842.85	4640.08
843.03	4038.80
843.21	3920.84
843.39	3833.18
843.57	3566.74
843.75	3367.88
843.93	3020.14
844.11	2831.93
844.29	2714.38
844.47	2545.83
844.65	2584.54
844.83	2319.32
845.01	2221.64
845.19	2275.70
845.36	2030.97
845.54	2053.09
845.72	1974.04
845.90	2011.51
846.08	1779.28
846.26	1858.94
846.44	1965.23
846.62	1979.77
846.80	1881.47
846.98	1773.13
847.16	1863.24
847.34	1922.22
847.52	1758.18
847.70	1755.31
847.88	1874.10
848.06	2065.17
848.24	1914.03
848.41	1692.85
848.59	2020.12
848.77	1921.40
848.95	1823.31
849.13	1806.31
849.31	1953.35
849.49	1930.01
849.67	1749.17
849.85	1742.00
850.03	1940.45
850.21	1902.97
850.39	1811.43
850.57	1898.88
850.74	2063.94
850.92	2064.76
851.10	2094.46
851.28	2228.39
851.46	2516.34
851.64	2829.06
851.82	2590.89
852.00	2653.96
852.18	2691.65
852.36	2429.30
852.53	2248.06
852.71	2286.35
852.89	2315.43
853.07	2286.97
853.25	2087.08
853.43	1951.51
853.61	2133.16
853.79	2103.47
853.97	1929.80
854.14	1879.63
854.32	2123.33
854.50	2045.72
854.68	1872.46
854.86	1848.29
855.04	1804.87
855.22	1995.54
855.40	1720.70
855.57	1814.09
855.75	1989.60
855.93	1955.81
856.11	1694.08
856.29	1772.11
856.47	1829.04
856.65	1908.30
856.82	1783.17
857.00	1716.20
857.18	1841.33
857.36	1837.03
857.54	1871.43
857.72	1945.57
857.89	1971.17
858.07	1896.62
858.25	1986.94
858.43	1714.97
858.61	1837.85
858.79	1887.00
858.97	1762.89
859.14	1884.13
859.32	1868.57
859.50	1829.04
859.68	1937.58
859.86	1811.84
860.03	1936.15
860.21	2000.87
860.39	1865.90
860.57	1949.26
860.75	1959.91
860.93	2149.75
861.10	2006.19
861.28	1821.46
861.46	1963.80
861.64	1993.08
861.82	1867.13
861.99	1923.25
862.17	2019.71
862.35	2046.54
862.53	1884.13
862.71	1884.13
862.88	1939.22
863.06	1968.10
863.24	1813.27
863.42	1794.23
863.60	1845.83
863.77	1942.91
863.95	1675.65
864.13	1834.78
864.31	1855.46
864.49	1986.12
864.66	1711.69
864.84	1799.75
865.02	1898.67
865.20	2202.18
865.37	1866.11
865.55	1809.38
865.73	1765.76
865.91	2003.12
866.09	1984.48
866.26	1991.85
866.44	2087.08
866.62	1981.61
866.80	1877.78
866.97	1956.83
867.15	1922.22
867.33	1963.59
867.51	1960.52
867.68	1900.31
867.86	1883.93
868.04	1850.54
868.22	1711.90
868.39	1821.46
868.57	1926.11
868.75	2097.12
868.93	1726.03
869.10	1811.22
869.28	2124.15
869.46	2053.70
869.64	1843.79
869.81	1818.60
869.99	1905.02
870.17	1912.80
870.35	1782.96
870.52	1784.60
870.70	1995.54
870.88	1820.23
871.05	1763.51
871.23	1654.14
871.41	1856.69
871.59	1866.31
871.76	1811.43
871.94	1775.59
872.12	1883.11
872.29	1744.46
872.47	1790.95
872.65	1761.46
872.83	1916.08
873.00	2057.80
873.18	1824.94
873.36	1796.48
873.53	1953.15
873.71	1720.50
873.89	1774.16
874.06	1851.57
874.24	1931.03
874.42	2028.51
874.60	1942.70
874.77	1874.71
874.95	1807.54
875.13	2015.61
875.30	1800.37
875.48	1834.78
875.66	2094.46
875.83	1808.36
876.01	1805.69
876.19	1957.45
876.36	1769.24
876.54	1890.28
876.72	1770.67
876.89	1908.71
877.07	1989.81
877.25	1679.33
877.42	1867.13
877.60	1848.09
877.78	2109.82
877.95	1836.00
878.13	1787.67
878.31	1877.17
878.48	1999.84
878.66	1969.94
878.84	1824.33
879.01	1841.12
879.19	1928.37
879.37	1950.90
879.54	1811.84
879.72	1726.85
879.90	1660.49
880.07	1978.13
880.25	1602.54
880.42	1934.92
880.60	1902.36
880.78	1962.16
880.95	1831.09
881.13	1826.17
881.31	1877.17
881.48	1817.37
881.66	1761.25
881.83	1889.46
882.01	1765.76
882.19	1731.97
882.36	1854.85
882.54	1805.90
882.72	1971.37
882.89	1879.01
883.07	1732.17
883.24	1803.03
883.42	1967.89
883.60	1903.38
883.77	1748.56
883.95	1821.46
884.12	2024.62
884.30	1939.84
884.48	2024.62
884.65	1906.04
884.83	1983.46
885.00	2014.38
885.18	1796.27
885.36	1823.31
885.53	1973.83
885.71	2087.70
885.88	1741.80
886.06	1818.19
886.23	1961.34
886.41	1848.91
886.59	1805.28
886.76	1785.01
886.94	1971.17
887.11	2235.36
887.29	1842.35
887.47	1718.45
887.64	2009.26
887.82	2064.76
887.99	1683.43
888.17	1861.60
888.34	1833.75
888.52	1715.79
888.69	1876.96
888.87	1751.63
889.05	1838.46
889.22	1833.75
889.40	1777.23
889.57	1955.20
889.75	2074.39
889.92	1839.69
890.10	1729.30
890.27	1804.26
890.45	1803.03
890.62	1683.43
890.80	1751.01
890.98	1698.59
891.15	2059.44
891.33	1986.12
891.50	1786.65
891.68	1702.07
891.85	1959.70
892.03	1953.97
892.20	1774.16
892.38	1740.16
892.55	1970.76
892.73	1960.93
892.90	1739.54
893.08	1773.13
893.25	1819.42
893.43	1810.40
893.60	1901.33
893.78	1636.53
893.95	1916.49
894.13	1834.57
894.30	1746.92
894.48	1823.51
894.65	1983.25
894.83	1882.90
895.00	1661.31
895.18	1645.95
895.35	2000.66
895.53	1971.78
895.70	1723.98
895.88	1918.54
896.05	1925.91
896.23	1736.06
896.40	1797.71
896.58	1867.54
896.75	1974.04
896.93	2039.16
897.10	1792.59
897.28	1704.52
897.45	1929.60
897.63	1945.78
897.80	1923.25
897.98	1812.04
898.15	1880.85
898.33	1788.08
898.50	1886.38
898.67	1818.19
898.85	1822.49
899.02	1938.40
899.20	1992.88
899.37	1831.70
899.55	1874.71
899.72	2039.57
899.90	1792.18
900.07	1745.28
900.25	1916.90
900.42	2026.87
900.59	1778.25
900.77	1888.84
900.94	1935.74
901.12	1902.56
901.29	1798.53
901.47	1912.60
901.64	1948.03
901.82	1858.94
901.99	1618.51
902.16	1756.95
902.34	2006.19
902.51	1913.42
902.69	1790.33
902.86	1843.79
903.03	2310.93
903.21	1870.41
903.38	1843.17
903.56	1751.42
903.73	2000.66
903.91	1840.92
904.08	1730.94
904.25	1647.18
904.43	1777.23
904.60	1976.29
904.78	1805.69
904.95	1735.45
905.12	1823.10
905.30	2094.25
905.47	1909.94
905.65	1947.00
905.82	1892.53
905.99	1970.56
906.17	1896.01
906.34	1817.78
906.52	1862.63
906.69	2034.66
906.86	1976.29
907.04	1931.03
907.21	2034.66
907.38	2036.30
907.56	1815.32
907.73	1798.73
907.91	2086.06
908.08	2042.64
908.25	1789.72
908.43	1757.36
908.60	1940.66
908.77	1887.41
908.95	1788.49
909.12	1757.16
909.30	1954.58
909.47	1705.55
909.64	1818.19
909.82	1951.71
909.99	1844.81
910.16	1908.91
910.34	1769.24
910.51	1821.87
910.68	1889.66
910.86	1872.05
911.03	1746.30
911.20	1916.49
911.38	2430.32
911.55	3149.37
911.72	3445.71
911.90	3469.67
912.07	3785.26
912.24	3829.29
912.42	3108.20
912.59	2637.17
912.76	2736.50
912.94	2471.49
913.11	2261.37
913.28	2113.71
913.46	2051.86
913.63	2162.25
913.80	2335.30
913.98	2023.60
914.15	2178.22
914.32	2206.69
914.49	2046.74
914.67	1890.07
914.84	2069.27
915.01	2074.59
915.19	2002.50
915.36	1886.59
915.53	2055.34
915.71	1996.56
915.88	1935.13
916.05	1803.85
916.22	1996.36
916.40	1889.87
916.57	1761.66
916.74	1899.90
916.92	2086.27
917.09	1784.19
917.26	1771.29
917.43	1706.98
917.61	1855.25
917.78	1697.77
917.95	1664.59
918.13	1739.75
918.30	2133.37
918.47	1902.77
918.64	1767.60
918.82	1758.39
918.99	1898.47
919.16	2125.18
919.33	1906.25
919.51	1836.62
919.68	1910.55
919.85	2085.65
920.02	1742.82
920.20	1828.22
920.37	2095.07
920.54	1999.23
920.71	1782.14
920.89	1830.68
921.06	2093.23
921.23	1820.44
921.40	1772.93
921.58	2045.51
921.75	2498.93
921.92	2105.52
922.09	2205.66
922.27	2189.48
922.44	2200.13
922.61	2122.31
922.78	1967.48
922.96	1915.26
923.13	1938.40
923.30	2054.52
923.47	1754.70
923.64	1843.79
923.82	1958.68
923.99	1933.49
924.16	1898.06
924.33	1756.95
924.50	1918.54
924.68	2090.57
924.85	1731.76
925.02	1802.01
925.19	2008.03
925.36	1923.86
925.54	1879.83
925.71	1856.69
925.88	2289.83
926.05	1837.44
926.22	1770.47
926.40	1853.62
926.57	1910.35
926.74	1954.58
926.91	1786.44
927.08	1978.95
927.26	2004.76
927.43	1888.84
927.60	1764.73
927.77	1817.78
927.94	2093.84
928.11	2018.27
928.29	1705.96
928.46	1858.94
928.63	1792.59
928.80	1854.64
928.97	1906.66
929.14	1762.89
929.32	2147.50
929.49	1883.11
929.66	1760.64
929.83	1696.33
930.00	1821.46
930.17	1927.14
930.35	1721.32
930.52	1773.34
930.69	2050.84
930.86	1755.72
931.03	1879.22
931.20	1628.34
931.37	2009.06
931.55	1864.06
931.72	1904.41
931.89	1662.34
932.06	1733.40
932.23	2069.88
932.40	1905.84
932.57	1919.15
932.74	2026.67
932.92	2038.96
933.09	1951.10
933.26	1589.22
933.43	1838.67
933.60	1916.69
933.77	1826.79
933.94	1868.36
934.11	1831.91
934.29	1871.84
934.46	1702.68
934.63	1843.17
934.80	1722.34
934.97	1874.30
935.14	1841.53
935.31	1692.44
935.48	1786.65
935.65	1929.60
935.82	1861.81
936.00	1731.15
936.17	2067.01
936.34	1870.41
936.51	1921.40
936.68	1723.57
936.85	1903.18
937.02	1889.46
937.19	1877.78
937.36	1818.19
937.53	1932.67
937.70	1994.72
937.87	1816.75
938.05	1893.76
938.22	1884.34
938.39	1751.22
938.56	1791.15
938.73	1730.12
938.90	1867.75
939.07	1773.75
939.24	1830.68
939.41	1665.00
939.58	1938.20
939.75	1937.17
939.92	1758.59
940.09	1943.73
940.26	1834.78
940.43	1982.84
940.60	1771.90
940.77	1781.73
940.95	1931.44
941.12	1982.43
941.29	1800.37
941.46	1836.41
941.63	2010.49
941.80	2065.58
941.97	1693.67
942.14	1690.19
942.31	1955.81
942.48	1848.70
942.65	1892.73
942.82	1832.11
942.99	1945.98
943.16	1874.10
943.33	1744.87
943.50	1759.61
943.67	1959.50
943.84	1980.80
944.01	1777.23
944.18	1740.36
944.35	2041.42
944.52	1776.00
944.69	1847.68
944.86	1712.92
945.03	1976.90
945.20	2199.11
945.37	1686.91
945.54	1815.52
945.71	2041.42
945.88	2119.24
946.05	1725.41
946.22	1711.49
946.39	2065.58
946.56	1870.00
946.73	1700.43
946.90	1735.86
947.07	1823.72
947.24	1867.75
947.41	1642.27
947.58	1923.66
947.75	1945.78
947.92	1928.16
948.09	1589.63
948.26	1695.10
948.43	1911.37
948.60	2123.95
948.77	1766.17
948.94	1790.13
949.11	1961.34
949.27	1920.59
949.44	1736.27
949.61	1763.30
949.78	1920.38
949.95	2016.84
950.12	1730.74
950.29	1716.61
950.46	1796.89
950.63	1984.07
950.80	1751.83
950.97	1821.87
951.14	1996.97
951.31	1865.29
951.48	1753.47
951.65	1697.97
951.82	2118.62
951.99	1911.37
952.15	1693.67
952.32	1796.89
952.49	1778.87
952.66	1817.16
952.83	1778.25
953.00	1729.51
953.17	1850.13
953.34	1988.17
953.51	1804.26
953.68	1811.02
953.85	1989.40
954.02	2011.51
954.18	1798.53
954.35	1827.81
954.52	1781.12
954.69	1886.59
954.86	1665.20
955.03	1805.28
955.20	1961.54
955.37	1878.60
955.54	1794.64
955.71	1758.39
955.87	1909.73
956.04	2088.31
956.21	1778.25
956.38	1715.58
956.55	1900.92
956.72	2189.48
956.89	1810.40
957.06	1744.87
957.23	1782.96
957.39	2018.68
957.56	1776.41
957.73	1708.21
957.90	1636.33
958.07	2093.02
958.24	1837.23
958.41	1765.76
958.57	1964.21
958.74	1887.20
958.91	1713.95
959.08	1764.94
959.25	1944.34
959.42	1834.98
959.59	1831.70
959.75	1775.18
959.92	2041.62
960.09	2033.22
960.26	1770.88
960.43	1841.74
960.60	1893.96
960.76	1860.17
960.93	1686.50
961.10	1837.85
961.27	1990.83
961.44	1839.90
961.61	1686.09
961.77	1715.17
961.94	1890.68
962.11	1981.61
962.28	1804.67
962.45	1721.52
962.62	1856.89
962.78	2012.33
962.95	1704.93
963.12	1766.78
963.29	1944.75
963.46	2228.80
963.62	1845.83
963.79	1789.92
963.96	2190.10
964.13	1819.21
964.30	1874.30
964.46	1764.12
964.63	1756.34
964.80	2216.31
964.97	1672.17
965.14	1905.63
965.30	1991.44
965.47	2062.51
965.64	1970.15
965.81	1942.50
965.98	2130.30
966.14	1934.92
966.31	1837.23
966.48	1816.14
966.65	2073.16
966.81	1965.44
966.98	1813.68
967.15	1846.04
967.32	1896.62
967.49	1807.54
967.65	1662.13
967.82	1661.52
967.99	1888.64
968.16	1722.55
968.32	1949.05
968.49	1800.98
968.66	1859.35
968.83	2090.36
968.99	1829.25
969.16	1721.52
969.33	2043.46
969.50	1943.93
969.66	1899.08
969.83	1974.86
970.00	1959.70
970.17	1963.59
970.33	1774.56
970.50	1718.04
970.67	2069.47
970.84	2056.16
971.00	1727.46
971.17	1721.73
971.34	1960.32
971.50	1864.47
971.67	1897.44
971.84	1830.47
972.01	1749.99
972.17	1647.59
972.34	1723.16
972.51	1880.24
972.67	2017.04
972.84	1902.15
973.01	1716.20
973.18	1763.92
973.34	1990.42
973.51	1778.87
973.68	1802.83
973.84	1807.33
974.01	1816.34
974.18	2085.04
974.34	1863.65
974.51	1843.58
974.68	1778.25
974.85	2109.82
975.01	1904.00
975.18	1790.13
975.35	1877.78
975.51	1793.00
975.68	1676.47
975.85	1931.44
976.01	1805.49
976.18	2042.64
976.35	1809.99
976.51	1766.17
976.68	2067.01
976.85	1991.04
977.01	1826.58
977.18	1869.80
977.35	1960.93
977.51	1713.95
977.68	1640.42
977.85	1731.35
978.01	1987.76
978.18	1952.74
978.35	1799.75
978.51	1833.14
978.68	2002.30
978.85	2086.88
979.01	1803.65
979.18	1796.89
979.34	1866.93
979.51	1894.58
979.68	1709.44
979.84	1807.95
980.01	2218.36
980.18	1893.14
980.34	1753.68
980.51	1841.33
980.67	1978.34
980.84	1987.14
981.01	1808.77
981.17	1877.99
981.34	1683.64
981.51	1969.33
981.67	1713.13
981.84	1885.56
982.00	1939.43
982.17	1850.54
982.34	1701.86
982.50	1557.07
982.67	2047.15
982.83	1807.13
983.00	1710.67
983.17	1603.15
983.33	2017.25
983.50	1702.27
983.66	1704.32
983.83	1608.27
984.00	1855.05
984.16	1887.82
984.33	1609.29
984.49	1603.15
984.66	1765.76
984.83	1982.43
984.99	1654.96
985.16	1612.57
985.32	1941.47
985.49	1973.42
985.65	1761.05
985.82	1601.51
985.99	2050.63
986.15	1894.58
986.32	1702.68
986.48	1679.74
986.65	1837.44
986.81	1945.98
986.98	1591.27
987.14	1676.26
987.31	1876.14
987.48	1676.47
987.64	1553.79
987.81	1591.27
987.97	2116.37
988.14	1767.81
988.30	1635.71
988.47	1524.71
988.63	1916.49
988.80	1733.61
988.96	1678.92
989.13	1704.32
989.30	1846.45
989.46	1977.11
989.63	1591.07
989.79	1592.71
989.96	1844.61
990.12	2042.85
990.29	1644.11
990.45	1671.14
990.62	1860.58
990.78	2035.48
990.95	1727.46
991.11	1646.16
991.28	1827.61
991.44	1905.63
991.61	1565.67
991.77	1691.42
991.94	1869.59
992.10	2016.43
992.27	1711.49
992.43	1655.17
992.60	1947.21
992.76	1833.55
992.93	1781.12
993.09	1606.43
993.26	1982.23
993.42	2095.69
993.59	1647.80
993.75	1593.52
993.92	1768.63
994.08	1784.40
994.25	1716.61
994.41	1618.10
994.58	1925.50
994.74	2027.08
994.91	1630.80
995.07	1698.38
995.24	1853.00
995.40	1849.32
995.56	1756.95
995.73	1735.04
995.89	2089.54
996.06	1878.19
996.22	1620.97
996.39	1578.57
996.55	1844.20
996.72	1891.91
996.88	1586.36
997.05	1632.23
997.21	2123.13
997.37	1928.57
997.54	1702.48
997.70	1680.36
997.87	1917.10
998.03	1856.28
998.20	1567.31
998.36	1575.71
998.52	1955.20
998.69	1969.33
998.85	1563.42
999.02	1647.39
999.18	1972.19
999.35	1972.19
999.51	1687.94
999.67	1654.14
999.84	1759.61
1000.00	1973.22
1000.17	1721.52
1000.33	1611.55
1000.49	1813.68
1000.66	1833.14
1000.82	1618.30
1000.99	1712.72
1001.15	2040.60
1001.31	1817.16
1001.48	1660.08
1001.64	1701.45
1001.81	1845.22
1001.97	2138.08
1002.13	1650.05
1002.30	1668.68
1002.46	2029.54
1002.63	1824.33
1002.79	1747.12
1002.95	1633.26
1003.12	2005.37
1003.28	1912.19
1003.45	1602.95
1003.61	1616.26
1003.77	1920.59
1003.94	1716.40
1004.10	1670.32
1004.26	1711.49
1004.43	1923.45
1004.59	2113.30
1004.75	1642.68
1004.92	1625.47
1005.08	1795.86
1005.25	1916.49
1005.41	1664.79
1005.57	1738.32
1005.74	2012.13
1005.90	1842.56
1006.06	1776.82
1006.23	1653.73
1006.39	1928.98
1006.55	2226.14
1006.72	1820.23
1006.88	1620.56
1007.04	1766.58
1007.21	1848.09
1007.37	1661.11
1007.53	1637.15
1007.70	2059.64
1007.86	1974.04
1008.02	1712.51
1008.19	1626.91
1008.35	1901.74
1008.51	1747.12
1008.68	1674.83
1008.84	1607.66
1009.00	1753.47
1009.17	2017.25
1009.33	1785.01
1009.49	1728.69
1009.65	1784.19
1009.82	1895.80
1009.98	1713.33
1010.14	1543.55
1010.31	1969.94
1010.47	1930.01
1010.63	1700.43
1010.80	1729.71
1010.96	1935.54
1011.12	1832.73
1011.28	1659.88
1011.45	1641.86
1011.61	2186.00
1011.77	1768.83
1011.94	1643.49
1012.10	1607.45
1012.26	1728.90
1012.42	1801.19
1012.59	1686.30
1012.75	1703.71
1012.91	1845.83
1013.07	1986.53
1013.24	1600.90
1013.40	1664.59
1013.56	1895.40
1013.72	1854.44
1013.89	1746.30
1014.05	1703.30
1014.21	2127.84
1014.37	2152.42
1014.54	1687.12
1014.70	1623.02
1014.86	1840.51
1015.02	1766.17
1015.19	1669.91
1015.35	1574.07
1015.51	1865.70
1015.67	1852.18
1015.84	1628.95
1016.00	1647.59
1016.16	2025.03
1016.32	1959.91
1016.49	1627.93
1016.65	1601.92
1016.81	1844.61
1016.97	1911.57
1017.14	1757.98
1017.30	1653.73
1017.46	1793.20
1017.62	1923.04
1017.78	1724.39
1017.95	1602.95
1018.11	1958.27
1018.27	2166.14
1018.43	1768.22
1018.59	1712.10
1018.76	1959.09
1018.92	2218.77
1019.08	1633.87
1019.24	1661.52
1019.40	2035.68
1019.57	1903.59
1019.73	1736.27
1019.89	1653.12
1020.05	1885.36
1020.21	2128.66
1020.38	1628.54
1020.54	1799.96
1020.70	1950.28
1020.86	1947.41
1021.02	1686.71
1021.18	1630.59
1021.35	1809.99
1021.51	1927.75
1021.67	1778.25
1021.83	1652.10
1021.99	1879.83
1022.15	1897.03
1022.32	1736.27
1022.48	1695.92
1022.64	2053.91
1022.80	2088.11
1022.96	1702.68
1023.12	1581.65
1023.29	1996.56
1023.45	1926.11
1023.61	1630.80
1023.77	1816.75
1023.93	1893.55
1024.09	1795.45
1024.25	1611.14
1024.42	1601.51
1024.58	1824.94
1024.74	1893.14
1024.90	1661.72
1025.06	1729.51
1025.22	1802.01
1025.38	2069.47
1025.54	1615.64
1025.71	1722.55
1025.87	1947.41
1026.03	1939.63
1026.19	1632.64
1026.35	1762.28
1026.51	1936.97
1026.67	1901.13
1026.83	1687.12
1026.99	1752.65
1027.16	1920.79
1027.32	1867.13
1027.48	1663.97
1027.64	1634.28
1027.80	1944.96
1027.96	1875.94
1028.12	1661.11
1028.28	1615.64
1028.44	1920.38
1028.60	2051.66
1028.77	1755.11
1028.93	1699.81
1029.09	1822.49
1029.25	1765.35
1029.41	1696.13
1029.57	1750.40
1029.73	1921.20
1029.89	2076.44
1030.05	1762.48
1030.21	1737.91
1030.37	2167.77
1030.53	1944.96
1030.69	1685.07
1030.85	1606.02
1031.02	1768.22
1031.18	1896.83
1031.34	1692.85
1031.50	1737.29
1031.66	1764.53
1031.82	2049.20
1031.98	1714.35
1032.14	1635.51
1032.30	1786.65
1032.46	1977.52
1032.62	1764.33
1032.78	1608.27
1032.94	1828.84
1033.10	1842.97
1033.26	1705.14
1033.42	1751.42
1033.58	2135.42
1033.74	1827.81
1033.90	1670.73
1034.06	1846.04
1034.22	2158.15
1034.38	2018.89
1034.54	1685.07
1034.70	1698.38
1034.86	2096.92
>>>>>End Processed Spectral Data<<<<<
