SpectraSuite Data File
++++++++++++++++++++++++++++++++++++
Date: Thu Mar 30 15:59:53 PDT 2017
User: UCSD _CER
Dark Spectrum Present: No
Reference Spectrum Present: No
Number of Sampled Component Spectra: 1
Spectrometers: USB4C00073
Integration Time (usec): 250000 (USB4C00073)
Spectra Averaged: 10 (USB4C00073)
Boxcar Smoothing: 0 (USB4C00073)
Correct for Electrical Dark: No (USB4C00073)
Strobe/Lamp Enabled: No (USB4C00073)
Correct for Detector Non-linearity: No (USB4C00073)
Correct for Stray Light: No (USB4C00073)
Number of Pixels in Processed Spectrum: 3648
>>>>>Begin Processed Spectral Data<<<<<
345.37	1275.68
345.58	1275.68
345.80	1275.68
346.01	1263.19
346.22	1287.97
346.43	1986.94
346.65	1782.14
346.86	2125.79
347.07	2093.84
347.28	1803.03
347.50	1797.09
347.71	1927.96
347.92	1732.99
348.13	1800.78
348.35	1704.93
348.56	1915.67
348.77	1772.31
348.98	1801.60
349.20	1695.31
349.41	1935.13
349.62	2008.44
349.83	1846.45
350.05	1738.93
350.26	1953.97
350.47	2095.07
350.68	1776.82
350.90	1719.06
351.11	2109.00
351.32	2086.06
351.53	1817.37
351.75	1751.63
351.96	1967.89
352.17	1941.27
352.38	1891.30
352.60	1882.70
352.81	1944.75
353.02	2167.37
353.23	1798.94
353.44	1849.32
353.66	1882.70
353.87	1894.78
354.08	1922.02
354.29	1814.91
354.51	1857.92
354.72	1893.96
354.93	1803.85
355.14	1735.04
355.35	1779.48
355.57	2060.26
355.78	1828.63
355.99	1902.36
356.20	1946.18
356.42	1914.24
356.63	1923.66
356.84	1858.33
357.05	2036.50
357.26	2200.13
357.48	1913.42
357.69	1892.12
357.90	2018.68
358.11	1859.97
358.32	1821.05
358.54	1906.45
358.75	1893.55
358.96	2039.57
359.17	1802.01
359.38	1817.98
359.60	1994.31
359.81	1911.16
360.02	1820.03
360.23	1752.45
360.44	1853.00
360.66	2032.40
360.87	1769.04
361.08	1753.88
361.29	1966.25
361.50	1930.82
361.72	1762.48
361.93	1855.66
362.14	1930.42
362.35	1725.82
362.56	1877.58
362.77	1720.09
362.99	2009.26
363.20	1933.08
363.41	1886.59
363.62	1722.34
363.83	1991.24
364.05	2022.57
364.26	1710.26
364.47	1762.69
364.68	2051.25
364.89	1826.79
365.10	1724.59
365.32	1822.90
365.53	1797.09
365.74	1849.32
365.95	1794.84
366.16	1711.49
366.37	1918.54
366.59	1851.77
366.80	1808.97
367.01	1701.04
367.22	2203.82
367.43	2249.49
367.64	1834.37
367.86	1799.35
368.07	1979.36
368.28	2075.41
368.49	1743.64
368.70	1848.29
368.91	1871.02
369.12	1876.55
369.34	1724.39
369.55	1737.91
369.76	1916.69
369.97	1867.34
370.18	1756.13
370.39	1727.05
370.60	1772.52
370.82	1785.01
371.03	1822.08
371.24	1754.29
371.45	1994.31
371.66	1991.04
371.87	1850.13
372.08	1773.95
372.30	1817.37
372.51	2068.86
372.72	1939.22
372.93	1817.98
373.14	2120.47
373.35	1848.29
373.56	1774.56
373.78	1828.02
373.99	2020.73
374.20	2303.76
374.41	1827.40
374.62	1850.13
374.83	2093.84
375.04	1876.55
375.25	1822.08
375.47	1808.56
375.68	1901.33
375.89	2010.29
376.10	1859.35
376.31	1918.13
376.52	1993.49
376.73	1977.52
376.94	1835.18
377.15	1785.42
377.37	1920.79
377.58	1888.02
377.79	1685.07
378.00	1737.29
378.21	1947.21
378.42	2005.78
378.63	1840.71
378.84	1883.11
379.05	2048.99
379.27	1934.10
379.48	1964.62
379.69	1777.43
379.90	2091.80
380.11	1719.27
380.32	1852.18
380.53	1924.27
380.74	2131.32
380.95	1945.98
381.16	1825.56
381.37	1807.95
381.59	2106.34
381.80	2062.92
382.01	1808.15
382.22	1739.14
382.43	2009.88
382.64	1924.89
382.85	1780.09
383.06	1884.13
383.27	2020.53
383.48	1907.48
383.69	1893.76
383.91	1801.19
384.12	2040.39
384.33	2076.44
384.54	1935.54
384.75	1812.25
384.96	2414.76
385.17	2133.57
385.38	1897.03
385.59	1873.28
385.80	2081.76
386.01	2165.73
386.22	1958.27
386.43	1893.14
386.64	2266.90
386.86	1959.09
387.07	1993.29
387.28	1788.49
387.49	1948.85
387.70	2157.54
387.91	1954.58
388.12	1835.18
388.33	2029.54
388.54	1899.90
388.75	1832.73
388.96	1914.03
389.17	1840.71
389.38	1893.14
389.59	1902.77
389.80	1845.63
390.01	1917.92
390.22	1880.65
390.43	1922.43
390.64	1717.84
390.86	2003.73
391.07	2103.47
391.28	1828.63
391.49	1878.19
391.70	1798.94
391.91	1840.30
392.12	1849.32
392.33	1852.39
392.54	1975.88
392.75	1954.79
392.96	1948.44
393.17	1784.19
393.38	2225.32
393.59	2094.46
393.80	1722.55
394.01	1850.34
394.22	1975.27
394.43	2197.68
394.64	1824.54
394.85	1963.18
395.06	1961.95
395.27	1981.20
395.48	1833.14
395.69	1764.53
395.90	1893.55
396.11	1925.71
396.32	1824.33
396.53	1916.28
396.74	1918.33
396.95	2064.15
397.16	1789.72
397.37	1731.97
397.58	2052.06
397.79	1937.58
398.00	1882.08
398.21	1805.69
398.42	1959.29
398.63	2214.47
398.84	1833.96
399.05	1773.34
399.26	2094.25
399.47	1986.32
399.68	1662.95
399.89	1757.36
400.10	1792.59
400.31	1891.09
400.52	1875.32
400.73	1868.36
400.94	1795.86
401.15	2017.45
401.36	1860.58
401.57	1936.35
401.78	2094.25
401.99	2047.35
402.20	1748.15
402.41	1958.68
402.62	2114.73
402.83	1908.09
403.04	1800.78
403.25	1969.53
403.46	2005.17
403.67	2160.20
403.88	1911.57
404.09	1905.43
404.30	1933.49
404.51	1895.60
404.72	1842.15
404.93	1963.39
405.14	1848.91
405.35	1901.95
405.56	1831.09
405.77	1827.20
405.98	1924.68
406.19	1939.22
406.40	1820.64
406.61	1856.07
406.82	1925.91
407.03	2287.99
407.24	1804.26
407.45	1933.08
407.66	2024.21
407.87	2063.94
408.08	1903.18
408.29	1918.95
408.49	1979.16
408.70	1931.64
408.91	1841.74
409.12	1894.58
409.33	1798.32
409.54	2081.76
409.75	1811.43
409.96	1830.06
410.17	2041.01
410.38	1924.07
410.59	1829.86
410.80	1917.51
411.01	1906.04
411.22	1903.79
411.43	1854.03
411.64	1790.74
411.85	1826.38
412.06	1809.79
412.27	1663.97
412.47	1823.31
412.68	1925.30
412.89	1981.61
413.10	1820.44
413.31	1742.41
413.52	2178.01
413.73	2173.71
413.94	1775.79
414.15	1952.53
414.36	1852.18
414.57	1830.68
414.78	1772.31
414.99	1984.07
415.19	2259.52
415.40	2320.55
415.61	2417.83
415.82	2229.62
416.03	2306.22
416.24	2218.97
416.45	1992.47
416.66	1867.34
416.87	1787.67
417.08	2027.49
417.29	1828.63
417.50	1919.15
417.70	2074.80
417.91	2082.78
418.12	1959.09
418.33	1972.81
418.54	2149.34
418.75	2275.50
418.96	2290.45
419.17	2373.80
419.38	2805.51
419.59	2765.78
419.79	2615.26
420.00	2490.53
420.21	2745.30
420.42	2228.19
420.63	2021.35
420.84	2017.25
421.05	1950.49
421.26	1990.83
421.47	1771.90
421.67	2078.69
421.88	1856.28
422.09	1844.40
422.30	2048.99
422.51	1921.61
422.72	2193.78
422.93	2090.98
423.14	1889.05
423.35	1745.89
423.55	1775.79
423.76	1870.61
423.97	1839.49
424.18	1712.51
424.39	1918.33
424.60	2063.94
424.81	1888.84
425.02	2050.02
425.22	2138.69
425.43	2149.75
425.64	2334.68
425.85	2278.16
426.06	2595.80
426.27	2389.77
426.48	2322.40
426.68	2241.09
426.89	2355.37
427.10	2426.02
427.31	2086.68
427.52	1922.63
427.73	2126.61
427.94	2041.42
428.14	1992.06
428.35	1853.00
428.56	2147.50
428.77	2042.64
428.98	1917.51
429.19	1954.38
429.40	2009.88
429.60	2073.77
429.81	2094.87
430.02	2059.44
430.23	2027.08
430.44	2088.11
430.65	1868.77
430.85	1914.44
431.06	2011.92
431.27	1742.41
431.48	1826.99
431.69	1877.99
431.90	1928.16
432.10	1969.12
432.31	1977.31
432.52	1986.32
432.73	2528.63
432.94	2495.25
433.15	2310.72
433.35	2136.44
433.56	2299.87
433.77	2185.18
433.98	2571.22
434.19	2713.56
434.40	2960.34
434.60	2963.62
434.81	2821.90
435.02	2521.05
435.23	2363.97
435.44	2222.46
435.64	1960.11
435.85	1891.71
436.06	1937.99
436.27	1934.51
436.48	1888.23
436.68	1915.06
436.89	2310.52
437.10	2224.71
437.31	2056.78
437.52	2125.18
437.73	2132.96
437.93	2138.08
438.14	1999.84
438.35	1805.08
438.56	1915.67
438.77	1941.68
438.97	2000.46
439.18	1884.34
439.39	2266.49
439.60	2048.79
439.80	2010.90
440.01	2116.78
440.22	2066.40
440.43	2115.55
440.64	1825.15
440.84	1932.46
441.05	1852.80
441.26	2295.57
441.47	1911.16
441.68	1957.86
441.88	2252.36
442.09	2364.99
442.30	2607.06
442.51	2538.87
442.71	2458.59
442.92	2397.35
443.13	2116.37
443.34	2009.26
443.55	1969.53
443.75	2077.25
443.96	1813.68
444.17	1792.38
444.38	2067.01
444.58	1807.54
444.79	1913.83
445.00	1853.62
445.21	1902.56
445.41	1898.67
445.62	1662.54
445.83	1922.43
446.04	1966.05
446.24	1768.42
446.45	1668.68
446.66	1830.68
446.87	2007.21
447.07	1865.70
447.28	2036.91
447.49	1907.07
447.70	2102.65
447.90	2116.17
448.11	1917.72
448.32	1959.29
448.53	2130.50
448.73	2115.14
448.94	1841.12
449.15	1978.54
449.36	1934.72
449.56	1989.19
449.77	1836.82
449.98	1760.23
450.19	1901.33
450.39	2000.66
450.60	1985.51
450.81	1982.02
451.02	2044.08
451.22	2204.23
451.43	1845.02
451.64	1881.26
451.84	1930.21
452.05	2145.04
452.26	1934.72
452.47	1872.66
452.67	1887.20
452.88	2118.83
453.09	1816.55
453.30	1797.50
453.50	2036.30
453.71	2216.72
453.92	2001.48
454.12	2125.79
454.33	2042.64
454.54	2065.79
454.75	1853.21
454.95	1840.71
455.16	2027.69
455.37	2022.78
455.57	1909.53
455.78	1851.57
455.99	1915.47
456.19	1943.11
456.40	1784.19
456.61	1894.17
456.82	1924.48
457.02	2105.11
457.23	2070.29
457.44	2200.54
457.64	2075.82
457.85	2190.51
458.06	2000.87
458.26	2144.02
458.47	2079.51
458.68	2184.36
458.89	1930.82
459.09	2054.11
459.30	2294.95
459.51	2025.44
459.71	1822.08
459.92	1893.35
460.13	2182.11
460.33	2405.95
460.54	2055.34
460.75	2090.57
460.95	2031.99
461.16	2077.05
461.37	1898.67
461.57	1938.40
461.78	2012.95
461.99	1851.16
462.19	2092.82
462.40	1817.78
462.61	2234.95
462.81	2069.06
463.02	1782.76
463.23	1844.20
463.43	2035.89
463.64	1872.87
463.85	2739.16
464.05	1818.19
464.26	2351.07
464.47	2112.68
464.67	1992.06
464.88	1942.50
465.09	1990.42
465.29	2147.70
465.50	2195.63
465.71	2089.13
465.91	2015.61
466.12	1988.37
466.33	1936.76
466.53	1887.41
466.74	2169.82
466.94	1955.81
467.15	1884.75
467.36	2052.47
467.56	1827.61
467.77	1964.82
467.98	1872.87
468.18	1823.10
468.39	1859.56
468.60	2161.22
468.80	1892.12
469.01	1798.53
469.21	1985.92
469.42	2070.50
469.63	1898.06
469.83	1810.40
470.04	2090.16
470.25	2150.37
470.45	1942.09
470.66	1826.79
470.86	1971.78
471.07	1925.30
471.28	1926.93
471.48	1996.56
471.69	1969.94
471.90	2573.07
472.10	2066.61
472.31	2138.08
472.51	2130.09
472.72	2187.23
472.93	2127.23
473.13	2310.52
473.34	2342.67
473.54	2273.45
473.75	2110.23
473.96	2137.46
474.16	2003.73
474.37	2086.27
474.57	1944.14
474.78	1843.99
474.99	2036.50
475.19	1993.70
475.40	1860.17
475.60	1875.53
475.81	2338.78
476.02	2190.30
476.22	2176.79
476.43	2294.75
476.63	2093.02
476.84	2173.30
477.05	1773.75
477.25	1885.97
477.46	2347.18
477.66	1988.37
477.87	1766.37
478.08	1872.87
478.28	2049.20
478.49	1902.36
478.69	1778.05
478.90	1847.68
479.10	2014.18
479.31	2108.18
479.52	1885.56
479.72	2225.94
479.93	2537.23
480.13	2548.70
480.34	2585.56
480.54	2659.29
480.75	2310.52
480.96	2330.59
481.16	1990.01
481.37	2095.69
481.57	2188.66
481.78	2154.87
481.98	2153.44
482.19	2020.94
482.40	2247.85
482.60	2051.66
482.81	1942.91
483.01	1800.16
483.22	2030.77
483.42	2035.68
483.63	1927.96
483.83	1943.11
484.04	2015.20
484.24	2206.69
484.45	2127.84
484.66	1962.98
484.86	2145.25
485.07	1917.92
485.27	1930.21
485.48	1871.84
485.68	2123.33
485.89	1907.68
486.09	1941.88
486.30	1869.39
486.50	1982.23
486.71	1943.73
486.91	1944.75
487.12	2338.58
487.33	2860.81
487.53	3051.88
487.74	2857.74
487.94	2830.70
488.15	2584.54
488.35	2387.32
488.56	2140.54
488.76	2089.34
488.97	2123.54
489.17	2152.82
489.38	1987.76
489.58	1974.65
489.79	2111.87
489.99	2050.22
490.20	1935.94
490.40	1999.64
490.61	2030.15
490.81	1884.75
491.02	1892.94
491.22	1943.11
491.43	2024.42
491.63	1968.71
491.84	1997.79
492.04	1746.92
492.25	2021.96
492.45	1953.56
492.66	1917.10
492.86	1824.74
493.07	1987.76
493.27	2279.18
493.48	1796.07
493.68	1892.32
493.89	1917.10
494.09	2041.21
494.30	1825.35
494.50	2122.92
494.71	2026.67
494.91	1793.41
495.12	1839.28
495.32	1946.80
495.53	1954.58
495.73	1854.85
495.94	2071.32
496.14	1958.27
496.35	2421.52
496.55	2103.67
496.76	1964.21
496.96	2002.09
497.17	1985.30
497.37	2013.97
497.58	1841.94
497.78	1807.33
497.98	1907.27
498.19	1951.10
498.39	1922.43
498.60	1923.25
498.80	1715.17
499.01	2014.79
499.21	1812.04
499.42	1890.48
499.62	1884.95
499.83	2225.73
500.03	1813.07
500.24	2037.52
500.44	2244.78
500.64	2242.12
500.85	2061.49
501.05	2147.50
501.26	1867.95
501.46	2209.96
501.67	1916.08
501.87	1839.90
502.08	1868.36
502.28	1931.03
502.48	1958.88
502.69	2020.94
502.89	1764.53
503.10	1867.13
503.30	1906.66
503.51	1900.11
503.71	1793.00
503.92	2017.25
504.12	1950.90
504.32	1872.87
504.53	2027.08
504.73	2068.45
504.94	2008.24
505.14	2086.27
505.35	2090.36
505.55	2135.21
505.75	2061.89
505.96	2159.17
506.16	2350.25
506.37	1961.13
506.57	1885.16
506.78	1978.34
506.98	2107.77
507.18	1834.16
507.39	1847.47
507.59	1922.63
507.80	1883.31
508.00	1974.04
508.20	2036.30
508.41	1923.86
508.61	2127.63
508.82	2072.34
509.02	2010.90
509.22	1822.08
509.43	1815.73
509.63	1867.34
509.84	1906.66
510.04	1787.47
510.24	2139.51
510.45	2055.14
510.65	1768.01
510.86	1922.22
511.06	1804.67
511.26	2007.42
511.47	1943.93
511.67	1838.05
511.88	2015.20
512.08	2054.93
512.28	1797.50
512.49	1985.10
512.69	1971.58
512.90	1958.68
513.10	1852.18
513.30	1933.49
513.51	2053.09
513.71	2209.55
513.91	2030.97
514.12	2064.35
514.32	2134.60
514.53	1962.36
514.73	2003.53
514.93	1929.39
515.14	1976.29
515.34	2136.85
515.54	1935.94
515.75	1976.49
515.95	2068.24
516.15	2131.53
516.36	1995.95
516.56	1988.99
516.77	1723.16
516.97	2029.95
517.17	1891.71
517.38	1967.07
517.58	2151.80
517.78	1894.17
517.99	1940.45
518.19	1932.46
518.39	2123.54
518.60	1918.74
518.80	1854.03
519.00	1956.63
519.21	1925.50
519.41	2158.15
519.61	1854.44
519.82	1942.91
520.02	1953.35
520.22	1927.34
520.43	1891.50
520.63	1860.58
520.83	1839.69
521.04	1732.17
521.24	1961.54
521.44	1869.18
521.65	1847.27
521.85	2033.02
522.05	1792.79
522.26	1865.49
522.46	2182.11
522.66	2052.68
522.87	1862.01
523.07	2022.78
523.27	1876.76
523.48	2127.23
523.68	1926.73
523.88	1934.51
524.09	2076.23
524.29	1972.40
524.49	1706.78
524.70	1978.54
524.90	2092.00
525.10	2011.72
525.31	1802.42
525.51	1785.83
525.71	2042.23
525.91	2013.97
526.12	1837.64
526.32	1769.24
526.52	1872.46
526.73	1867.13
526.93	1929.80
527.13	1745.28
527.34	1900.72
527.54	1961.13
527.74	1844.61
527.94	1796.07
528.15	1833.55
528.35	1937.38
528.55	1958.06
528.76	1930.01
528.96	1733.20
529.16	2070.09
529.36	2009.47
529.57	1774.16
529.77	2091.80
529.97	1818.39
530.18	1954.17
530.38	1879.83
530.58	1997.59
530.78	1925.71
530.99	1819.21
531.19	1975.27
531.39	1874.92
531.60	1919.15
531.80	1879.22
532.00	2026.67
532.20	1945.16
532.41	1840.71
532.61	1879.22
532.81	1862.42
533.01	1905.84
533.22	1967.69
533.42	2028.72
533.62	1742.41
533.82	2105.31
534.03	1911.16
534.23	1961.75
534.43	1834.37
534.63	1898.47
534.84	1949.67
535.04	1957.65
535.24	1910.55
535.44	2272.43
535.65	1883.93
535.85	1880.04
536.05	1834.98
536.25	1966.87
536.46	1832.11
536.66	2058.41
536.86	1935.74
537.06	2053.09
537.27	2129.48
537.47	1993.70
537.67	1899.29
537.87	2122.92
538.08	1932.87
538.28	1791.15
538.48	1782.55
538.68	1926.11
538.88	2017.66
539.09	1773.13
539.29	1860.99
539.49	2060.05
539.69	1975.88
539.90	1965.85
540.10	1830.88
540.30	2114.12
540.50	1901.13
540.70	1776.61
540.91	1889.87
541.11	2042.03
541.31	2137.46
541.51	1958.27
541.72	1987.14
541.92	2001.89
542.12	1884.13
542.32	1874.10
542.52	1854.23
542.73	1854.44
542.93	2014.18
543.13	1901.33
543.33	1986.12
543.53	2057.59
543.74	2039.57
543.94	1876.35
544.14	2026.26
544.34	2123.54
544.54	1986.53
544.75	2024.01
544.95	2168.18
545.15	2058.00
545.35	2187.85
545.55	2023.19
545.75	1881.06
545.96	2282.87
546.16	1908.09
546.36	1901.95
546.56	1916.49
546.76	2081.97
546.97	2179.24
547.17	1911.16
547.37	1983.87
547.57	1893.55
547.77	2040.39
547.97	1952.33
548.18	1971.17
548.38	1937.38
548.58	2138.08
548.78	1853.62
548.98	1975.68
549.18	2106.75
549.39	2208.12
549.59	2039.37
549.79	1967.48
549.99	2162.45
550.19	2085.45
550.39	2038.55
550.60	1909.32
550.80	2001.07
551.00	2048.17
551.20	1878.81
551.40	1887.20
551.60	2036.91
551.80	2001.07
552.01	2022.78
552.21	1919.56
552.41	1971.17
552.61	2186.41
552.81	1969.94
553.01	1824.54
553.21	2010.08
553.42	1856.07
553.62	1854.23
553.82	1859.15
554.02	2149.14
554.22	2056.37
554.42	1807.13
554.62	1976.90
554.83	2172.49
555.03	2177.20
555.23	1988.58
555.43	2204.02
555.63	2069.06
555.83	2092.00
556.03	1998.82
556.23	1827.20
556.44	2002.71
556.64	2126.41
556.84	1738.73
557.04	1935.33
557.24	2001.28
557.44	1969.53
557.64	1938.61
557.84	1817.98
558.04	1896.01
558.25	2038.55
558.45	1838.05
558.65	1927.75
558.85	1940.86
559.05	1725.82
559.25	1876.76
559.45	1955.81
559.65	2255.02
559.85	2651.71
560.05	2005.58
560.26	2068.24
560.46	2057.39
560.66	1976.49
560.86	1943.32
561.06	1882.90
561.26	2168.80
561.46	2055.96
561.66	1904.82
561.86	1998.41
562.06	1847.06
562.26	1935.54
562.47	1956.83
562.67	1797.91
562.87	2000.87
563.07	1773.75
563.27	1898.47
563.47	1937.79
563.67	1868.36
563.87	2031.18
564.07	1867.54
564.27	1941.68
564.47	1995.54
564.67	2030.36
564.87	1898.88
565.08	1996.56
565.28	1891.30
565.48	2016.43
565.68	1984.69
565.88	2019.50
566.08	2205.87
566.28	1951.30
566.48	1780.91
566.68	1917.51
566.88	1967.89
567.08	2065.17
567.28	1908.71
567.48	1931.44
567.68	1977.93
567.88	1808.15
568.08	1946.80
568.28	2068.86
568.48	1936.97
568.68	2099.78
568.89	1960.52
569.09	1761.66
569.29	2033.43
569.49	2047.56
569.69	1835.59
569.89	1817.57
570.09	1742.21
570.29	1869.39
570.49	1770.47
570.69	1816.55
570.89	2042.85
571.09	2190.71
571.29	1756.95
571.49	2044.28
571.69	2000.05
571.89	1991.44
572.09	1890.89
572.29	1860.17
572.49	2021.75
572.69	2023.80
572.89	1910.96
573.09	1685.27
573.29	1961.75
573.49	1995.75
573.69	1945.37
573.89	2042.03
574.09	1883.93
574.29	2106.34
574.49	1878.19
574.69	1878.19
574.89	1833.96
575.09	1816.75
575.29	1833.96
575.49	1941.68
575.69	2003.73
575.89	1783.37
576.09	1936.35
576.29	1965.44
576.49	1827.40
576.69	1930.01
576.89	1868.77
577.09	1943.73
577.29	1748.97
577.49	2209.35
577.69	1872.05
577.89	1999.43
578.09	1929.39
578.29	1789.92
578.49	1943.93
578.69	1872.66
578.89	2098.14
579.09	1963.59
579.29	1847.27
579.49	2032.61
579.69	1896.01
579.89	2180.68
580.09	1746.51
580.29	1766.99
580.49	1859.97
580.69	1827.81
580.89	1892.53
581.09	1881.26
581.29	1885.97
581.49	1922.02
581.69	1822.08
581.89	1834.37
582.09	1839.90
582.28	1825.56
582.48	1994.93
582.68	2064.56
582.88	2121.90
583.08	1918.54
583.28	1904.41
583.48	1931.23
583.68	1853.62
583.88	1970.56
584.08	1930.42
584.28	1912.60
584.48	2203.00
584.68	2031.99
584.88	1920.18
585.08	2069.06
585.28	2077.87
585.48	2116.37
585.68	1996.97
585.87	2033.43
586.07	2028.10
586.27	1931.64
586.47	2019.50
586.67	1947.62
586.87	1953.76
587.07	1930.01
587.27	1825.56
587.47	1982.43
587.67	2205.05
587.87	2324.65
588.07	2092.41
588.27	1982.23
588.46	2138.69
588.66	2146.27
588.86	2003.32
589.06	2046.54
589.26	2130.91
589.46	2081.97
589.66	1854.23
589.86	1833.55
590.06	1972.40
590.26	2065.99
590.46	1949.67
590.66	2063.94
590.85	1957.24
591.05	2104.70
591.25	1888.02
591.45	1946.59
591.65	2062.51
591.85	1983.66
592.05	1940.45
592.25	2055.55
592.45	2109.41
592.64	1972.81
592.84	1962.77
593.04	1894.37
593.24	2310.72
593.44	1909.53
593.64	1987.14
593.84	1998.00
594.04	1928.37
594.24	2169.41
594.43	1876.76
594.63	1941.68
594.83	2079.10
595.03	2072.54
595.23	1833.96
595.43	1773.75
595.63	1850.95
595.83	2056.57
596.02	1715.38
596.22	1916.28
596.42	1965.03
596.62	1935.94
596.82	1873.07
597.02	2005.58
597.22	2105.31
597.41	1973.01
597.61	1879.01
597.81	2000.87
598.01	2045.10
598.21	1904.41
598.41	1910.96
598.61	1853.21
598.80	1963.59
599.00	2004.35
599.20	2072.75
599.40	1897.65
599.60	1952.33
599.80	2063.53
599.99	2105.31
600.19	1939.02
600.39	1987.96
600.59	2052.88
600.79	1989.19
600.99	1996.36
601.19	2166.55
601.38	2224.50
601.58	1998.00
601.78	1750.40
601.98	2083.19
602.18	2157.54
602.37	2375.85
602.57	2258.70
602.77	2371.75
602.97	2346.97
603.17	2421.31
603.37	2249.49
603.56	2338.17
603.76	2293.72
603.96	2229.83
604.16	2207.51
604.36	2305.60
604.56	2220.20
604.75	2011.31
604.95	2057.39
605.15	2234.74
605.35	2195.22
605.55	1988.58
605.74	1929.19
605.94	2151.80
606.14	2010.49
606.34	2008.03
606.54	1965.44
606.73	1925.30
606.93	2042.03
607.13	1868.57
607.33	1952.94
607.53	2126.82
607.72	2060.87
607.92	1990.42
608.12	2011.11
608.32	1940.25
608.51	2026.67
608.71	1836.82
608.91	1961.13
609.11	2041.62
609.31	1926.73
609.50	1979.36
609.70	2130.71
609.90	2112.27
610.10	2050.43
610.29	1942.09
610.49	1883.72
610.69	2066.81
610.89	1990.42
611.09	2003.94
611.28	2120.26
611.48	2122.51
611.68	1922.22
611.88	1874.10
612.07	1886.59
612.27	2066.40
612.47	1877.37
612.67	1970.56
612.86	2049.20
613.06	1989.19
613.26	1756.34
613.46	1898.88
613.65	1952.53
613.85	2290.86
614.05	2071.52
614.25	2011.72
614.44	1914.44
614.64	1958.47
614.84	1894.37
615.04	1848.29
615.23	1893.14
615.43	2031.18
615.63	2013.97
615.83	1816.75
616.02	1766.99
616.22	2039.98
616.42	1853.62
616.62	1881.06
616.81	1983.05
617.01	2011.31
617.21	1984.48
617.41	1828.84
617.60	1937.99
617.80	2025.44
618.00	2042.64
618.19	1981.82
618.39	1986.12
618.59	2014.18
618.79	1931.64
618.98	1749.17
619.18	1911.78
619.38	2206.89
619.57	1922.22
619.77	1919.77
619.97	1922.22
620.17	1873.89
620.36	1795.45
620.56	2032.81
620.76	1794.84
620.95	1812.66
621.15	1928.57
621.35	1837.23
621.54	1898.26
621.74	1936.97
621.94	1840.92
622.14	1815.93
622.33	1754.70
622.53	1916.69
622.73	1910.35
622.92	1766.37
623.12	1907.48
623.32	2156.51
623.51	2016.84
623.71	1784.40
623.91	2048.58
624.10	1845.42
624.30	1948.03
624.50	1799.75
624.69	1813.27
624.89	2439.95
625.09	1922.02
625.29	1700.43
625.48	1795.45
625.68	1962.57
625.88	2081.15
626.07	1958.68
626.27	1828.84
626.47	1881.67
626.66	1750.60
626.86	1895.19
627.06	1896.42
627.25	1947.41
627.45	2164.09
627.64	1882.90
627.84	2122.11
628.04	1866.31
628.23	2177.40
628.43	1813.07
628.63	1836.62
628.82	1892.94
629.02	2167.98
629.22	2036.50
629.41	2082.58
629.61	1969.12
629.81	2200.95
630.00	1864.88
630.20	1834.98
630.40	1994.72
630.59	2006.19
630.79	1926.32
630.98	1918.13
631.18	1944.34
631.38	1927.96
631.57	2084.83
631.77	1777.84
631.97	1953.76
632.16	1979.57
632.36	1934.10
632.56	1932.67
632.75	1976.09
632.95	2054.32
633.14	1799.14
633.34	2072.75
633.54	1716.20
633.73	1880.65
633.93	1852.80
634.12	1772.31
634.32	2260.14
634.52	1936.35
634.71	1813.48
634.91	1973.01
635.11	1793.82
635.30	1843.38
635.50	1929.60
635.69	1825.35
635.89	2174.33
636.09	2059.64
636.28	1807.13
636.48	1843.79
636.67	2017.04
636.87	2032.40
637.07	2001.07
637.26	1862.63
637.46	1993.29
637.65	2105.11
637.85	1969.94
638.04	1900.51
638.24	1919.97
638.44	2032.20
638.63	1939.02
638.83	1888.84
639.02	2014.59
639.22	2032.61
639.42	1940.86
639.61	1919.56
639.81	1973.63
640.00	1940.04
640.20	2020.32
640.39	1981.41
640.59	2273.04
640.79	2168.80
640.98	2155.69
641.18	2114.73
641.37	2139.51
641.57	2061.69
641.76	2038.96
641.96	1871.84
642.15	2044.69
642.35	1981.82
642.55	2040.80
642.74	1864.27
642.94	2088.72
643.13	2143.40
643.33	1944.34
643.52	1885.77
643.72	1917.92
643.91	1978.54
644.11	1898.26
644.31	1858.94
644.50	1890.48
644.70	2091.39
644.89	1917.92
645.09	2004.96
645.28	1952.33
645.48	2028.72
645.67	1848.91
645.87	1768.22
646.06	1922.63
646.26	1989.81
646.45	1735.24
646.65	1718.25
646.84	2201.57
647.04	1926.32
647.24	1815.73
647.43	1967.28
647.63	2020.12
647.82	2147.70
648.02	1832.32
648.21	1882.08
648.41	2150.37
648.60	1921.81
648.80	2062.71
648.99	1960.11
649.19	1886.18
649.38	1795.04
649.58	1922.84
649.77	1947.41
649.97	2088.11
650.16	2024.42
650.36	1763.30
650.55	2043.67
650.75	2002.91
650.94	2158.56
651.14	1947.21
651.33	1959.91
651.53	2179.04
651.72	1885.36
651.92	1919.15
652.11	1742.21
652.31	2021.55
652.50	2000.87
652.70	1955.81
652.89	1811.63
653.09	2139.10
653.28	1925.50
653.48	1751.63
653.67	1765.35
653.87	2369.30
654.06	1985.71
654.25	2076.85
654.45	1873.69
654.64	1928.16
654.84	1910.35
655.03	1718.25
655.23	2054.11
655.42	2037.11
655.62	2189.89
655.81	2002.71
656.01	1854.03
656.20	2044.90
656.40	2152.21
656.59	1943.32
656.79	2077.25
656.98	1999.23
657.17	2084.63
657.37	1969.12
657.56	1874.71
657.76	2004.76
657.95	2081.15
658.15	1623.42
658.34	1940.25
658.54	1954.99
658.73	1812.66
658.92	1874.10
659.12	1962.16
659.31	2015.00
659.51	1864.06
659.70	1975.06
659.90	1916.49
660.09	2109.00
660.29	1945.57
660.48	1869.59
660.67	2081.35
660.87	1909.32
661.06	2010.70
661.26	2035.07
661.45	2000.46
661.65	2016.23
661.84	1893.55
662.03	1876.14
662.23	1880.04
662.42	2198.29
662.62	1813.07
662.81	1818.80
663.00	1899.08
663.20	2028.31
663.39	2119.85
663.59	2138.69
663.78	2015.41
663.97	2021.14
664.17	2182.52
664.36	1860.17
664.56	1905.02
664.75	2107.97
664.94	2082.58
665.14	1969.12
665.33	1967.07
665.53	2002.30
665.72	1978.13
665.91	2052.06
666.11	1978.75
666.30	1979.36
666.50	1965.23
666.69	2054.32
666.88	1989.40
667.08	2091.18
667.27	2070.29
667.47	2124.97
667.66	2026.06
667.85	2200.54
668.05	2075.62
668.24	1983.46
668.43	2156.92
668.63	1975.06
668.82	2155.28
669.02	2055.75
669.21	1985.92
669.40	1820.85
669.60	2214.47
669.79	1828.43
669.98	2391.62
670.18	1830.88
670.37	1801.60
670.56	1880.04
670.76	1932.87
670.95	1931.85
671.15	2037.93
671.34	1961.54
671.53	1914.44
671.73	1872.05
671.92	1846.04
672.11	1783.37
672.31	1890.07
672.50	1975.27
672.69	1794.64
672.89	1679.95
673.08	1897.24
673.27	2067.42
673.47	1964.21
673.66	1971.37
673.85	1830.47
674.05	2018.68
674.24	2145.66
674.43	2101.22
674.63	2393.46
674.82	2678.95
675.01	2161.22
675.21	2389.37
675.40	2203.20
675.59	2143.40
675.79	2380.97
675.98	2077.66
676.17	2164.50
676.37	2140.95
676.56	2013.77
676.75	2015.00
676.95	1981.61
677.14	1952.53
677.33	2097.53
677.52	1829.25
677.72	1861.60
677.91	1979.16
678.10	1794.23
678.30	1836.21
678.49	1799.55
678.68	2218.77
678.88	1705.34
679.07	2018.07
679.26	1881.88
679.45	2174.12
679.65	2080.94
679.84	1713.54
680.03	1755.72
680.23	1887.20
680.42	2264.64
680.61	1814.30
680.81	1828.63
681.00	1929.60
681.19	1973.63
681.38	1977.31
681.58	1972.60
681.77	1880.04
681.96	2028.31
682.15	1874.10
682.35	1933.28
682.54	1967.69
682.73	1812.66
682.93	1816.14
683.12	1833.55
683.31	2028.92
683.50	2269.76
683.70	1843.38
683.89	1917.92
684.08	1820.23
684.27	2044.08
684.47	1768.22
684.66	1955.20
684.85	2198.29
685.04	2105.31
685.24	1868.57
685.43	1936.97
685.62	1735.86
685.81	1995.95
686.01	2056.78
686.20	2052.68
686.39	2060.46
686.58	2521.05
686.78	2331.61
686.97	2303.76
687.16	2308.88
687.35	2188.25
687.55	2090.57
687.74	2084.63
687.93	1966.25
688.12	2043.87
688.32	2038.55
688.51	1868.36
688.70	2064.56
688.89	1847.88
689.08	1810.61
689.28	1859.35
689.47	1969.53
689.66	1933.28
689.85	2024.62
690.05	1871.43
690.24	1854.44
690.43	1957.04
690.62	1949.46
690.81	1868.77
691.01	1915.06
691.20	1912.19
691.39	1821.26
691.58	1954.17
691.77	2133.98
691.97	1976.49
692.16	1957.45
692.35	1887.20
692.54	1858.33
692.73	2030.36
692.93	2029.33
693.12	2058.62
693.31	2104.70
693.50	2071.11
693.69	2119.03
693.89	1957.45
694.08	2180.27
694.27	2188.87
694.46	1890.28
694.65	1963.59
694.85	2059.85
695.04	2106.13
695.23	2222.05
695.42	3486.67
695.61	4709.10
695.80	5471.15
696.00	6237.09
696.19	6659.38
696.38	5846.75
696.57	4903.45
696.76	4734.29
696.95	4293.98
697.15	4222.91
697.34	3955.65
697.53	3452.67
697.72	3297.84
697.91	2975.08
698.10	2887.84
698.30	2408.82
698.49	2234.74
698.68	2184.98
698.87	1974.45
699.06	1880.85
699.25	1952.12
699.45	2073.98
699.64	1975.68
699.83	2023.39
700.02	1816.75
700.21	2005.37
700.40	1888.64
700.59	1888.84
700.79	1880.44
700.98	1994.11
701.17	1837.85
701.36	1841.94
701.55	1838.26
701.74	2119.24
701.93	1914.65
702.12	2093.43
702.32	2086.68
702.51	2332.43
702.70	2334.07
702.89	2170.85
703.08	2038.96
703.27	2236.79
703.46	2145.25
703.65	1997.59
703.85	1898.26
704.04	1951.10
704.23	2116.58
704.42	1894.58
704.61	1910.75
704.80	2141.56
704.99	1855.25
705.18	1973.42
705.37	2082.17
705.57	2993.11
705.76	4312.20
705.95	4741.05
706.14	5647.48
706.33	6098.65
706.52	5976.38
706.71	4698.65
706.90	4241.55
707.09	4163.11
707.28	3892.57
707.47	3520.46
707.67	3460.45
707.86	3095.10
708.05	3116.19
708.24	2720.32
708.43	2483.16
708.62	2257.07
708.81	2087.49
709.00	1888.43
709.19	1894.37
709.38	2086.47
709.57	1846.65
709.76	1955.81
709.96	1927.75
710.15	2133.98
710.34	1957.24
710.53	2038.75
710.72	1956.83
710.91	2100.60
711.10	2011.31
711.29	2034.04
711.48	1886.18
711.67	1824.94
711.86	1999.84
712.05	1824.54
712.24	1850.75
712.43	2040.60
712.62	2115.14
712.81	1957.24
713.00	2054.11
713.19	1807.74
713.39	2009.47
713.58	1906.25
713.77	2138.90
713.96	2291.27
714.15	2285.94
714.34	2275.29
714.53	2141.36
714.72	2441.79
714.91	2082.78
715.10	2153.85
715.29	1984.48
715.48	2499.14
715.67	2166.55
715.86	2063.12
716.05	2027.08
716.24	1973.83
716.43	1928.16
716.62	1838.46
716.81	1799.96
717.00	1907.68
717.19	2142.18
717.38	1914.65
717.57	1869.59
717.76	1761.05
717.95	2037.11
718.14	1926.93
718.33	1851.98
718.52	1707.19
718.71	1762.07
718.90	1778.87
719.09	1867.95
719.28	1925.30
719.47	2048.79
719.66	2028.51
719.85	2033.84
720.04	1966.25
720.23	2006.80
720.42	1900.72
720.61	2014.79
720.80	1800.37
720.99	2013.56
721.18	1902.77
721.37	1843.58
721.56	1924.68
721.75	2035.27
721.94	1842.35
722.13	1889.87
722.32	1900.31
722.51	2018.48
722.70	1921.20
722.89	1968.51
723.08	1938.61
723.27	2069.06
723.46	1949.05
723.65	1881.26
723.84	1860.37
724.03	2110.02
724.22	1824.74
724.41	1956.83
724.60	1882.90
724.79	2058.62
724.98	1959.50
725.16	1901.54
725.35	1982.64
725.54	1827.61
725.73	1948.03
725.92	1980.39
726.11	2129.27
726.30	2634.71
726.49	2589.86
726.68	2834.80
726.87	3005.39
727.06	3062.12
727.25	2557.91
727.44	2622.83
727.63	2544.40
727.82	2423.98
728.01	2358.44
728.20	2398.38
728.38	2463.91
728.57	2174.12
728.76	2180.47
728.95	2214.67
729.14	1926.93
729.33	1893.55
729.52	1796.07
729.71	1880.85
729.90	1859.56
730.09	1933.90
730.28	1951.10
730.47	1926.32
730.66	2170.85
730.84	2072.75
731.03	2036.30
731.22	2042.64
731.41	2033.22
731.60	2072.75
731.79	1813.27
731.98	1923.25
732.17	2068.65
732.36	2024.62
732.55	1895.40
732.73	1828.22
732.92	2129.07
733.11	2022.37
733.30	1891.50
733.49	1817.16
733.68	2028.72
733.87	2002.91
734.06	1884.75
734.25	1912.80
734.43	2012.13
734.62	2100.60
734.81	2056.16
735.00	2056.98
735.19	2055.14
735.38	2127.84
735.57	1892.73
735.76	2053.50
735.94	2138.49
736.13	2462.48
736.32	2320.96
736.51	2338.78
736.70	2633.07
736.89	2722.16
737.08	2986.96
737.27	4545.88
737.45	6754.20
737.64	7691.15
737.83	8957.00
738.02	9519.57
738.21	8912.35
738.40	7085.56
738.59	6434.10
738.77	5957.75
738.96	5527.06
739.15	5250.58
739.34	4886.86
739.53	4502.25
739.72	4255.88
739.90	3851.82
740.09	3136.87
740.28	2909.75
740.47	2659.29
740.66	2423.36
740.85	2105.31
741.03	2097.12
741.22	1954.17
741.41	2015.61
741.60	1897.85
741.79	2022.98
741.98	2163.27
742.16	2239.04
742.35	2039.16
742.54	2013.97
742.73	2320.55
742.92	2011.72
743.10	1931.23
743.29	2019.91
743.48	2392.64
743.67	2044.90
743.86	1885.36
744.05	1903.79
744.23	1947.82
744.42	1936.35
744.61	2028.51
744.80	1889.25
744.99	1979.36
745.17	1802.62
745.36	1848.70
745.55	2041.01
745.74	2033.63
745.93	1976.09
746.11	1984.89
746.30	1947.21
746.49	2196.65
746.68	1930.42
746.86	2002.91
747.05	1997.18
747.24	2099.17
747.43	2130.30
747.62	1877.17
747.80	1963.18
747.99	2224.50
748.18	2165.93
748.37	2136.03
748.56	2127.43
748.74	2250.51
748.93	2288.61
749.12	3568.79
749.31	7426.55
749.49	10842.36
749.68	13107.00
749.87	15254.91
750.06	16175.68
750.24	15294.44
750.43	14587.48
750.62	15984.60
750.81	16369.82
750.99	17010.63
751.18	16626.84
751.37	13968.58
751.56	11689.19
751.74	11301.31
751.93	9972.17
752.12	8324.79
752.31	7205.37
752.49	6240.16
752.68	5636.01
752.87	4775.25
753.06	4112.94
753.24	3626.75
753.43	3246.85
753.62	2643.93
753.81	2395.30
753.99	2484.39
754.18	2229.83
754.37	2007.21
754.55	2113.71
754.74	2256.66
754.93	1818.19
755.12	1945.78
755.30	1931.85
755.49	2134.80
755.68	2025.24
755.86	2070.91
756.05	1885.56
756.24	2178.42
756.43	1856.48
756.61	1876.76
756.80	2025.65
756.99	2160.61
757.17	1978.34
757.36	1879.83
757.55	1961.13
757.74	2053.29
757.92	1999.84
758.11	1871.02
758.30	1809.59
758.48	1960.11
758.67	1881.67
758.86	2029.95
759.04	1903.18
759.23	2021.55
759.42	2082.58
759.60	1986.94
759.79	2008.24
759.98	1975.06
760.16	1891.30
760.35	1926.52
760.54	1874.92
760.73	2029.54
760.91	1835.59
761.10	1988.78
761.29	2020.73
761.47	2010.70
761.66	2290.65
761.85	2048.17
762.03	2444.46
762.22	4451.87
762.41	11222.46
762.59	18964.81
762.78	22910.63
762.97	27660.07
763.15	29814.12
763.34	27035.03
763.52	19805.50
763.71	18206.65
763.90	16533.87
764.08	15427.14
764.27	14102.93
764.46	12973.68
764.64	11323.42
764.83	10102.43
765.02	8854.60
765.20	7573.39
765.39	6135.71
765.58	4646.64
765.76	3806.56
765.95	3142.40
766.13	2667.27
766.32	2364.38
766.51	2237.82
766.69	2730.76
766.88	2121.49
767.07	1933.28
767.25	1830.06
767.44	2148.11
767.62	2172.89
767.81	1931.44
768.00	1965.03
768.18	1996.97
768.37	1898.26
768.56	1795.25
768.74	1886.79
768.93	1809.38
769.11	2007.21
769.30	1961.54
769.49	1877.17
769.67	1925.30
769.86	1891.71
770.04	1899.70
770.23	1884.13
770.42	2105.11
770.60	1953.76
770.79	1863.86
770.97	2020.12
771.16	2914.67
771.35	4638.24
771.53	6289.11
771.72	7302.85
771.90	8476.34
772.09	9073.32
772.27	8042.37
772.46	6125.88
772.65	6131.82
772.83	5604.06
773.02	5358.92
773.20	4857.37
773.39	4698.65
773.58	4327.36
773.76	3761.30
773.95	3586.81
774.13	3351.50
774.32	2918.56
774.50	2506.92
774.69	2396.74
774.87	2230.85
775.06	2404.93
775.25	1955.40
775.43	1986.12
775.62	2023.60
775.80	2067.83
775.99	1994.11
776.17	1890.07
776.36	1985.51
776.54	2095.48
776.73	1910.14
776.92	2001.89
777.10	2116.99
777.29	1997.38
777.47	1865.90
777.66	1885.77
777.84	1963.59
778.03	1961.54
778.21	1828.22
778.40	1920.18
778.58	1994.31
778.77	2081.35
778.95	1791.77
779.14	1825.15
779.32	2166.55
779.51	2034.66
779.70	1874.92
779.88	1790.54
780.07	1886.18
780.25	2265.46
780.44	1867.95
780.62	2024.01
780.81	1998.82
780.99	1988.58
781.18	1844.81
781.36	1888.43
781.55	1954.79
781.73	2110.02
781.92	1811.02
782.10	1791.97
782.29	1998.00
782.47	2126.00
782.66	1947.21
782.84	1772.52
783.03	1863.86
783.21	2100.19
783.40	1882.49
783.58	1881.26
783.77	1860.17
783.95	1915.26
784.14	1801.60
784.32	1940.04
784.51	2093.84
784.69	1839.28
784.88	1806.72
785.06	1901.13
785.24	1786.03
785.43	2046.33
785.61	1990.22
785.80	1849.73
785.98	2001.28
786.17	1946.59
786.35	1822.69
786.54	1999.02
786.72	2054.52
786.91	2097.94
787.09	1938.61
787.28	1835.39
787.46	1954.17
787.65	2055.14
787.83	1831.50
788.01	1965.64
788.20	1822.28
788.38	1996.77
788.57	1897.44
788.75	1937.58
788.94	2219.38
789.12	2150.57
789.31	1971.37
789.49	2057.18
789.67	1915.06
789.86	2045.10
790.04	1868.57
790.23	1789.92
790.41	2279.59
790.60	1934.10
790.78	1937.99
790.96	1944.75
791.15	2081.15
791.33	1946.80
791.52	1910.55
791.70	1849.73
791.89	1945.16
792.07	2065.79
792.25	1959.09
792.44	1832.93
792.62	2107.36
792.81	1935.33
792.99	1970.35
793.17	1941.68
793.36	1975.88
793.54	2745.51
793.73	3999.48
793.91	5589.11
794.10	6723.48
794.28	7808.50
794.46	8105.66
794.65	7762.42
794.83	6145.95
795.01	5667.96
795.20	5595.67
795.38	5058.28
795.57	4812.11
795.75	4665.68
795.93	4192.40
796.12	3945.21
796.30	3719.32
796.49	3508.58
796.67	3056.80
796.85	2943.34
797.04	2642.49
797.22	2537.43
797.40	2156.51
797.59	2247.85
797.77	2181.09
797.96	2056.98
798.14	2029.95
798.32	2006.60
798.51	2153.64
798.69	2310.93
798.87	2019.91
799.06	2000.46
799.24	1941.68
799.42	2666.66
799.61	3614.66
799.79	4369.75
799.98	5140.40
800.16	5655.26
800.34	7153.96
800.53	8875.28
800.71	9495.61
800.89	10959.70
801.08	11285.13
801.26	11250.11
801.44	9368.64
801.63	7684.39
801.81	7528.74
801.99	6819.94
802.18	6304.26
802.36	5989.08
802.54	5514.77
802.73	4767.67
802.91	4401.08
803.09	3989.24
803.28	3669.55
803.46	3309.31
803.64	3170.26
803.83	2533.54
804.01	2317.07
804.19	2158.35
804.38	2293.11
804.56	2215.90
804.74	2078.28
804.92	2091.39
805.11	1936.15
805.29	2178.83
805.47	1985.10
805.66	1910.96
805.84	1896.21
806.02	2182.32
806.21	1974.86
806.39	2122.92
806.57	2179.04
806.76	2156.31
806.94	2046.33
807.12	2009.88
807.30	2044.49
807.49	2174.74
807.67	2180.68
807.85	2220.00
808.04	2230.03
808.22	2387.52
808.40	1938.40
808.58	1894.78
808.77	2133.78
808.95	2385.88
809.13	2933.31
809.31	5439.00
809.50	8160.75
809.68	9633.03
809.86	10950.90
810.05	12024.65
810.23	13763.37
810.41	20457.16
810.59	35271.14
810.78	44175.30
810.96	51718.38
811.14	56136.87
811.32	55571.02
811.51	44579.57
811.69	35076.18
811.87	34638.73
812.05	30205.08
812.24	28368.87
812.42	25851.92
812.60	22844.68
812.78	19480.07
812.97	16566.43
813.15	14483.44
813.33	12276.75
813.51	10400.61
813.70	8186.96
813.88	6456.43
814.06	5055.62
814.24	3981.05
814.42	3119.88
814.61	2807.36
814.79	2749.60
814.97	2188.05
815.15	2216.72
815.34	2265.67
815.52	2266.49
815.70	1994.31
815.88	1993.29
816.06	1962.16
816.25	2018.48
816.43	1901.33
816.61	2044.49
816.79	2160.61
816.98	1814.09
817.16	1859.15
817.34	1846.65
817.52	1972.81
817.70	2160.20
817.89	1882.70
818.07	1816.14
818.25	1906.66
818.43	1938.61
818.61	1892.32
818.80	1853.00
818.98	2152.21
819.16	1962.16
819.34	1807.13
819.52	2072.95
819.70	1796.07
819.89	1914.65
820.07	1765.96
820.25	1746.51
820.43	1962.16
820.61	2035.48
820.80	1882.08
820.98	1801.39
821.16	1744.87
821.34	1795.86
821.52	1865.70
821.70	1955.61
821.89	1893.76
822.07	1891.30
822.25	1861.19
822.43	1812.25
822.61	2100.81
822.79	1970.97
822.98	1871.84
823.16	1701.04
823.34	1949.87
823.52	2071.93
823.70	1970.56
823.88	1753.06
824.06	1990.42
824.25	1893.35
824.43	1952.12
824.61	1788.08
824.79	1921.40
824.97	1964.00
825.15	2140.13
825.33	2811.86
825.52	3949.10
825.70	4506.96
825.88	5031.86
826.06	5492.86
826.24	5582.56
826.42	4994.38
826.60	4167.21
826.78	4192.60
826.97	3754.34
827.15	3845.88
827.33	3381.81
827.51	3391.44
827.69	3086.70
827.87	3002.32
828.05	2836.64
828.23	2529.45
828.41	2634.71
828.60	2514.91
828.78	2109.82
828.96	2193.37
829.14	2045.10
829.32	2025.03
829.50	1915.47
829.68	1936.56
829.86	1897.65
830.04	2027.90
830.22	1948.44
830.41	1803.85
830.59	1918.95
830.77	2016.84
830.95	1840.51
831.13	1833.75
831.31	1814.30
831.49	2010.70
831.67	2010.08
831.85	2000.25
832.03	1884.75
832.21	1999.23
832.39	1762.89
832.57	1791.97
832.76	2007.62
832.94	1880.24
833.12	1726.64
833.30	1873.28
833.48	2054.93
833.66	1984.48
833.84	1827.20
834.02	1894.99
834.20	2008.24
834.38	1993.49
834.56	1699.40
834.74	1783.37
834.92	1761.87
835.10	2122.31
835.28	1944.34
835.46	1885.36
835.64	1882.90
835.82	1838.87
836.01	2127.02
836.19	2015.61
836.37	1870.82
836.55	1811.43
836.73	1835.18
836.91	1772.72
837.09	2027.28
837.27	2102.44
837.45	1756.13
837.63	1806.31
837.81	1805.08
837.99	1947.62
838.17	1883.93
838.35	1809.59
838.53	2239.86
838.71	2014.59
838.89	1866.31
839.07	1884.95
839.25	1985.51
839.43	2168.59
839.61	2470.67
839.79	4255.88
839.97	6266.37
840.15	7465.05
840.33	8412.03
840.51	9066.56
840.69	8766.33
840.87	7110.34
841.05	6348.70
841.23	6873.39
841.41	8838.01
841.59	12612.01
841.77	14390.26
841.95	15671.26
842.13	16753.82
842.31	16153.76
842.49	12844.66
842.67	10654.97
842.85	10467.58
843.03	9056.32
843.21	8553.96
843.39	7774.09
843.57	7007.53
843.75	6276.82
843.93	5356.46
844.11	4759.68
844.29	4363.81
844.47	3944.39
844.65	3805.54
844.83	3285.97
845.01	2915.28
845.19	2761.69
845.36	2391.62
845.54	2266.90
845.72	2117.60
845.90	2130.71
846.08	1891.91
846.26	1947.00
846.44	2024.42
846.62	2017.04
846.80	1953.76
846.98	1820.03
847.16	1890.89
847.34	1940.86
847.52	1772.31
847.70	1831.09
847.88	1895.80
848.06	2083.81
848.24	1947.82
848.41	1754.09
848.59	2048.79
848.77	1986.73
848.95	1856.89
849.13	1843.79
849.31	1981.20
849.49	1952.53
849.67	1786.03
849.85	1762.89
850.03	1955.40
850.21	1950.08
850.39	1815.32
850.57	1947.21
850.74	2133.16
850.92	2272.02
851.10	2690.83
851.28	3504.28
851.46	4098.80
851.64	4742.69
851.82	4688.41
852.00	4727.33
852.18	4343.95
852.36	3740.00
852.53	3515.13
852.71	3413.96
852.89	3340.03
853.07	3197.70
853.25	2865.72
853.43	2698.40
853.61	2687.75
853.79	2563.24
853.97	2321.99
854.14	2207.51
854.32	2431.96
854.50	2279.59
854.68	2065.17
854.86	1979.77
855.04	1900.92
855.22	2060.46
855.40	1761.46
855.57	1831.09
855.75	2025.65
855.93	1954.38
856.11	1688.14
856.29	1781.94
856.47	1798.12
856.65	1888.84
856.82	1768.42
857.00	1714.15
857.18	1863.45
857.36	1832.73
857.54	1883.52
857.72	1973.01
857.89	1978.34
858.07	1898.88
858.25	1974.04
858.43	1744.66
858.61	1867.54
858.79	1897.24
858.97	1785.62
859.14	1915.67
859.32	1867.54
859.50	1848.91
859.68	1903.18
859.86	1809.38
860.03	1925.50
860.21	1980.80
860.39	1800.98
860.57	1902.77
860.75	1929.39
860.93	2129.68
861.10	2009.06
861.28	1827.61
861.46	1968.30
861.64	1939.84
861.82	1832.73
861.99	1947.21
862.17	2042.03
862.35	2045.10
862.53	1867.34
862.71	1876.76
862.88	1921.81
863.06	1988.37
863.24	1845.22
863.42	1785.01
863.60	1853.41
863.77	1975.47
863.95	1692.44
864.13	1882.49
864.31	1832.11
864.49	1995.75
864.66	1729.92
864.84	1832.32
865.02	1941.27
865.20	2222.66
865.37	1893.35
865.55	1855.87
865.73	1858.74
865.91	2206.48
866.09	2254.81
866.26	2278.37
866.44	2446.91
866.62	2365.20
866.80	2178.83
866.97	2196.86
867.15	2144.84
867.33	2192.15
867.51	2163.06
867.68	2061.28
867.86	2025.03
868.04	1968.10
868.22	1801.80
868.39	1900.31
868.57	2024.01
868.75	2121.49
868.93	1755.31
869.10	1841.74
869.28	2198.29
869.46	2104.08
869.64	1893.35
869.81	1857.30
869.99	1969.12
870.17	1925.09
870.35	1826.99
870.52	1787.47
870.70	2029.54
870.88	1806.31
871.05	1781.32
871.23	1649.84
871.41	1879.42
871.59	1871.43
871.76	1829.86
871.94	1781.73
872.12	1885.36
872.29	1733.81
872.47	1796.07
872.65	1765.14
872.83	1910.35
873.00	2067.01
873.18	1832.11
873.36	1815.32
873.53	1970.97
873.71	1726.23
873.89	1796.07
874.06	1863.86
874.24	1932.05
874.42	2016.84
874.60	1942.09
874.77	1878.60
874.95	1815.93
875.13	2004.55
875.30	1779.48
875.48	1812.45
875.66	2065.99
875.83	1839.28
876.01	1833.14
876.19	1945.57
876.36	1761.05
876.54	1925.91
876.72	1750.81
876.89	1893.14
877.07	1980.18
877.25	1704.52
877.42	1883.11
877.60	1839.69
877.78	2104.29
877.95	1812.86
878.13	1805.08
878.31	1914.65
878.48	1988.99
878.66	1984.48
878.84	1781.12
879.01	1863.04
879.19	1940.86
879.37	1982.43
879.54	1827.61
879.72	1730.94
879.90	1658.65
880.07	1961.34
880.25	1611.34
880.42	1928.78
880.60	1910.35
880.78	1991.85
880.95	1828.02
881.13	1820.64
881.31	1910.14
881.48	1812.45
881.66	1788.08
881.83	1894.37
882.01	1824.94
882.19	1721.93
882.36	1867.34
882.54	1829.04
882.72	1963.18
882.89	1909.12
883.07	1731.76
883.24	1797.09
883.42	1986.73
883.60	1897.85
883.77	1739.34
883.95	1814.30
884.12	2004.35
884.30	1916.69
884.48	1962.77
884.65	1861.19
884.83	1918.13
885.00	1934.92
885.18	1727.46
885.36	1794.64
885.53	1985.10
885.71	2044.28
885.88	1737.29
886.06	1801.39
886.23	1964.00
886.41	1843.58
886.59	1823.72
886.76	1789.52
886.94	1957.65
887.11	2237.82
887.29	1830.47
887.47	1738.93
887.64	2035.48
887.82	2031.59
887.99	1713.74
888.17	1858.74
888.34	1859.76
888.52	1770.06
888.69	1879.01
888.87	1745.07
889.05	1855.05
889.22	1837.03
889.40	1787.26
889.57	1985.30
889.75	2076.85
889.92	1843.58
890.10	1734.42
890.27	1827.61
890.45	1831.29
890.62	1687.32
890.80	1733.20
890.98	1691.83
891.15	2042.44
891.33	2009.47
891.50	1783.58
891.68	1714.76
891.85	2008.44
892.03	1948.44
892.20	1775.18
892.38	1751.01
892.55	1972.60
892.73	1989.19
892.90	1722.75
893.08	1795.04
893.25	1817.98
893.43	1800.16
893.60	1935.94
893.78	1654.76
893.95	1929.80
894.13	1862.22
894.30	1776.61
894.48	1833.96
894.65	1983.25
894.83	1914.03
895.00	1648.82
895.18	1650.05
895.35	1990.83
895.53	1953.56
895.70	1741.80
895.88	1912.80
896.05	1931.03
896.23	1697.36
896.40	1778.87
896.58	1876.35
896.75	1989.19
896.93	2059.03
897.10	1793.82
897.28	1708.01
897.45	1912.60
897.63	1959.70
897.80	1937.99
897.98	1832.93
898.15	1924.68
898.33	1790.74
898.50	1896.62
898.67	1805.69
898.85	1846.65
899.02	1912.60
899.20	1996.16
899.37	1829.04
899.55	1909.32
899.72	2010.90
899.90	1769.45
900.07	1785.01
900.25	1945.57
900.42	2017.66
900.59	1793.00
900.77	1918.54
900.94	1956.01
901.12	1919.36
901.29	1796.89
901.47	1895.40
901.64	1963.59
901.82	1887.20
901.99	1618.92
902.16	1757.77
902.34	2035.68
902.51	1908.50
902.69	1804.06
902.86	1857.30
903.03	2331.82
903.21	1882.29
903.38	1846.86
903.56	1791.97
903.73	1997.79
903.91	1840.10
904.08	1746.10
904.25	1670.73
904.43	1807.13
904.60	1988.17
904.78	1819.83
904.95	1739.14
905.12	1849.52
905.30	2086.27
905.47	1908.91
905.65	1940.25
905.82	1864.68
905.99	1955.81
906.17	1863.04
906.34	1769.24
906.52	1765.96
906.69	1971.37
906.86	1919.77
907.04	1885.36
907.21	2021.35
907.38	1992.06
907.56	1787.26
907.73	1796.48
907.91	2084.42
908.08	2040.39
908.25	1806.92
908.43	1752.24
908.60	1954.17
908.77	1937.17
908.95	1820.03
909.12	1767.19
909.30	1974.86
909.47	1753.27
909.64	1857.71
909.82	1959.50
909.99	1862.63
910.16	1913.01
910.34	1792.59
910.51	1830.06
910.68	1942.29
910.86	1924.89
911.03	1932.46
911.20	2555.05
911.38	4426.89
911.55	7132.87
911.72	8486.58
911.90	9339.15
912.07	10252.54
912.24	9962.96
912.42	7666.37
912.59	5527.67
912.76	5135.69
912.94	4355.21
913.11	3903.43
913.28	3528.24
913.46	3295.18
913.63	3266.71
913.80	3312.38
913.98	2927.98
914.15	3029.56
914.32	2978.36
914.49	2753.70
914.67	2578.80
914.84	2719.09
915.01	2748.58
915.19	2556.48
915.36	2390.59
915.53	2464.32
915.71	2287.38
915.88	2144.22
916.05	1962.57
916.22	2107.77
916.40	2010.70
916.57	1817.57
916.74	1938.20
916.92	2113.09
917.09	1792.59
917.26	1778.66
917.43	1759.41
917.61	1855.05
917.78	1733.61
917.95	1656.81
918.13	1744.46
918.30	2200.13
918.47	1920.38
918.64	1806.72
918.82	1782.35
918.99	1895.60
919.16	2149.75
919.33	1867.95
919.51	1804.67
919.68	1873.69
919.85	2039.78
920.02	1718.04
920.20	1830.68
920.37	2095.48
920.54	1989.60
920.71	1787.88
920.89	1800.57
921.06	2127.02
921.23	1830.27
921.40	1917.10
921.58	2478.25
921.75	3266.71
921.92	2990.44
922.09	3152.44
922.27	3216.33
922.44	3089.36
922.61	2763.94
922.78	2360.69
922.96	2286.56
923.13	2210.99
923.30	2310.72
923.47	1975.06
923.64	2037.73
923.82	2185.18
923.99	2131.73
924.16	2052.88
924.33	1901.33
924.50	2056.16
924.68	2235.15
924.85	1866.11
925.02	1915.26
925.19	2130.50
925.36	2040.39
925.54	1983.05
925.71	1918.54
925.88	2314.82
926.05	1873.28
926.22	1798.73
926.40	1860.17
926.57	1921.20
926.74	1963.18
926.91	1800.98
927.08	1977.93
927.26	2012.13
927.43	1910.75
927.60	1742.41
927.77	1859.76
927.94	2091.59
928.11	2044.28
928.29	1700.84
928.46	1856.89
928.63	1820.85
928.80	1868.77
928.97	1922.22
929.14	1751.01
929.32	2169.00
929.49	1891.50
929.66	1779.89
929.83	1726.23
930.00	1814.30
930.17	1909.73
930.35	1719.88
930.52	1781.32
930.69	2073.77
930.86	1751.42
931.03	1883.72
931.20	1638.78
931.37	2013.77
931.55	1838.46
931.72	1863.86
931.89	1698.59
932.06	1780.50
932.23	2051.86
932.40	1895.60
932.57	1882.49
932.74	2040.39
932.92	2022.37
933.09	1922.22
933.26	1560.14
933.43	1809.18
933.60	1891.91
933.77	1849.73
933.94	1874.92
934.11	1837.23
934.29	1890.07
934.46	1714.15
934.63	1900.11
934.80	1788.29
934.97	1926.52
935.14	1872.25
935.31	1767.81
935.48	1850.34
935.65	1948.23
935.82	1874.92
936.00	1734.42
936.17	2101.83
936.34	1867.95
936.51	1903.79
936.68	1712.10
936.85	1918.54
937.02	1918.74
937.19	1870.00
937.36	1800.16
937.53	1934.31
937.70	1989.81
937.87	1826.17
938.05	1925.71
938.22	1898.88
938.39	1755.72
938.56	1829.25
938.73	1733.40
938.90	1880.04
939.07	1798.94
939.24	1848.50
939.41	1668.48
939.58	1954.38
939.75	1919.77
939.92	1755.72
940.09	1937.38
940.26	1820.85
940.43	1991.24
940.60	1794.23
940.77	1781.32
940.95	1911.37
941.12	1978.75
941.29	1779.68
941.46	1810.61
941.63	2015.82
941.80	2035.48
941.97	1686.09
942.14	1700.22
942.31	1971.78
942.48	1844.81
942.65	1854.64
942.82	1838.26
942.99	1958.68
943.16	1881.88
943.33	1702.07
943.50	1756.75
943.67	1950.90
943.84	2025.44
944.01	1766.17
944.18	1744.25
944.35	2028.72
944.52	1772.72
944.69	1863.24
944.86	1679.54
945.03	1955.40
945.20	2195.22
945.37	1653.94
945.54	1806.51
945.71	2041.01
945.88	2087.08
946.05	1731.76
946.22	1718.25
946.39	2052.06
946.56	1849.52
946.73	1691.21
946.90	1734.22
947.07	1804.47
947.24	1841.74
947.41	1671.55
947.58	1915.26
947.75	1954.58
947.92	1913.83
948.09	1588.20
948.26	1680.97
948.43	1900.92
948.60	2102.04
948.77	1752.86
948.94	1768.01
949.11	1992.06
949.27	1959.29
949.44	1772.72
949.61	1765.35
949.78	1929.39
949.95	2010.49
950.12	1726.85
950.29	1675.03
950.46	1817.57
950.63	2022.78
950.80	1755.31
950.97	1825.97
951.14	2015.20
951.31	1836.82
951.48	1745.69
951.65	1716.20
951.82	2123.33
951.99	1910.55
952.15	1684.66
952.32	1776.82
952.49	1800.37
952.66	1790.33
952.83	1772.52
953.00	1740.98
953.17	1865.29
953.34	1974.45
953.51	1820.23
953.68	1791.77
953.85	2006.60
954.02	2002.91
954.18	1800.37
954.35	1812.25
954.52	1776.00
954.69	1893.35
954.86	1676.06
955.03	1806.92
955.20	1962.36
955.37	1846.04
955.54	1753.88
955.71	1750.19
955.87	1909.73
956.04	2099.78
956.21	1790.33
956.38	1737.70
956.55	1898.88
956.72	2176.58
956.89	1833.34
957.06	1749.78
957.23	1809.79
957.39	2044.90
957.56	1791.56
957.73	1727.87
957.90	1651.48
958.07	2105.52
958.24	1834.16
958.41	1780.71
958.57	1974.65
958.74	1865.09
958.91	1719.88
959.08	1767.19
959.25	1947.41
959.42	1826.79
959.59	1842.56
959.75	1781.73
959.92	2055.96
960.09	1996.77
960.26	1768.83
960.43	1825.15
960.60	1901.33
960.76	1838.05
960.93	1708.01
961.10	1856.48
961.27	2010.90
961.44	1811.63
961.61	1696.33
961.77	1723.37
961.94	1921.81
962.11	1979.16
962.28	1804.47
962.45	1701.66
962.62	1834.98
962.78	1992.88
962.95	1722.34
963.12	1785.62
963.29	1912.60
963.46	2232.49
963.62	1856.48
963.79	1777.43
963.96	2204.84
964.13	1860.99
964.30	1851.36
964.46	1774.56
964.63	1801.60
964.80	2341.44
964.97	1848.50
965.14	2220.82
965.30	2371.75
965.47	2497.09
965.64	2439.95
965.81	2349.02
965.98	2482.96
966.14	2198.49
966.31	2019.91
966.48	1993.49
966.65	2236.18
966.81	2109.20
966.98	1965.23
967.15	1979.77
967.32	2038.34
967.49	1904.41
967.65	1764.94
967.82	1765.55
967.99	1958.27
968.16	1789.92
968.32	2023.80
968.49	1858.53
968.66	1933.49
968.83	2142.79
968.99	1915.87
969.16	1778.25
969.33	2120.88
969.50	2011.11
969.66	1941.68
969.83	2017.04
970.00	1998.00
970.17	1939.63
970.33	1815.52
970.50	1710.46
970.67	2080.12
970.84	2070.50
971.00	1723.37
971.17	1705.14
971.34	1963.39
971.50	1881.67
971.67	1892.94
971.84	1836.82
972.01	1751.83
972.17	1632.44
972.34	1741.18
972.51	1877.99
972.67	2007.42
972.84	1896.62
973.01	1725.41
973.18	1740.98
973.34	1984.07
973.51	1776.00
973.68	1774.16
973.84	1789.72
974.01	1852.59
974.18	2078.07
974.34	1849.52
974.51	1847.47
974.68	1778.66
974.85	2120.88
975.01	1901.95
975.18	1808.77
975.35	1864.88
975.51	1819.42
975.68	1701.04
975.85	1894.58
976.01	1805.69
976.18	2070.91
976.35	1758.39
976.51	1733.61
976.68	2084.83
976.85	2020.53
977.01	1814.09
977.18	1882.49
977.35	1961.34
977.51	1762.28
977.68	1653.53
977.85	1747.74
978.01	2052.88
978.18	2011.72
978.35	1867.54
978.51	1857.10
978.68	2047.56
978.85	2148.32
979.01	1804.26
979.18	1856.89
979.34	1900.72
979.51	1936.15
979.68	1763.71
979.84	1850.75
980.01	2228.60
980.18	1911.57
980.34	1761.87
980.51	1888.23
980.67	2001.89
980.84	1963.18
981.01	1814.50
981.17	1869.18
981.34	1676.67
981.51	1980.39
981.67	1740.16
981.84	1911.57
982.00	1955.20
982.17	1892.94
982.34	1651.89
982.50	1604.17
982.67	2083.60
982.83	1827.81
983.00	1703.71
983.17	1611.55
983.33	2024.83
983.50	1708.62
983.66	1700.63
983.83	1597.83
984.00	1833.96
984.16	1889.05
984.33	1610.93
984.49	1590.45
984.66	1764.53
984.83	1977.31
984.99	1637.97
985.16	1612.16
985.32	1963.59
985.49	1978.75
985.65	1741.80
985.82	1615.85
985.99	2070.70
986.15	1893.96
986.32	1711.49
986.48	1662.13
986.65	1805.49
986.81	1946.59
986.98	1633.46
987.14	1699.61
987.31	1893.76
987.48	1716.81
987.64	1571.00
987.81	1586.97
987.97	2144.84
988.14	1796.68
988.30	1609.09
988.47	1532.29
988.63	1904.20
988.80	1731.97
988.96	1695.51
989.13	1718.66
989.30	1862.01
989.46	2013.36
989.63	1572.43
989.79	1602.74
989.96	1864.06
990.12	2060.87
990.29	1663.36
990.45	1684.45
990.62	1853.62
990.78	2017.04
990.95	1744.87
991.11	1652.92
991.28	1827.81
991.44	1916.69
991.61	1541.71
991.77	1686.09
991.94	1860.99
992.10	2010.29
992.27	1725.62
992.43	1650.87
992.60	1945.16
992.76	1819.62
992.93	1757.16
993.09	1630.18
993.26	2000.66
993.42	2095.69
993.59	1640.83
993.75	1579.80
993.92	1771.29
994.08	1777.23
994.25	1729.30
994.41	1617.90
994.58	1951.30
994.74	2035.27
994.91	1609.29
995.07	1702.27
995.24	1847.68
995.40	1878.60
995.56	1773.13
995.73	1733.81
995.89	2091.80
996.06	1821.05
996.22	1635.10
996.39	1562.19
996.55	1854.44
996.72	1917.10
996.88	1548.06
997.05	1640.22
997.21	2114.53
997.37	1908.71
997.54	1709.85
997.70	1681.18
997.87	1939.63
998.03	1864.47
998.20	1569.36
998.36	1562.60
998.52	1973.42
998.69	1974.86
998.85	1578.78
999.02	1655.78
999.18	1981.41
999.35	1989.19
999.51	1676.88
999.67	1658.04
999.84	1746.92
1000.00	1976.90
1000.17	1718.66
1000.33	1607.04
1000.49	1815.52
1000.66	1837.03
1000.82	1643.70
1000.99	1717.84
1001.15	2001.68
1001.31	1844.61
1001.48	1670.73
1001.64	1722.34
1001.81	1840.92
1001.97	2137.87
1002.13	1651.28
1002.30	1635.10
1002.46	2029.95
1002.63	1845.02
1002.79	1738.52
1002.95	1637.56
1003.12	1988.17
1003.28	1927.14
1003.45	1630.18
1003.61	1618.92
1003.77	1895.19
1003.94	1691.42
1004.10	1665.20
1004.26	1688.76
1004.43	1956.63
1004.59	2073.57
1004.75	1643.09
1004.92	1632.23
1005.08	1838.46
1005.25	1927.55
1005.41	1651.48
1005.57	1703.50
1005.74	2023.19
1005.90	1809.18
1006.06	1733.20
1006.23	1632.03
1006.39	1958.27
1006.55	2209.14
1006.72	1804.87
1006.88	1590.25
1007.04	1781.94
1007.21	1839.08
1007.37	1674.83
1007.53	1644.93
1007.70	2087.29
1007.86	1999.64
1008.02	1687.53
1008.19	1623.02
1008.35	1911.98
1008.51	1771.49
1008.68	1662.13
1008.84	1583.28
1009.00	1770.88
1009.17	1998.41
1009.33	1763.10
1009.49	1706.37
1009.65	1776.20
1009.82	1912.80
1009.98	1704.11
1010.14	1565.06
1010.31	1952.12
1010.47	1901.95
1010.63	1731.56
1010.80	1722.34
1010.96	1919.77
1011.12	1841.74
1011.28	1637.97
1011.45	1663.57
1011.61	2206.89
1011.77	1755.52
1011.94	1639.19
1012.10	1567.92
1012.26	1773.95
1012.42	1800.16
1012.59	1717.84
1012.75	1710.05
1012.91	1856.28
1013.07	1991.85
1013.24	1598.23
1013.40	1620.15
1013.56	1876.96
1013.72	1842.15
1013.89	1712.72
1014.05	1693.47
1014.21	2122.72
1014.37	2164.50
1014.54	1679.74
1014.70	1639.19
1014.86	1852.59
1015.02	1741.80
1015.19	1642.27
1015.35	1613.80
1015.51	1860.78
1015.67	1814.71
1015.84	1650.46
1016.00	1640.83
1016.16	1998.82
1016.32	1994.52
1016.49	1662.34
1016.65	1631.62
1016.81	1850.34
1016.97	1926.93
1017.14	1745.07
1017.30	1670.32
1017.46	1795.04
1017.62	1908.09
1017.78	1730.94
1017.95	1616.46
1018.11	1986.32
1018.27	2181.70
1018.43	1766.78
1018.59	1714.35
1018.76	1961.13
1018.92	2197.27
1019.08	1642.68
1019.24	1659.47
1019.40	2054.73
1019.57	1889.66
1019.73	1743.03
1019.89	1660.29
1020.05	1891.91
1020.21	2143.81
1020.38	1616.67
1020.54	1793.41
1020.70	1944.14
1020.86	1958.47
1021.02	1659.67
1021.18	1638.58
1021.35	1798.73
1021.51	1950.08
1021.67	1769.85
1021.83	1665.00
1021.99	1860.58
1022.15	1913.42
1022.32	1742.00
1022.48	1716.20
1022.64	2046.94
1022.80	2073.16
1022.96	1717.84
1023.12	1572.84
1023.29	1992.47
1023.45	1938.81
1023.61	1619.12
1023.77	1811.22
1023.93	1897.65
1024.09	1769.85
1024.25	1629.36
1024.42	1607.25
1024.58	1825.97
1024.74	1914.24
1024.90	1665.20
1025.06	1711.49
1025.22	1824.74
1025.38	2067.42
1025.54	1611.55
1025.71	1725.41
1025.87	1927.96
1026.03	1937.38
1026.19	1621.17
1026.35	1763.92
1026.51	1934.92
1026.67	1871.23
1026.83	1685.48
1026.99	1749.99
1027.16	1938.40
1027.32	2032.40
1027.48	1680.97
1027.64	1630.80
1027.80	1933.49
1027.96	1887.61
1028.12	1672.17
1028.28	1637.76
1028.44	1919.77
1028.60	2064.15
1028.77	1795.45
1028.93	1680.15
1029.09	1833.34
1029.25	1769.04
1029.41	1694.49
1029.57	1747.33
1029.73	1900.72
1029.89	2069.68
1030.05	1777.64
1030.21	1738.73
1030.37	2169.82
1030.53	1962.77
1030.69	1680.56
1030.85	1617.08
1031.02	1772.72
1031.18	1893.96
1031.34	1699.40
1031.50	1735.24
1031.66	1768.22
1031.82	2069.47
1031.98	1696.74
1032.14	1626.50
1032.30	1756.54
1032.46	1984.07
1032.62	1769.85
1032.78	1607.86
1032.94	1788.08
1033.10	1832.73
1033.26	1695.10
1033.42	1760.64
1033.58	2135.21
1033.74	1804.06
1033.90	1640.22
1034.06	1858.53
1034.22	2175.76
1034.38	2011.92
1034.54	1688.55
1034.70	1696.54
1034.86	2061.08
>>>>>End Processed Spectral Data<<<<<
