SpectraSuite Data File
++++++++++++++++++++++++++++++++++++
Date: Thu Mar 30 14:15:54 PDT 2017
User: UCSD _CER
Dark Spectrum Present: No
Reference Spectrum Present: No
Number of Sampled Component Spectra: 1
Spectrometers: USB4C00073
Integration Time (usec): 380000 (USB4C00073)
Spectra Averaged: 10 (USB4C00073)
Boxcar Smoothing: 0 (USB4C00073)
Correct for Electrical Dark: No (USB4C00073)
Strobe/Lamp Enabled: No (USB4C00073)
Correct for Detector Non-linearity: No (USB4C00073)
Correct for Stray Light: No (USB4C00073)
Number of Pixels in Processed Spectrum: 3648
>>>>>Begin Processed Spectral Data<<<<<
345.37	1206.46
345.58	1206.46
345.80	1206.46
346.01	1215.67
346.22	1205.43
346.43	2018.27
346.65	1868.16
346.86	2389.37
347.07	2313.39
347.28	1816.75
347.50	1793.20
347.71	2082.99
347.92	1814.71
348.13	1770.47
348.35	1732.38
348.56	2093.64
348.77	1888.43
348.98	1791.97
349.20	1652.30
349.41	2107.16
349.62	2253.58
349.83	1910.75
350.05	1779.28
350.26	2155.90
350.47	2261.16
350.68	1830.88
350.90	1722.75
351.11	2327.31
351.32	2293.32
351.53	1828.43
351.75	1748.15
351.96	2132.75
352.17	2050.84
352.38	1883.52
352.60	1879.22
352.81	2072.95
353.02	2383.63
353.23	1778.46
353.44	1805.49
353.66	2016.43
353.87	2013.56
354.08	1886.59
354.29	1794.43
354.51	1961.95
354.72	2002.09
354.93	1777.02
355.14	1771.70
355.35	1798.12
355.57	2221.43
355.78	1815.32
355.99	1858.12
356.20	2050.63
356.42	2045.72
356.63	1865.09
356.84	1778.25
357.05	2206.89
357.26	2425.20
357.48	1914.44
357.69	1857.51
357.90	2145.66
358.11	2007.83
358.32	1842.15
358.54	1850.75
358.75	2044.28
358.96	2187.23
359.17	1797.91
359.38	1827.61
359.60	2162.86
359.81	2068.65
360.02	1812.04
360.23	1745.69
360.44	1951.92
360.66	2239.45
360.87	1774.77
361.08	1798.73
361.29	2126.82
361.50	2100.81
361.72	1779.48
361.93	1882.49
362.14	2092.82
362.35	1832.73
362.56	1947.62
362.77	1706.37
362.99	2151.39
363.20	2061.28
363.41	1878.40
363.62	1675.65
363.83	2117.39
364.05	2239.04
364.26	1726.64
364.47	1775.38
364.68	2239.86
364.89	1942.70
365.10	1708.42
365.32	1854.23
365.53	1942.70
365.74	1979.77
365.95	1821.05
366.16	1677.70
366.37	2054.93
366.59	2020.73
366.80	1798.73
367.01	1689.37
367.22	2401.45
367.43	2530.47
367.64	1865.70
367.86	1819.01
368.07	2162.25
368.28	2279.80
368.49	1714.76
368.70	1839.69
368.91	2028.92
369.12	2030.77
369.34	1735.45
369.55	1704.73
369.76	2080.53
369.97	1998.82
370.18	1729.92
370.39	1770.67
370.60	1860.17
370.82	1905.63
371.03	1830.47
371.24	1780.50
371.45	2189.69
371.66	2192.96
371.87	1792.18
372.08	1834.16
372.30	1910.35
372.51	2256.66
372.72	1946.59
372.93	1821.87
373.14	2344.72
373.35	1970.35
373.56	1722.14
373.78	1835.18
373.99	2224.30
374.20	2529.86
374.41	1784.80
374.62	1801.80
374.83	2333.66
375.04	2013.56
375.25	1822.90
375.47	1830.06
375.68	1984.28
375.89	2170.23
376.10	1808.36
376.31	1904.82
376.52	2127.43
376.73	2161.63
376.94	1854.64
377.15	1774.16
377.37	2081.15
377.58	2027.49
377.79	1701.25
378.00	1769.04
378.21	2123.74
378.42	2166.75
378.63	1874.92
378.84	1906.86
379.05	2259.11
379.27	2108.59
379.48	1906.45
379.69	1771.49
379.90	2290.86
380.11	1771.70
380.32	1833.96
380.53	1956.63
380.74	2310.31
380.95	2095.28
381.16	1864.27
381.37	1865.09
381.59	2331.20
381.80	2232.70
382.01	1815.73
382.22	1713.33
382.43	2148.93
382.64	2049.20
382.85	1736.68
383.06	1899.08
383.27	2156.51
383.48	2022.78
383.69	1841.53
383.91	1747.74
384.12	2199.31
384.33	2216.52
384.54	1854.03
384.75	1772.72
384.96	2615.87
385.17	2241.30
385.38	1824.94
385.59	1787.67
385.80	2199.31
386.01	2345.54
386.22	1941.27
386.43	1835.80
386.64	2445.07
386.86	2057.80
387.07	1949.26
387.28	1729.71
387.49	1996.97
387.70	2282.46
387.91	1944.55
388.12	1796.89
388.33	2159.38
388.54	2027.49
388.75	1786.65
388.96	1897.65
389.17	1978.95
389.38	2040.80
389.59	1905.43
389.80	1921.61
390.01	2064.76
390.22	2010.90
390.43	1924.68
390.64	1712.51
390.86	2154.46
391.07	2270.58
391.28	1829.04
391.49	1869.80
391.70	1871.02
391.91	1945.57
392.12	1833.96
392.33	1890.68
392.54	2098.76
392.75	2052.06
392.96	1907.07
393.17	1822.90
393.38	2445.68
393.59	2260.34
393.80	1745.07
394.01	1839.49
394.22	2048.58
394.43	2385.06
394.64	1744.25
394.85	1883.31
395.06	2047.97
395.27	2081.76
395.48	1835.80
395.69	1701.45
395.90	2065.58
396.11	2068.24
396.32	1794.43
396.53	1927.34
396.74	2010.90
396.95	2225.73
397.16	1801.60
397.37	1704.11
397.58	2246.01
397.79	2065.79
398.00	1862.42
398.21	1833.14
398.42	2112.27
398.63	2434.01
398.84	1798.53
399.05	1793.00
399.26	2285.74
399.47	2141.77
399.68	1658.45
399.89	1776.41
400.10	1872.25
400.31	1990.63
400.52	1861.81
400.73	1791.77
400.94	1846.45
401.15	2138.28
401.36	1843.79
401.57	1869.18
401.78	2302.94
401.99	2281.64
402.20	1745.28
402.41	1959.29
402.62	2326.90
402.83	2041.42
403.04	1757.36
403.25	2023.19
403.46	2101.22
403.67	2282.05
403.88	1813.27
404.09	1774.97
404.30	1956.01
404.51	1930.62
404.72	1736.47
404.93	1948.64
405.14	1943.11
405.35	2062.10
405.56	1864.88
405.77	1772.72
405.98	2080.74
406.19	2023.39
406.40	1761.25
406.61	1820.85
406.82	2002.71
407.03	2479.07
407.24	1763.92
407.45	1843.58
407.66	2129.89
407.87	2276.52
408.08	1922.84
408.29	1895.80
408.49	2188.46
408.70	2082.37
408.91	1799.75
409.12	1958.47
409.33	1913.62
409.54	2282.67
409.75	1789.72
409.96	1813.89
410.17	2216.93
410.38	2041.82
410.59	1807.33
410.80	1941.88
411.01	2071.11
411.22	2039.57
411.43	1878.60
411.64	1797.91
411.85	1918.74
412.06	1912.80
412.27	1631.62
412.47	1769.24
412.68	2054.32
412.89	2118.01
413.10	1800.98
413.31	1732.99
413.52	2398.99
413.73	2403.09
413.94	1780.30
414.15	1961.75
414.36	1984.89
414.57	1926.11
414.78	1726.85
414.99	1735.04
415.19	2157.74
415.40	2063.12
415.61	1974.86
415.82	1891.30
416.03	2179.04
416.24	2135.62
416.45	1813.48
416.66	1732.99
416.87	1857.30
417.08	2147.50
417.29	1750.40
417.50	1868.57
417.70	2144.02
417.91	2126.00
418.12	1862.83
418.33	1818.19
418.54	2152.21
418.75	2239.45
418.96	1925.30
419.17	1873.89
419.38	2275.91
419.59	2132.75
419.79	1913.42
420.00	1851.36
420.21	2538.25
420.42	2079.30
420.63	1795.04
420.84	1866.93
421.05	2062.30
421.26	2081.76
421.47	1754.90
421.67	2158.76
421.88	1941.68
422.09	1895.60
422.30	2041.01
422.51	1851.57
422.72	2386.70
422.93	2203.41
423.14	1866.52
423.35	1725.41
423.55	1834.98
423.76	1931.03
423.97	1815.52
424.18	1677.49
424.39	1999.43
424.60	2207.10
424.81	1816.75
425.02	1917.72
425.22	1989.60
425.43	2018.89
425.64	2013.36
425.85	1848.29
426.06	2437.29
426.27	2233.92
426.48	1913.42
426.68	1921.20
426.89	2226.35
427.10	2380.56
427.31	1857.51
427.52	1800.37
427.73	2186.41
427.94	2122.51
428.14	1988.37
428.35	1910.14
428.56	2328.54
428.77	2212.63
428.98	1882.08
429.19	1843.99
429.40	1993.49
429.60	2027.28
429.81	1958.27
430.02	1889.05
430.23	2068.45
430.44	2222.87
430.65	1777.64
430.85	1826.17
431.06	2168.59
431.27	1823.72
431.48	1831.09
431.69	1859.15
431.90	2071.32
432.10	2074.18
432.31	1896.42
432.52	1821.67
432.73	2495.25
432.94	2329.77
433.15	1978.95
433.35	1826.17
433.56	2288.40
433.77	2104.70
433.98	2091.80
434.19	1965.85
434.40	2308.68
434.60	2264.44
434.81	2088.93
435.02	2032.61
435.23	2150.16
435.44	2024.62
435.64	1788.70
435.85	1782.76
436.06	2026.26
436.27	2007.21
436.48	1762.07
436.68	1827.20
436.89	2408.41
437.10	2222.66
437.31	1943.52
437.52	2035.07
437.73	2184.16
437.93	2190.92
438.14	1954.58
438.35	1760.43
438.56	2013.77
438.77	2042.44
438.97	2022.57
439.18	1819.42
439.39	2253.79
439.60	1888.23
439.80	1799.75
440.01	1835.59
440.22	2015.20
440.43	2178.42
440.64	1785.83
440.84	1880.44
441.05	1894.17
441.26	2554.23
441.47	1933.28
441.68	1882.29
441.88	2179.45
442.09	2189.69
442.30	2183.13
442.51	2199.72
442.71	2240.48
442.92	2278.16
443.13	1963.18
443.34	1880.44
443.55	1974.24
443.75	2177.40
443.96	1814.91
444.17	1768.22
444.38	2229.21
444.58	1908.50
444.79	1958.88
445.00	1896.21
445.21	2040.80
445.41	2001.07
445.62	1670.32
445.83	1937.99
446.04	2091.39
446.24	1870.61
446.45	1662.95
446.66	1859.56
446.87	2131.12
447.07	1976.49
447.28	2061.69
447.49	1843.38
447.70	2225.73
447.90	2260.14
448.11	1894.99
448.32	1956.83
448.53	2312.77
448.73	2283.89
448.94	1846.24
449.15	2007.21
449.36	2067.42
449.56	2112.07
449.77	1855.87
449.98	1757.36
450.19	1975.27
450.39	2013.97
450.60	1918.54
450.81	1916.49
451.02	2040.80
451.22	2313.80
451.43	1811.02
451.64	1811.63
451.84	2000.66
452.05	2269.35
452.26	1868.98
452.47	1873.07
452.67	2000.66
452.88	2300.07
453.09	1764.33
453.30	1790.54
453.50	2226.55
453.71	2426.84
453.92	1969.74
454.12	2118.01
454.33	2117.19
454.54	2169.82
454.75	1899.29
454.95	1843.79
455.16	2147.50
455.37	2147.91
455.57	1972.19
455.78	1893.55
455.99	2075.62
456.19	2093.23
456.40	1788.08
456.61	1877.17
456.82	2097.94
457.02	2259.93
457.23	2022.57
457.44	2174.74
457.64	2155.69
457.85	2299.46
458.06	1978.13
458.26	1944.96
458.47	2094.25
458.68	2252.15
458.89	1838.87
459.09	2013.15
459.30	2422.54
459.51	2095.48
459.71	1735.04
459.92	1825.97
460.13	2237.41
460.33	2460.22
460.54	1916.69
460.75	1916.28
460.95	1915.26
461.16	2149.14
461.37	1889.87
461.57	1868.57
461.78	2100.60
461.99	1899.90
462.19	2103.26
462.40	1813.48
462.61	2445.68
462.81	2232.29
463.02	1812.66
463.23	1835.18
463.43	2207.30
463.64	1963.18
463.85	3076.87
464.05	1821.46
464.26	2585.15
464.47	2296.18
464.67	2025.85
464.88	1999.02
465.09	2040.19
465.29	2218.56
465.50	2116.37
465.71	2031.99
465.91	2062.30
466.12	2111.66
466.33	1932.26
466.53	1874.51
466.74	2330.18
466.94	2072.54
467.15	1919.77
467.36	2067.42
467.56	1897.65
467.77	2110.43
467.98	1899.29
468.18	1864.27
468.39	1989.40
468.60	2398.79
468.80	1867.75
469.01	1787.47
469.21	2165.52
469.42	2295.36
469.63	1863.86
469.83	1812.04
470.04	2196.45
470.25	2314.00
470.45	1969.94
470.66	1850.34
470.86	2121.70
471.07	2012.54
471.28	1955.20
471.48	1967.89
471.69	2090.98
471.90	2787.49
472.10	2060.87
472.31	2058.21
472.51	2207.71
472.72	2179.45
472.93	1971.17
473.13	2069.27
473.34	2261.57
473.54	2167.37
473.75	1985.92
473.96	2105.31
474.16	2080.33
474.37	2173.10
474.57	1961.75
474.78	1816.96
474.99	2155.08
475.19	2066.81
475.40	1891.50
475.60	1854.03
475.81	2507.94
476.02	2255.02
476.22	2154.26
476.43	2216.11
476.63	2170.64
476.84	2344.51
477.05	1771.29
477.25	1870.82
477.46	2642.90
477.66	2113.91
477.87	1829.45
478.08	1880.44
478.28	2234.95
478.49	2028.51
478.69	1841.53
478.90	1867.34
479.10	2172.08
479.31	2397.76
479.52	1940.86
479.72	1992.47
479.93	2232.08
480.13	2045.92
480.34	1945.78
480.54	1992.26
480.75	1979.36
480.96	2292.50
481.16	1839.69
481.37	1992.47
481.57	2225.73
481.78	2197.68
481.98	2079.92
482.19	1978.95
482.40	2368.48
482.60	2175.35
482.81	1995.54
483.01	1783.37
483.22	2236.38
483.42	2219.79
483.63	1968.51
483.83	1909.53
484.04	2004.35
484.24	2225.12
484.45	2050.63
484.66	1854.03
484.86	2166.14
485.07	1955.40
485.27	1973.63
485.48	1823.10
485.68	2276.52
485.89	1957.04
486.09	1988.78
486.30	1844.20
486.50	2105.93
486.71	2039.37
486.91	1958.47
487.12	2186.41
487.33	2753.70
487.53	2849.75
487.74	2522.89
487.94	2407.39
488.15	2422.13
488.35	2352.71
488.56	2043.46
488.76	1963.80
488.97	2139.31
489.17	2260.75
489.38	2008.65
489.58	1927.96
489.79	2195.42
489.99	2125.59
490.20	1929.80
490.40	2004.55
490.61	2158.56
490.81	1997.79
491.02	1932.46
491.22	1919.15
491.43	2175.76
491.63	2054.73
491.84	2025.44
492.04	1805.08
492.25	2158.35
492.45	2035.27
492.66	1862.42
492.86	1822.69
493.07	2045.92
493.27	2442.20
493.48	1787.06
493.68	1857.51
493.89	2014.79
494.09	2201.57
494.30	1880.04
494.50	2106.13
494.71	2149.34
494.91	1837.44
495.12	1896.01
495.32	1948.85
495.53	2094.05
495.73	1889.46
495.94	2094.25
496.14	1931.85
496.35	2618.74
496.55	2224.71
496.76	1946.80
496.96	1990.83
497.17	2093.23
497.37	2128.25
497.58	1919.77
497.78	1809.59
497.98	2012.95
498.19	2019.30
498.39	1910.75
498.60	1948.03
498.80	1793.61
499.01	2180.27
499.21	1804.67
499.42	1924.89
499.62	2046.74
499.83	2438.11
500.03	1766.78
500.24	1996.77
500.44	2315.84
500.64	2253.38
500.85	1891.50
501.05	2017.25
501.26	1829.45
501.46	2285.74
501.67	1835.59
501.87	1815.93
502.08	1950.69
502.28	2016.02
502.48	1988.58
502.69	1991.44
502.89	1820.23
503.10	1947.82
503.30	1958.27
503.51	1932.05
503.71	1850.75
503.92	2130.91
504.12	1930.42
504.32	1862.22
504.53	2179.04
504.73	2136.44
504.94	2043.67
505.14	2141.36
505.35	2163.27
505.55	2123.13
505.75	1930.82
505.96	2084.83
506.16	2410.46
506.37	2013.15
506.57	1826.38
506.78	1969.74
506.98	2232.08
507.18	1865.90
507.39	1814.91
507.59	1899.70
507.80	1978.13
508.00	2076.23
508.20	2096.92
508.41	1910.35
508.61	2280.41
508.82	2236.59
509.02	2032.81
509.22	1863.65
509.43	1910.96
509.63	1992.47
509.84	1911.37
510.04	1774.36
510.24	2304.37
510.45	2185.39
510.65	1816.34
510.86	1969.12
511.06	1879.01
511.26	2207.51
511.47	2060.46
511.67	1871.23
511.88	2168.39
512.08	2242.12
512.28	1796.68
512.49	1970.56
512.69	2126.61
512.90	2097.32
513.10	1885.97
513.30	1975.47
513.51	2168.59
513.71	2348.20
513.91	2011.92
514.12	1970.15
514.32	2234.13
514.53	1968.30
514.73	1969.74
514.93	1900.72
515.14	2039.37
515.34	2275.29
515.54	1853.41
515.75	1945.16
515.95	2175.15
516.15	2273.04
516.36	1944.96
516.56	1975.68
516.77	1729.51
516.97	2142.38
517.17	1905.63
517.38	1987.76
517.58	2336.94
517.78	2048.58
517.99	1979.16
518.19	1890.07
518.39	2236.38
518.60	1973.42
518.80	1814.71
519.00	1973.01
519.21	2008.44
519.41	2371.55
519.61	1850.13
519.82	2008.44
520.02	2066.81
520.22	2061.49
520.43	1880.65
520.63	1983.66
520.83	1941.47
521.04	1798.32
521.24	1994.31
521.44	1901.74
521.65	1906.25
521.85	2172.69
522.05	1849.52
522.26	1843.58
522.46	2367.25
522.66	2188.05
522.87	1919.97
523.07	2085.04
523.27	1975.06
523.48	2314.00
523.68	1932.46
523.88	1970.15
524.09	2259.32
524.29	2121.29
524.49	1766.78
524.70	2011.31
524.90	2290.24
525.10	2156.51
525.31	1806.92
525.51	1802.01
525.71	2215.08
525.91	2158.35
526.12	1916.69
526.32	1819.62
526.52	1998.00
526.73	1968.30
526.93	1963.59
527.13	1795.86
527.34	2047.35
527.54	2034.86
527.74	1932.26
527.94	1803.65
528.15	1900.31
528.35	2064.35
528.55	1995.54
528.76	1940.66
528.96	1798.73
529.16	2223.68
529.36	2041.01
529.57	1800.37
529.77	2256.86
529.97	1915.47
530.18	2002.50
530.38	1884.13
530.58	2164.29
530.78	2098.14
530.99	1892.94
531.19	1988.17
531.39	1949.87
531.60	2057.80
531.80	1935.74
532.00	2033.63
532.20	2071.32
532.41	1967.07
532.61	1873.69
532.81	1859.56
533.01	2011.11
533.22	2130.50
533.42	2031.99
533.62	1803.65
533.82	2290.65
534.03	2022.37
534.23	2011.51
534.43	1858.53
534.63	1977.93
534.84	2092.61
535.04	1993.90
535.24	1964.82
535.44	2508.15
535.65	1995.54
535.85	1873.69
536.05	1828.84
536.25	2056.37
536.46	1901.13
536.66	2049.20
536.86	1945.16
537.06	2163.27
537.27	2275.09
537.47	1968.10
537.67	1895.19
537.87	2317.69
538.08	2068.45
538.28	1806.92
538.48	1796.07
538.68	2064.76
538.88	2192.15
539.09	1791.36
539.29	1905.84
539.49	2189.69
539.69	2115.96
539.90	1997.18
540.10	1818.80
540.30	2308.88
540.50	1986.73
540.70	1755.31
540.91	1864.68
541.11	2199.52
541.31	2300.89
541.51	1967.28
541.72	1991.44
541.92	2104.08
542.12	1949.67
542.32	1944.14
542.52	1895.19
542.73	1959.91
542.93	2128.04
543.13	1922.22
543.33	1993.49
543.53	2180.88
543.74	2163.27
543.94	1897.44
544.14	2013.36
544.34	2238.43
544.54	2044.90
544.75	1979.98
544.95	2097.53
545.15	2196.86
545.35	2303.76
545.55	2067.42
545.75	1905.43
545.96	2419.88
546.16	1954.38
546.36	1928.16
546.56	1965.44
546.76	2228.39
546.97	2365.20
547.17	1941.68
547.37	2013.15
547.57	1984.48
547.77	2220.20
547.97	2006.60
548.18	2006.39
548.38	2061.28
548.58	2264.23
548.78	1851.98
548.98	1919.56
549.18	2180.68
549.39	2304.78
549.59	1981.82
549.79	1949.67
549.99	2279.59
550.19	2215.29
550.39	2072.75
550.60	1962.57
550.80	2103.67
551.00	2161.63
551.20	1916.28
551.40	1908.30
551.60	2139.10
551.80	2121.49
552.01	2000.05
552.21	1914.65
552.41	2106.54
552.61	2395.71
552.81	2013.97
553.01	1869.18
553.21	2150.16
553.42	1956.83
553.62	1893.35
553.82	1829.04
554.02	2318.71
554.22	2213.44
554.42	1816.75
554.62	2054.32
554.83	2323.63
555.03	2289.42
555.23	1964.41
555.43	2156.72
555.63	2037.52
555.83	2065.79
556.03	2000.87
556.23	1783.78
556.44	2087.90
556.64	2242.12
556.84	1680.56
557.04	1911.98
557.24	2051.04
557.44	2056.37
557.64	1971.37
557.84	1834.98
558.04	1999.23
558.25	2173.30
558.45	1853.82
558.65	1968.71
558.85	2063.94
559.05	1803.24
559.25	1943.93
559.45	1998.41
559.65	2402.88
559.85	2840.53
560.05	1944.14
560.26	1994.11
560.46	1997.59
560.66	1956.83
560.86	1894.37
561.06	1860.78
561.26	2281.23
561.46	2142.58
561.66	1891.50
561.86	2038.96
562.06	1925.91
562.26	2044.28
562.47	1973.01
562.67	1836.41
562.87	2181.50
563.07	1866.31
563.27	1963.39
563.47	1966.66
563.67	2008.44
563.87	2167.16
564.07	1861.40
564.27	1946.80
564.47	2069.68
564.67	2079.10
564.87	1870.41
565.08	1977.72
565.28	1951.51
565.48	2153.23
565.68	1986.12
565.88	2058.62
566.08	2384.04
566.28	2063.12
566.48	1783.99
566.68	1929.60
566.88	2055.55
567.08	2184.57
567.28	1995.95
567.48	1931.85
567.68	2109.20
567.88	1874.92
568.08	1961.95
568.28	2073.77
568.48	2061.08
568.68	2279.59
568.89	1963.18
569.09	1797.30
569.29	2220.41
569.49	2200.95
569.69	1877.78
569.89	1851.77
570.09	1779.89
570.29	1948.03
570.49	1817.78
570.69	1901.74
570.89	2226.35
571.09	2445.07
571.29	1835.80
571.49	2098.55
571.69	2123.95
571.89	2155.28
572.09	1956.42
572.29	1979.77
572.49	2220.20
572.69	2165.11
572.89	1970.15
573.09	1657.63
573.29	2044.49
573.49	2059.23
573.69	1902.56
573.89	1985.92
574.09	1951.71
574.29	2277.14
574.49	1925.71
574.69	1834.57
574.89	1915.67
575.09	1903.59
575.29	1824.13
575.49	1932.26
575.69	2125.18
575.89	1872.25
576.09	1940.25
576.29	1966.66
576.49	1899.29
576.69	2029.33
576.89	1900.72
577.09	1981.61
577.29	1824.33
577.49	2365.61
577.69	1891.09
577.89	2069.47
578.09	2061.08
578.29	1838.26
578.49	1957.45
578.69	1871.23
578.89	2210.78
579.09	2033.43
579.29	1867.95
579.49	2046.33
579.69	2020.32
579.89	2337.14
580.09	1725.41
580.29	1776.41
580.49	1980.18
580.69	1882.08
580.89	1892.12
581.09	1902.77
581.29	1981.82
581.49	2048.99
581.69	1830.47
581.89	1878.40
582.09	1910.14
582.28	1921.61
582.48	2012.33
582.68	2064.97
582.88	2255.43
583.08	2028.92
583.28	1925.91
583.48	1942.50
583.68	1922.43
583.88	2036.30
584.08	1960.73
584.28	2001.28
584.48	2407.59
584.68	2118.83
584.88	1907.68
585.08	2131.53
585.28	2211.81
585.48	2259.11
585.68	2016.23
585.87	2055.34
586.07	2144.02
586.27	2021.55
586.47	2003.32
586.67	1918.33
586.87	2050.02
587.07	1979.36
587.27	1826.79
587.47	1977.11
587.67	2344.92
587.87	2494.22
588.07	1993.90
588.27	1873.89
588.46	2171.67
588.66	2186.21
588.86	1921.20
589.06	1981.61
589.26	2187.44
589.46	2175.97
589.66	1873.69
589.86	1834.78
590.06	1984.28
590.26	2121.29
590.46	1887.61
590.66	1995.34
590.85	1931.44
591.05	2063.12
591.25	1827.20
591.45	1923.66
591.65	2110.43
591.85	2040.39
592.05	1886.38
592.25	2001.07
592.45	2196.45
592.64	2001.48
592.84	1946.80
593.04	1853.82
593.24	2498.11
593.44	1982.64
593.64	1958.88
593.84	2010.49
594.04	1977.52
594.24	2324.03
594.43	1908.71
594.63	1947.82
594.83	2207.10
595.03	2233.31
595.23	1863.65
595.43	1826.99
595.63	1942.91
595.83	2227.99
596.02	1722.75
596.22	1950.08
596.42	2101.63
596.62	2046.94
596.82	1889.05
597.02	1998.00
597.22	2304.37
597.41	2081.35
597.61	1888.84
597.81	2023.60
598.01	2179.45
598.21	2003.53
598.41	1819.62
598.61	1832.52
598.80	2071.32
599.00	2070.50
599.20	2065.17
599.40	1922.22
599.60	2007.21
599.80	2187.03
599.99	2072.75
600.19	1895.40
600.39	2052.27
600.59	2145.66
600.79	2014.79
600.99	1972.60
601.19	2333.87
601.38	2399.60
601.58	2020.73
601.78	1711.49
601.98	2116.99
602.18	2078.48
602.37	2172.49
602.57	1951.51
602.77	2158.15
602.97	2063.53
603.17	2111.87
603.37	2005.99
603.56	2219.79
603.76	2121.29
603.96	1973.22
604.16	1976.70
604.36	2285.33
604.56	2214.26
604.75	1866.11
604.95	1970.15
605.15	2247.03
605.35	2190.10
605.55	1892.32
605.74	1862.22
605.94	2251.13
606.14	2065.58
606.34	1940.66
606.54	1987.96
606.73	1994.11
606.93	2200.13
607.13	1901.13
607.33	2001.89
607.53	2359.26
607.72	2221.02
607.92	2020.94
608.12	2081.35
608.32	2043.26
608.51	2197.27
608.71	1872.66
608.91	2009.06
609.11	2182.32
609.31	2008.24
609.50	1936.15
609.70	2147.70
609.90	2192.56
610.10	2217.75
610.29	1927.55
610.49	1844.61
610.69	2167.37
610.89	2071.73
611.09	1959.29
611.28	2141.36
611.48	2241.50
611.68	2043.05
611.88	1901.74
612.07	1860.78
612.27	2186.21
612.47	1959.09
612.67	2004.35
612.86	2086.47
613.06	2046.74
613.26	1823.92
613.46	1880.65
613.65	1999.64
613.85	2527.40
614.05	2147.30
614.25	2011.92
614.44	1950.08
614.64	2055.96
614.84	1970.56
615.04	1859.15
615.23	1937.38
615.43	2142.79
615.63	2156.10
615.83	1866.31
616.02	1782.14
616.22	2159.17
616.42	1842.15
616.62	1806.51
616.81	1953.35
617.01	2065.58
617.21	1997.18
617.41	1811.84
617.60	1954.79
617.80	2150.98
618.00	2167.16
618.19	2042.64
618.39	1956.01
618.59	2170.64
618.79	2064.56
618.98	1791.97
619.18	1924.07
619.38	2450.80
619.57	2026.67
619.77	1951.10
619.97	1912.19
620.17	1972.40
620.36	1862.22
620.56	2092.00
620.76	1819.42
620.95	1864.88
621.15	1980.80
621.35	1846.65
621.54	1952.53
621.74	2088.72
621.94	1933.28
622.14	1819.83
622.33	1797.91
622.53	2026.87
622.73	2009.26
622.92	1796.27
623.12	1905.23
623.32	2413.12
623.51	2192.15
623.71	1818.19
623.91	2104.90
624.10	1922.43
624.30	2072.75
624.50	1808.36
624.69	1800.16
624.89	2695.33
625.09	1989.81
625.29	1705.75
625.48	1815.32
625.68	2105.31
625.88	2248.46
626.07	2006.19
626.27	1873.89
626.47	1999.84
626.66	1806.72
626.86	1951.71
627.06	1929.19
627.25	2066.81
627.45	2338.37
627.64	1928.57
627.84	2124.36
628.04	1951.92
628.23	2394.08
628.43	1822.08
628.63	1860.99
628.82	1951.71
629.02	2360.49
629.22	1975.27
629.41	2084.83
629.61	2064.76
629.81	2378.10
630.00	1866.93
630.20	1823.92
630.40	2061.69
630.59	2109.20
630.79	1898.26
630.98	1884.95
631.18	2026.26
631.38	2044.69
631.57	2068.45
631.77	1787.88
631.97	2065.99
632.16	2111.66
632.36	1949.87
632.56	1979.16
632.75	2095.69
632.95	2233.51
633.14	1839.08
633.34	2102.85
633.54	1812.25
633.73	1986.73
633.93	1906.66
634.12	1791.15
634.32	2544.81
634.52	2064.56
634.71	1793.82
634.91	1961.75
635.11	1868.16
635.30	1936.97
635.50	1961.13
635.69	1829.45
635.89	2368.48
636.09	2203.61
636.28	1830.27
636.48	1856.07
636.67	2139.10
636.87	2177.20
637.07	2002.09
637.26	1870.82
637.46	2074.80
637.65	2211.40
637.85	1975.06
638.04	1844.81
638.24	1952.33
638.44	2099.99
638.63	1946.18
638.83	1893.76
639.02	2134.60
639.22	2144.63
639.42	1913.62
639.61	1908.50
639.81	2054.32
640.00	2047.97
640.20	2066.61
640.39	1956.22
640.59	2348.82
640.79	2189.07
640.98	1974.45
641.18	1850.34
641.37	2007.83
641.57	1944.34
641.76	1941.06
641.96	1713.33
642.15	2067.63
642.35	1912.19
642.55	1958.27
642.74	1800.37
642.94	2167.98
643.13	2272.22
643.33	1886.38
643.52	1875.32
643.72	1960.73
643.91	2055.14
644.11	1815.93
644.31	1850.75
644.50	1949.87
644.70	2261.16
644.89	1959.50
645.09	2028.51
645.28	2052.06
645.48	2121.49
645.67	1867.54
645.87	1780.71
646.06	1985.71
646.26	2109.20
646.45	1725.21
646.65	1690.19
646.84	2385.06
647.04	1994.72
647.24	1780.91
647.43	1913.62
647.63	2099.37
647.82	2310.72
648.02	1817.98
648.21	1916.90
648.41	2268.13
648.60	1990.83
648.80	2058.82
648.99	1964.00
649.19	1945.37
649.38	1829.66
649.58	1915.26
649.77	1981.82
649.97	2239.25
650.16	2147.91
650.36	1719.27
650.55	2070.50
650.75	2110.64
650.94	2321.37
651.14	1957.24
651.33	2002.30
651.53	2342.67
651.72	1934.92
651.92	1912.19
652.11	1742.82
652.31	2142.58
652.50	2113.71
652.70	1927.96
652.89	1792.59
653.09	2269.15
653.28	2012.74
653.48	1722.14
653.67	1747.33
653.87	2557.91
654.06	2069.68
654.25	2166.14
654.45	1871.43
654.64	2019.71
654.84	1970.56
655.03	1707.60
655.23	2078.69
655.42	2206.07
655.62	2391.41
655.81	2087.70
656.01	1902.36
656.20	2234.95
656.40	2340.42
656.59	1993.29
656.79	2081.76
656.98	2138.49
657.17	2237.00
657.37	1942.29
657.56	1899.70
657.76	2116.58
657.95	2228.80
658.15	1607.45
658.34	1962.57
658.54	2052.47
658.73	1860.78
658.92	1919.56
659.12	1939.63
659.31	2152.01
659.51	1892.53
659.70	1951.92
659.90	1837.44
660.09	2149.55
660.29	2024.42
660.48	1818.19
660.67	2064.56
660.87	1941.27
661.06	2118.42
661.26	1986.94
661.45	2000.25
661.65	2115.14
661.84	1957.86
662.03	1851.36
662.23	1886.59
662.42	2405.75
662.62	1881.06
662.81	1810.81
663.00	1911.37
663.20	2082.99
663.39	2168.39
663.59	2035.48
663.78	1916.28
663.97	2003.73
664.17	2212.63
664.36	1820.23
664.56	1868.57
664.75	2213.85
664.94	2133.16
665.14	1984.69
665.33	1931.64
665.53	2034.25
665.72	2006.60
665.91	2051.86
666.11	1927.55
666.30	2073.57
666.50	2068.04
666.69	1965.23
666.88	1871.23
667.08	2054.73
667.27	2002.09
667.47	1913.21
667.66	1880.65
667.85	2217.34
668.05	2077.66
668.24	1832.73
668.43	2108.79
668.63	1991.44
668.82	2191.53
669.02	2011.72
669.21	1897.44
669.40	1873.07
669.60	2370.73
669.79	1772.52
669.98	2495.86
670.18	1914.65
670.37	1873.48
670.56	1919.97
670.76	2002.50
670.95	2008.65
671.15	2193.58
671.34	1952.12
671.53	1911.98
671.73	1956.83
671.92	1927.75
672.11	1806.72
672.31	1874.30
672.50	2114.12
672.69	1850.54
672.89	1682.41
673.08	1893.35
673.27	2162.45
673.47	2080.74
673.66	1925.09
673.85	1796.07
674.05	2060.46
674.24	2051.66
674.43	1764.53
674.63	1993.70
674.82	2430.32
675.01	1682.61
675.21	2000.46
675.40	1892.53
675.59	1956.22
675.79	2283.89
675.98	1865.29
676.17	2081.15
676.37	2066.20
676.56	1944.34
676.75	1912.60
676.95	1927.14
677.14	1973.01
677.33	2222.66
677.52	1788.90
677.72	1847.68
677.91	2067.63
678.10	1796.89
678.30	1823.31
678.49	1827.40
678.68	2414.96
678.88	1773.54
679.07	2075.21
679.26	1878.60
679.45	2342.88
679.65	2277.75
679.84	1750.40
680.03	1789.72
680.23	1985.92
680.42	2483.78
680.61	1828.22
680.81	1866.52
681.00	2048.17
681.19	2114.73
681.38	2044.90
681.58	1958.88
681.77	1991.65
681.96	2169.41
682.15	1835.39
682.35	1991.04
682.54	2113.30
682.73	1861.81
682.93	1826.58
683.12	1815.73
683.31	2172.08
683.50	2513.06
683.70	1840.92
683.89	1943.11
684.08	1878.19
684.27	2216.72
684.47	1791.36
684.66	1897.24
684.85	2382.40
685.04	2242.12
685.24	1844.40
685.43	1889.87
685.62	1781.73
685.81	2111.46
686.01	1988.17
686.20	1815.52
686.39	1819.83
686.58	2372.16
686.78	1929.60
686.97	1933.28
687.16	2198.29
687.35	2051.25
687.55	1855.46
687.74	1908.30
687.93	1853.82
688.12	1990.42
688.32	1926.52
688.51	1761.05
688.70	2094.66
688.89	1834.78
689.08	1758.59
689.28	1847.47
689.47	2047.56
689.66	2072.54
689.85	1993.08
690.05	1858.33
690.24	1920.79
690.43	2099.58
690.62	1917.92
690.81	1852.39
691.01	2054.52
691.20	1967.48
691.39	1778.46
691.58	1964.21
691.77	2340.42
691.97	2050.43
692.16	1970.97
692.35	1890.89
692.54	1944.34
692.73	2116.37
692.93	1922.84
693.12	1965.64
693.31	2095.07
693.50	2053.91
693.69	2000.66
693.89	1869.39
694.08	2247.65
694.27	2255.43
694.46	1832.93
694.65	1920.38
694.85	2129.07
695.04	2106.34
695.23	1847.68
695.42	2042.85
695.61	2162.45
695.80	2252.56
696.00	2293.72
696.19	2273.45
696.38	2076.64
696.57	2229.01
696.76	2107.16
696.95	1981.41
697.15	2386.09
697.34	2319.12
697.53	1955.40
697.72	2022.78
697.91	2025.24
698.10	2315.84
698.30	1911.78
698.49	1890.68
698.68	2088.93
698.87	1997.18
699.06	1803.85
699.25	1928.78
699.45	2204.84
699.64	2040.60
699.83	2064.97
700.02	1868.57
700.21	2129.07
700.40	1950.08
700.59	1864.27
700.79	1928.57
700.98	2110.64
701.17	1931.85
701.36	1855.46
701.55	1857.92
701.74	2222.05
701.93	1828.43
702.12	1836.41
702.32	1808.36
702.51	2162.04
702.70	2099.37
702.89	1916.49
703.08	1847.68
703.27	2206.28
703.46	2094.05
703.65	1787.06
703.85	1794.02
704.04	1911.98
704.23	2198.70
704.42	1825.56
704.61	1843.58
704.80	2299.46
704.99	1897.85
705.18	1954.17
705.37	1880.24
705.57	2096.51
705.76	2283.08
705.95	1939.02
706.14	2283.89
706.33	2468.83
706.52	2657.03
706.71	2117.80
706.90	1996.77
707.09	2216.93
707.28	2148.73
707.47	1853.21
707.67	2044.49
707.86	1936.76
708.05	2235.15
708.24	1902.36
708.43	1952.53
708.62	1989.40
708.81	1899.29
709.00	1824.13
709.19	1843.58
709.38	2167.77
709.57	1858.33
709.76	1926.73
709.96	1821.46
710.15	2243.75
710.34	2026.06
710.53	1977.93
710.72	1899.90
710.91	2218.97
711.10	2157.94
711.29	1965.85
711.48	1887.41
711.67	1829.45
711.86	2092.82
712.05	1769.85
712.24	1804.06
712.43	2139.31
712.62	2275.09
712.81	1923.25
713.00	2094.05
713.19	1866.52
713.39	2100.19
713.58	1809.99
713.77	1931.64
713.96	2121.70
714.15	1983.66
714.34	1877.37
714.53	1752.86
714.72	2367.45
714.91	1839.49
715.10	1932.46
715.29	1795.25
715.48	2494.22
715.67	2101.42
715.86	1931.85
716.05	1894.78
716.24	2011.72
716.43	1924.07
716.62	1803.85
716.81	1762.07
717.00	2009.26
717.19	2314.82
717.38	1866.11
717.57	1864.47
717.76	1786.44
717.95	2192.96
718.14	1908.09
718.33	1927.55
718.52	1803.65
718.71	1805.69
718.90	1811.84
719.09	1860.17
719.28	2038.75
719.47	2163.68
719.66	1975.27
719.85	2011.31
720.04	1962.36
720.23	2017.25
720.42	1829.25
720.61	1972.40
720.80	1798.32
720.99	2042.64
721.18	1893.96
721.37	1828.63
721.56	1941.27
721.75	2154.67
721.94	1800.78
722.13	1852.80
722.32	1984.89
722.51	2129.07
722.70	1922.22
722.89	1961.54
723.08	2023.39
723.27	2179.65
723.46	1968.92
723.65	1921.81
723.84	1969.12
724.03	2265.26
724.22	1781.53
724.41	1909.12
724.60	1968.71
724.79	2188.46
724.98	1959.91
725.16	1864.06
725.35	2127.43
725.54	1854.03
725.73	1903.79
725.92	1929.60
726.11	1955.40
726.30	2139.10
726.49	1834.78
726.68	1911.16
726.87	2104.08
727.06	2265.26
727.25	1872.46
727.44	1985.92
727.63	2008.44
727.82	1950.08
728.01	1949.05
728.20	1974.24
728.38	2282.26
728.57	1955.40
728.76	1886.18
728.95	2020.94
729.14	1847.47
729.33	1836.41
729.52	1645.95
729.71	1795.45
729.90	1873.48
730.09	1924.48
730.28	1842.35
730.47	1837.85
730.66	2195.83
730.84	2028.72
731.03	1901.74
731.22	1888.64
731.41	2021.96
731.60	2077.25
731.79	1691.21
731.98	1779.07
732.17	2146.48
732.36	2087.90
732.55	1840.51
732.73	1757.98
732.92	2249.28
733.11	2114.73
733.30	1820.44
733.49	1736.68
733.68	2116.17
733.87	2033.84
734.06	1749.37
734.25	1789.72
734.43	1899.49
734.62	2045.72
734.81	1870.00
735.00	1822.69
735.19	1975.68
735.38	2082.78
735.57	1742.00
735.76	1943.32
735.94	2064.15
736.13	2357.83
736.32	1957.65
736.51	1884.54
736.70	2298.44
736.89	2313.80
737.08	2047.15
737.27	2171.46
737.45	2505.69
737.64	2353.94
737.83	2426.43
738.02	2349.63
738.21	2504.46
738.40	2549.72
738.59	2072.34
738.77	2158.76
738.96	2041.01
739.15	2171.05
739.34	2100.40
739.53	2033.63
739.72	2315.43
739.90	2230.65
740.09	1880.24
740.28	1928.37
740.47	2169.62
740.66	2126.20
740.85	1810.20
741.03	1896.01
741.22	1864.06
741.41	1981.82
741.60	1755.52
741.79	1919.97
741.98	2231.06
742.16	2341.44
742.35	1896.21
742.54	1912.60
742.73	2338.37
742.92	1973.42
743.10	1770.47
743.29	1829.04
743.48	2412.92
743.67	1914.65
743.86	1699.40
744.05	1783.37
744.23	1893.14
744.42	1864.27
744.61	1905.23
744.80	1749.37
744.99	1903.79
745.17	1758.39
745.36	1731.35
745.55	1956.63
745.74	1997.79
745.93	1887.82
746.11	1789.72
746.30	1770.67
746.49	2175.76
746.68	1893.35
746.86	1881.47
747.05	1847.68
747.24	2102.04
747.43	2147.30
747.62	1756.13
747.80	1805.28
747.99	2216.72
748.18	2145.45
748.37	1892.53
748.56	1945.57
748.74	2203.61
748.93	2036.91
749.12	2100.19
749.31	2469.44
749.49	2790.56
749.68	3033.04
749.87	3162.47
750.06	2999.86
750.24	3078.10
750.43	3021.57
750.62	2899.51
750.81	3025.26
750.99	3222.07
751.18	3197.08
751.37	2740.80
751.56	2766.81
751.74	3131.34
751.93	3223.50
752.12	2272.84
752.31	2208.94
752.49	2298.84
752.68	2572.04
752.87	2113.71
753.06	2029.74
753.24	2121.29
753.43	2283.08
753.62	1887.20
753.81	1901.95
753.99	2308.68
754.18	2118.21
754.37	1842.15
754.55	1898.06
754.74	2327.11
754.93	1762.07
755.12	1836.21
755.30	1796.48
755.49	2200.13
755.68	2041.21
755.86	1953.15
756.05	1734.63
756.24	2283.08
756.43	1812.04
756.61	1815.11
756.80	1959.70
756.99	2236.59
757.17	1980.18
757.36	1798.73
757.55	1862.63
757.74	2112.48
757.92	2012.95
758.11	1810.20
758.30	1727.05
758.48	1971.78
758.67	1832.32
758.86	1905.02
759.04	1800.37
759.23	1922.84
759.42	2000.87
759.60	1810.40
759.79	1892.12
759.98	1949.26
760.16	1866.93
760.35	1833.34
760.54	1793.82
760.73	2037.32
760.91	1793.82
761.10	1868.57
761.29	1928.98
761.47	2032.81
761.66	2359.87
761.85	1937.17
762.03	2039.37
762.22	2334.07
762.41	2783.80
762.59	3061.30
762.78	3342.29
762.97	4026.31
763.15	3982.89
763.34	3651.32
763.52	3093.87
763.71	3186.23
763.90	3232.10
764.08	2796.30
764.27	2766.60
764.46	2966.89
764.64	2601.94
764.83	2458.18
765.02	2375.03
765.20	2421.72
765.39	2421.31
765.58	1972.40
765.76	1993.90
765.95	2142.58
766.13	2085.65
766.32	1871.64
766.51	1866.11
766.69	2767.42
766.88	2083.40
767.07	1779.68
767.25	1693.06
767.44	2191.94
767.62	2251.74
767.81	1803.85
768.00	1889.25
768.18	2015.41
768.37	1903.38
768.56	1704.52
768.74	1814.91
768.93	1783.58
769.11	2081.15
769.30	1917.92
769.49	1841.94
769.67	1978.75
769.86	1916.49
770.04	1829.45
770.23	1812.04
770.42	2256.04
770.60	2035.07
770.79	1774.97
770.97	1836.62
771.16	2247.65
771.35	2126.20
771.53	2070.91
771.72	2166.96
771.90	2437.49
772.09	2661.34
772.27	2443.02
772.46	2171.87
772.65	2489.72
772.83	2336.94
773.02	2212.42
773.20	2001.89
773.39	2285.53
773.58	2331.00
773.76	1899.29
773.95	1897.44
774.13	2152.82
774.32	2009.26
774.50	1840.10
774.69	1954.58
774.87	1995.54
775.06	2437.90
775.25	1846.45
775.43	1885.97
775.62	2078.89
775.80	2127.43
775.99	1916.69
776.17	1880.65
776.36	2061.28
776.54	2270.58
776.73	1889.46
776.92	1970.35
777.10	2241.50
777.29	2124.15
777.47	1856.28
777.66	1885.36
777.84	2099.78
778.03	2051.45
778.21	1846.86
778.40	1942.70
778.58	2117.60
778.77	2206.89
778.95	1781.12
779.14	1842.56
779.32	2343.90
779.51	2174.33
779.70	1855.46
779.88	1760.02
780.07	1954.99
780.25	2433.81
780.44	1883.72
780.62	2007.62
780.81	2120.47
780.99	2081.35
781.18	1850.13
781.36	1825.15
781.55	2010.90
781.73	2307.04
781.92	1768.42
782.10	1800.16
782.29	2127.43
782.47	2282.87
782.66	1857.10
782.84	1740.36
783.03	1913.21
783.21	2224.30
783.40	1812.25
783.58	1804.67
783.77	1912.60
783.95	1996.36
784.14	1813.89
784.32	1890.28
784.51	2218.36
784.69	1889.46
784.88	1754.70
785.06	1843.79
785.24	1807.13
785.43	2155.08
785.61	1935.33
785.80	1793.20
785.98	2081.76
786.17	2019.91
786.35	1739.54
786.54	1982.23
786.72	2146.27
786.91	2196.24
787.09	1840.71
787.28	1760.64
787.46	2020.12
787.65	2182.93
787.83	1728.49
788.01	1861.40
788.20	1804.06
788.38	1982.23
788.57	1797.50
788.75	1793.61
788.94	2331.82
789.12	2218.56
789.31	1910.96
789.49	2002.91
789.67	1935.33
789.86	2055.34
790.04	1788.70
790.23	1712.72
790.41	2373.60
790.60	1944.75
790.78	1849.52
790.96	1856.07
791.15	2124.15
791.33	1969.53
791.52	1859.97
791.70	1767.19
791.89	2017.45
792.07	2166.14
792.25	1901.74
792.44	1750.19
792.62	2188.66
792.81	1926.73
792.99	1878.40
793.17	1816.55
793.36	1866.11
793.54	2304.37
793.73	2077.87
793.91	2025.03
794.10	2415.78
794.28	2540.10
794.46	2213.85
794.65	2276.11
794.83	2146.89
795.01	2249.90
795.20	2203.41
795.38	2111.46
795.57	2274.27
795.75	2244.16
795.93	1973.22
796.12	2021.35
796.30	2193.17
796.49	2184.98
796.67	1829.66
796.85	1983.05
797.04	2052.06
797.22	2134.60
797.40	1774.77
797.59	1922.22
797.77	2019.30
797.96	1879.63
798.14	1783.78
798.32	1823.10
798.51	2122.51
798.69	2320.35
798.87	1880.85
799.06	1867.34
799.24	1764.73
799.42	2156.10
799.61	1993.49
799.79	1974.86
799.98	2508.56
800.16	2156.31
800.34	2208.32
800.53	2394.49
800.71	2488.90
800.89	2994.13
801.08	2635.33
801.26	2673.62
801.44	2506.51
801.63	2335.71
801.81	2298.44
801.99	2209.76
802.18	2271.20
802.36	2268.53
802.54	2194.81
802.73	1946.18
802.91	2158.15
803.09	2183.34
803.28	2083.60
803.46	2038.75
803.64	2374.82
803.83	1877.58
804.01	1826.38
804.19	1769.65
804.38	2133.16
804.56	2074.80
804.74	1883.72
804.92	1906.25
805.11	1844.61
805.29	2172.28
805.47	1816.96
805.66	1727.87
805.84	1804.06
806.02	2133.78
806.21	1788.49
806.39	2033.02
806.57	2150.37
806.76	2143.40
806.94	1906.66
807.12	1802.62
807.30	1881.47
807.49	1998.20
807.67	1878.19
807.85	2001.89
808.04	2132.14
808.22	2405.54
808.40	1776.61
808.58	1725.41
808.77	2094.66
808.95	2274.27
809.13	1896.01
809.31	2245.60
809.50	2499.34
809.68	2641.88
809.86	2403.50
810.05	2526.37
810.23	3051.27
810.41	3297.23
810.59	4580.08
810.78	5381.04
810.96	6124.66
811.14	6507.01
811.32	5943.41
811.51	5074.87
811.69	4650.94
811.87	4697.84
812.05	4145.29
812.24	3963.23
812.42	4044.33
812.60	3894.83
812.78	3178.04
812.97	2977.75
813.15	3282.69
813.33	2926.34
813.51	2711.51
813.70	2312.36
813.88	2285.33
814.06	2302.33
814.24	2127.02
814.42	1861.19
814.61	2165.32
814.79	2369.70
814.97	1782.96
815.15	1832.93
815.34	2066.61
815.52	2181.70
815.70	1784.80
815.88	1897.85
816.06	1871.43
816.25	1918.95
816.43	1829.25
816.61	1968.51
816.79	2282.87
816.98	1733.81
817.16	1788.90
817.34	1772.31
817.52	2062.71
817.70	2278.37
817.89	1887.61
818.07	1793.20
818.25	1967.28
818.43	2034.25
818.61	1884.54
818.80	1823.51
818.98	2309.90
819.16	2048.17
819.34	1785.01
819.52	2112.68
819.70	1871.23
819.89	2005.78
820.07	1734.83
820.25	1716.20
820.43	2054.93
820.61	2181.50
820.80	1882.29
820.98	1762.69
821.16	1780.30
821.34	1832.52
821.52	1849.11
821.70	1967.48
821.89	2045.10
822.07	1945.37
822.25	1902.97
822.43	1783.17
822.61	2252.15
822.79	2054.93
822.98	1875.73
823.16	1711.49
823.34	2064.56
823.52	2218.77
823.70	1950.90
823.88	1718.86
824.06	2123.95
824.25	1963.59
824.43	1986.12
824.61	1781.94
824.79	2010.70
824.97	2046.13
825.15	1961.54
825.33	2135.42
825.52	2306.42
825.70	2153.44
825.88	2042.44
826.06	2083.19
826.24	2241.71
826.42	2312.77
826.60	2052.06
826.78	2107.16
826.97	2097.12
827.15	2312.98
827.33	1892.73
827.51	1968.51
827.69	1973.63
827.87	2087.29
828.05	2005.37
828.23	1834.37
828.41	2182.93
828.60	2160.20
828.78	1765.96
828.96	1960.52
829.14	1937.99
829.32	1991.04
829.50	1873.07
829.68	1856.69
829.86	1931.44
830.04	2078.07
830.22	1945.16
830.41	1787.06
830.59	1986.94
830.77	2113.09
830.95	1815.93
831.13	1824.54
831.31	1900.92
831.49	2149.55
831.67	2015.82
831.85	1988.37
832.03	1967.07
832.21	2131.32
832.39	1727.87
832.57	1801.60
832.76	2166.34
832.94	1983.25
833.12	1706.57
833.30	1862.22
833.48	2196.65
833.66	2089.95
833.84	1808.36
834.02	1906.04
834.20	2169.21
834.38	2153.85
834.56	1701.66
834.74	1773.75
834.92	1783.58
835.10	2278.77
835.28	1899.08
835.46	1912.60
835.64	2000.87
835.82	1898.06
836.01	2150.16
836.19	2046.13
836.37	1927.96
836.55	1869.59
836.73	1829.66
836.91	1762.28
837.09	2134.39
837.27	2241.91
837.45	1721.11
837.63	1765.96
837.81	1818.39
837.99	2015.61
838.17	1868.98
838.35	1770.06
838.53	2377.49
838.71	2095.89
838.89	1811.84
839.07	1794.02
839.25	2017.86
839.43	2153.85
839.61	1856.07
839.79	2152.01
839.97	2374.41
840.15	2487.67
840.33	2271.81
840.51	2521.05
840.69	2448.96
840.87	2336.53
841.05	2280.82
841.23	2198.70
841.41	2418.04
841.59	2879.03
841.77	2773.36
841.95	2878.83
842.13	3373.00
842.31	3058.85
842.49	2670.96
842.67	2667.68
842.85	2784.62
843.03	2455.10
843.21	2314.82
843.39	2475.58
843.57	2472.72
843.75	2442.00
843.93	2166.96
844.11	2167.98
844.29	2290.24
844.47	2159.99
844.65	2163.06
844.83	1979.36
845.01	2083.81
845.19	2263.01
845.36	1963.18
845.54	1985.92
845.72	2069.47
845.90	2165.52
846.08	1821.46
846.26	1920.59
846.44	2075.82
846.62	2103.06
846.80	1950.90
846.98	1851.77
847.16	2019.30
847.34	2064.76
847.52	1823.10
847.70	1767.19
847.88	1990.22
848.06	2265.05
848.24	1968.51
848.41	1767.60
848.59	2171.67
848.77	2088.72
848.95	1847.47
849.13	1845.02
849.31	2174.74
849.49	2045.10
849.67	1827.20
849.85	1776.41
850.03	2074.18
850.21	2063.74
850.39	1810.61
850.57	1972.19
850.74	2283.28
850.92	2239.86
851.10	2008.85
851.28	1937.17
851.46	2238.23
851.64	2559.35
851.82	2049.40
852.00	2113.71
852.18	2456.95
852.36	2289.01
852.53	2007.21
852.71	2066.61
852.89	2212.22
853.07	2219.38
853.25	1913.42
853.43	1837.23
853.61	2089.54
853.79	2095.07
853.97	1851.98
854.14	1861.60
854.32	2268.94
854.50	2146.07
854.68	1840.10
854.86	1854.23
855.04	1914.03
855.22	2167.77
855.40	1742.21
855.57	1823.72
855.75	2144.63
855.93	2095.07
856.11	1718.45
856.29	1824.13
856.47	1909.12
856.65	2077.66
856.82	1778.87
857.00	1753.27
857.18	2004.96
857.36	1942.29
857.54	1925.09
857.72	2027.69
857.89	2122.92
858.07	2044.08
858.25	2042.64
858.43	1760.84
858.61	1997.59
858.79	2026.87
858.97	1798.73
859.14	1949.26
859.32	1969.12
859.50	1962.16
859.68	1912.80
859.86	1805.08
860.03	2044.90
860.21	2115.76
860.39	1806.92
860.57	1954.99
860.75	2111.46
860.93	2317.89
861.10	2042.23
861.28	1796.68
861.46	2062.51
861.64	2092.61
861.82	1868.36
861.99	1953.35
862.17	2157.33
862.35	2198.08
862.53	1887.00
862.71	1875.32
862.88	2060.26
863.06	2150.98
863.24	1846.86
863.42	1822.69
863.60	2006.39
863.77	2093.64
863.95	1710.05
864.13	1870.21
864.31	1973.63
864.49	2138.69
864.66	1787.26
864.84	1811.02
865.02	2084.83
865.20	2494.84
865.37	1933.90
865.55	1807.74
865.73	1817.98
865.91	2138.08
866.09	1975.27
866.26	1882.49
866.44	2179.86
866.62	1966.25
866.80	1760.84
866.97	1877.99
867.15	1978.13
867.33	2058.00
867.51	1894.58
867.68	1874.71
867.86	1954.58
868.04	1897.24
868.22	1645.75
868.39	1841.94
868.57	2089.13
868.75	2266.90
868.93	1737.50
869.10	1806.92
869.28	2316.66
869.46	2239.86
869.64	1878.81
869.81	1829.25
869.99	2071.93
870.17	2064.15
870.35	1780.91
870.52	1848.29
870.70	2205.66
870.88	1922.22
871.05	1778.87
871.23	1669.09
871.41	2030.15
871.59	2046.94
871.76	1855.66
871.94	1765.76
872.12	2037.73
872.29	1833.75
872.47	1826.99
872.65	1761.66
872.83	2081.15
873.00	2235.97
873.18	1840.92
873.36	1807.54
873.53	2159.99
873.71	1807.74
873.89	1733.61
874.06	1842.97
874.24	2085.65
874.42	2235.36
874.60	1955.20
874.77	1917.31
874.95	1938.40
875.13	2181.29
875.30	1837.23
875.48	1794.02
875.66	2246.21
875.83	1876.35
876.01	1802.83
876.19	1931.23
876.36	1831.91
876.54	2041.21
876.72	1767.81
876.89	1932.46
877.07	2153.23
877.25	1742.00
877.42	1893.14
877.60	1856.48
877.78	2344.72
877.95	1944.75
878.13	1792.79
878.31	1956.42
878.48	2193.37
878.66	2123.74
878.84	1802.62
879.01	1849.73
879.19	2094.87
879.37	2128.25
879.54	1846.86
879.72	1732.58
879.90	1721.11
880.07	2143.20
880.25	1608.07
880.42	2008.03
880.60	2065.58
880.78	2148.11
880.95	1823.31
881.13	1892.94
881.31	2046.54
881.48	1933.49
881.66	1793.82
881.83	1938.20
882.01	1909.94
882.19	1839.28
882.36	1876.35
882.54	1833.96
882.72	2158.56
882.89	2040.39
883.07	1808.97
883.24	1832.52
883.42	2167.77
883.60	2031.99
883.77	1762.89
883.95	1853.00
884.12	2160.20
884.30	2046.13
884.48	1964.62
884.65	1860.78
884.83	2056.98
885.00	2070.09
885.18	1745.28
885.36	1816.14
885.53	2114.12
885.71	2228.60
885.88	1734.22
886.06	1836.41
886.23	2098.96
886.41	1955.40
886.59	1839.28
886.76	1761.05
886.94	2136.65
887.11	2529.04
887.29	1866.11
887.47	1765.96
887.64	2223.48
887.82	2242.32
887.99	1690.80
888.17	1896.01
888.34	1985.71
888.52	1840.10
888.69	1830.06
888.87	1746.51
889.05	1956.22
889.22	1937.17
889.40	1815.52
889.57	2040.60
889.75	2316.87
889.92	1945.37
890.10	1756.34
890.27	1883.31
890.45	1918.74
890.62	1754.70
890.80	1776.20
890.98	1688.35
891.15	2265.87
891.33	2169.00
891.50	1793.41
891.68	1736.47
891.85	2160.40
892.03	2139.72
892.20	1765.96
892.38	1768.01
892.55	2144.43
892.73	2168.39
892.90	1704.32
893.08	1799.75
893.25	1998.61
893.43	1897.24
893.60	1892.94
893.78	1689.16
893.95	2105.72
894.13	2005.37
894.30	1798.53
894.48	1846.24
894.65	2172.89
894.83	2026.47
895.00	1695.72
895.18	1668.68
895.35	2165.32
895.53	2136.24
895.70	1727.67
895.88	1984.07
896.05	2086.88
896.23	1793.41
896.40	1819.62
896.58	1884.13
896.75	2115.55
896.93	2234.33
897.10	1831.91
897.28	1723.78
897.45	2060.87
897.63	2118.01
897.80	1931.85
897.98	1813.89
898.15	2076.03
898.33	1922.63
898.50	1844.40
898.67	1843.99
898.85	1956.22
899.02	2109.41
899.20	2023.39
899.37	1841.94
899.55	2024.01
899.72	2263.01
899.90	1829.86
900.07	1792.38
900.25	2083.40
900.42	2197.47
900.59	1806.51
900.77	1932.67
900.94	2107.77
901.12	2056.98
901.29	1831.50
901.47	1956.63
901.64	2128.25
901.82	2006.80
901.99	1619.53
902.16	1748.97
902.34	2232.49
902.51	2063.33
902.69	1800.37
902.86	1835.18
903.03	2603.99
903.21	2012.13
903.38	1824.54
903.56	1778.87
903.73	2185.59
903.91	1936.97
904.08	1775.59
904.25	1675.03
904.43	1891.09
904.60	2162.65
904.78	1808.15
904.95	1762.28
905.12	1964.62
905.30	2313.80
905.47	1912.39
905.65	1991.65
905.82	1986.32
905.99	2095.07
906.17	1808.97
906.34	1789.72
906.52	1859.56
906.69	2108.38
906.86	1895.40
907.04	1878.40
907.21	2139.92
907.38	2170.85
907.56	1756.13
907.73	1750.81
907.91	2252.97
908.08	2211.19
908.25	1803.65
908.43	1734.02
908.60	2117.39
908.77	2046.54
908.95	1848.09
909.12	1748.97
909.30	2141.56
909.47	1780.30
909.64	1853.00
909.82	2026.06
909.99	1993.49
910.16	2008.44
910.34	1787.26
910.51	1796.89
910.68	2069.47
910.86	2026.87
911.03	1705.75
911.20	1805.28
911.38	2236.59
911.55	2561.60
911.72	2463.09
911.90	2364.99
912.07	2729.74
912.24	2899.72
912.42	2321.99
912.59	2128.25
912.76	2424.18
912.94	2240.48
913.11	1974.65
913.28	1881.06
913.46	1886.38
913.63	2137.87
913.80	2179.24
913.98	1804.87
914.15	2230.44
914.32	2237.82
914.49	1915.06
914.67	1755.52
914.84	2057.39
915.01	2108.79
915.19	1901.95
915.36	1792.38
915.53	2172.08
915.71	2116.99
915.88	1904.61
916.05	1820.23
916.22	2190.51
916.40	2043.26
916.57	1715.17
916.74	1952.33
916.92	2281.03
917.09	1871.84
917.26	1772.31
917.43	1724.18
917.61	1963.39
917.78	1782.96
917.95	1755.11
918.13	1757.16
918.30	2403.09
918.47	2023.39
918.64	1767.19
918.82	1731.76
918.99	1986.32
919.16	2246.42
919.33	1832.93
919.51	1801.60
919.68	1964.41
919.85	2222.05
920.02	1702.07
920.20	1848.29
920.37	2288.40
920.54	2136.24
920.71	1787.26
920.89	1805.90
921.06	2310.11
921.23	1864.47
921.40	1728.49
921.58	1894.78
921.75	2564.47
921.92	1917.51
922.09	1924.07
922.27	1850.34
922.44	2028.31
922.61	2104.29
922.78	1817.78
922.96	1813.89
923.13	1979.77
923.30	2174.12
923.47	1707.39
923.64	1773.75
923.82	2093.64
923.99	2042.64
924.16	1898.47
924.33	1741.80
924.50	2010.49
924.68	2268.33
924.85	1751.83
925.02	1806.72
925.19	2126.82
925.36	2028.72
925.54	1841.74
925.71	1864.88
925.88	2504.05
926.05	1936.76
926.22	1766.78
926.40	1894.37
926.57	2063.74
926.74	2108.79
926.91	1802.21
927.08	1959.29
927.26	2203.00
927.43	2028.92
927.60	1807.33
927.77	1853.62
927.94	2298.44
928.11	2236.38
928.29	1695.10
928.46	1875.73
928.63	1872.46
928.80	1962.77
928.97	1918.95
929.14	1788.49
929.32	2383.63
929.49	2039.16
929.66	1761.25
929.83	1712.31
930.00	1947.41
930.17	2092.20
930.35	1730.12
930.52	1789.92
930.69	2289.22
930.86	1845.22
931.03	1889.05
931.20	1636.33
931.37	2207.30
931.55	1987.76
931.72	1881.67
931.89	1727.05
932.06	1844.81
932.23	2305.40
932.40	1902.77
932.57	1935.94
932.74	2232.49
932.92	2233.92
933.09	1966.05
933.26	1571.20
933.43	1944.34
933.60	2078.07
933.77	1876.14
933.94	1904.41
934.11	1982.43
934.29	2041.42
934.46	1713.95
934.63	1886.38
934.80	1792.59
934.97	2001.28
935.14	1826.17
935.31	1659.06
935.48	1909.32
935.65	2060.67
935.82	1862.42
936.00	1714.15
936.17	2265.67
936.34	1984.28
936.51	1929.60
936.68	1727.46
936.85	2064.15
937.02	2058.21
937.19	1916.90
937.36	1824.74
937.53	2072.13
937.70	2159.17
937.87	1815.32
938.05	1920.99
938.22	2037.73
938.39	1859.35
938.56	1849.93
938.73	1739.95
938.90	1983.87
939.07	1910.35
939.24	1908.09
939.41	1677.70
939.58	2085.45
939.75	2116.58
939.92	1780.09
940.09	2073.36
940.26	1965.44
940.43	2166.55
940.60	1834.16
940.77	1842.15
940.95	2100.81
941.12	2166.75
941.29	1835.59
941.46	1831.09
941.63	2209.55
941.80	2277.55
941.97	1690.60
942.14	1671.14
942.31	2136.44
942.48	2012.74
942.65	1912.60
942.82	1847.88
942.99	2113.09
943.16	2037.52
943.33	1741.39
943.50	1778.25
943.67	2137.06
943.84	2200.75
944.01	1804.06
944.18	1757.57
944.35	2257.68
944.52	1917.92
944.69	1883.72
944.86	1727.87
945.03	2149.34
945.20	2439.75
945.37	1660.29
945.54	1821.26
945.71	2237.82
945.88	2309.29
946.05	1772.93
946.22	1728.69
946.39	2227.99
946.56	1993.90
946.73	1694.90
946.90	1742.21
947.07	1924.48
947.24	2012.95
947.41	1670.73
947.58	1928.16
947.75	2167.37
947.92	2085.04
948.09	1628.75
948.26	1688.14
948.43	2054.73
948.60	2335.71
948.77	1785.01
948.94	1819.01
949.11	2141.56
949.27	2088.31
949.44	1768.63
949.61	1711.69
949.78	2071.11
949.95	2217.75
950.12	1729.30
950.29	1674.01
950.46	1944.75
950.63	2174.74
950.80	1774.97
950.97	1815.32
951.14	2179.04
951.31	1966.66
951.48	1750.81
951.65	1703.71
951.82	2352.09
951.99	2084.42
952.15	1687.53
952.32	1798.94
952.49	1948.23
952.66	1984.28
952.83	1798.12
953.00	1737.50
953.17	1998.41
953.34	2206.48
953.51	1838.05
953.68	1854.64
953.85	2217.54
954.02	2207.71
954.18	1863.86
954.35	1819.42
954.52	1889.05
954.69	2022.57
954.86	1690.60
955.03	1865.29
955.20	2139.10
955.37	2005.78
955.54	1776.61
955.71	1743.85
955.87	2084.83
956.04	2301.51
956.21	1780.91
956.38	1734.02
956.55	2042.03
956.72	2470.67
956.89	1870.61
957.06	1752.65
957.23	1926.32
957.39	2237.20
957.56	1818.80
957.73	1722.34
957.90	1675.85
958.07	2372.98
958.24	1829.86
958.41	1828.63
958.57	2137.46
958.74	2031.59
958.91	1734.22
959.08	1760.43
959.25	2127.63
959.42	1987.55
959.59	1850.13
959.75	1833.75
959.92	2238.23
960.09	2226.35
960.26	1768.01
960.43	1865.90
960.60	2071.11
960.76	1990.22
960.93	1685.48
961.10	1854.85
961.27	2198.29
961.44	1998.41
961.61	1702.68
961.77	1700.22
961.94	2048.79
962.11	2138.90
962.28	1767.60
962.45	1693.06
962.62	1984.69
962.78	2158.35
962.95	1688.55
963.12	1772.72
963.29	2183.95
963.46	2510.60
963.62	1857.10
963.79	1788.29
963.96	2472.92
964.13	1980.59
964.30	1902.77
964.46	1806.10
964.63	1871.43
964.80	2462.89
964.97	1608.88
965.14	1908.50
965.30	2073.77
965.47	2172.49
965.64	1946.80
965.81	1870.82
965.98	2261.98
966.14	2071.52
966.31	1787.88
966.48	1728.28
966.65	2202.59
966.81	2062.10
966.98	1804.06
967.15	1783.99
967.32	1995.95
967.49	1868.16
967.65	1660.49
967.82	1632.44
967.99	2006.60
968.16	1754.49
968.32	1928.37
968.49	1763.10
968.66	1970.35
968.83	2246.01
968.99	1913.01
969.16	1707.19
969.33	2222.87
969.50	2069.88
969.66	1911.37
969.83	2046.74
970.00	2153.03
970.17	2072.34
970.33	1814.30
970.50	1741.18
970.67	2279.59
970.84	2276.73
971.00	1740.77
971.17	1676.06
971.34	2149.96
971.50	2039.37
971.67	1884.13
971.84	1814.71
972.01	1858.74
972.17	1674.83
972.34	1739.34
972.51	1933.69
972.67	2209.35
972.84	2082.78
973.01	1757.36
973.18	1759.61
973.34	2178.01
973.51	1868.98
973.68	1841.53
973.84	1838.46
974.01	1992.26
974.18	2305.19
974.34	1833.34
974.51	1897.65
974.68	1915.47
974.85	2379.13
975.01	1927.96
975.18	1811.22
975.35	2038.96
975.51	1857.10
975.68	1676.88
975.85	1943.73
976.01	1950.90
976.18	2257.07
976.35	1819.42
976.51	1844.40
976.68	2352.50
976.85	2222.25
977.01	1852.59
977.18	1878.19
977.35	2135.01
977.51	1821.46
977.68	1635.92
977.85	1715.79
978.01	2190.30
978.18	2119.24
978.35	1838.05
978.51	1855.46
978.68	2222.05
978.85	2291.27
979.01	1831.29
979.18	1843.38
979.34	1977.72
979.51	2060.67
979.68	1749.58
979.84	1852.80
980.01	2462.27
980.18	2047.76
980.34	1747.74
980.51	1877.78
980.67	2151.39
980.84	2136.85
981.01	1816.34
981.17	1860.99
981.34	1764.94
981.51	2155.49
981.67	1718.04
981.84	1890.48
982.00	2111.66
982.17	1983.66
982.34	1661.93
982.50	1532.29
982.67	2295.98
982.83	1939.63
983.00	1708.21
983.17	1605.20
983.33	2184.98
983.50	1776.20
983.66	1651.07
983.83	1591.27
984.00	1973.63
984.16	2039.78
984.33	1601.92
984.49	1551.13
984.66	1882.29
984.83	2146.68
984.99	1646.98
985.16	1564.65
985.32	2137.87
985.49	2142.79
985.65	1726.85
985.82	1580.83
985.99	2293.11
986.15	2086.27
986.32	1725.00
986.48	1671.76
986.65	1963.39
986.81	2153.44
986.98	1590.25
987.14	1693.47
987.31	2024.83
987.48	1814.50
987.64	1526.76
987.81	1566.49
987.97	2394.28
988.14	1908.71
988.30	1615.85
988.47	1476.59
988.63	2094.05
988.80	1879.63
988.96	1677.70
989.13	1722.55
989.30	1974.45
989.46	2166.14
989.63	1525.53
989.79	1607.04
989.96	2001.68
990.12	2276.73
990.29	1636.74
990.45	1673.40
990.62	2030.56
990.78	2232.70
990.95	1727.05
991.11	1631.82
991.28	1957.24
991.44	2064.76
991.61	1522.66
991.77	1678.11
991.94	2066.40
992.10	2238.63
992.27	1667.46
992.43	1683.23
992.60	2103.67
992.76	1941.27
992.93	1831.50
993.09	1601.51
993.26	2192.35
993.42	2310.72
993.59	1647.80
993.75	1553.59
993.92	1931.23
994.08	1891.71
994.25	1698.59
994.41	1589.22
994.58	2139.72
994.74	2264.03
994.91	1573.86
995.07	1721.32
995.24	2013.97
995.40	2028.92
995.56	1771.08
995.73	1700.02
995.89	2318.30
996.06	2002.71
996.22	1619.53
996.39	1541.71
996.55	2002.50
996.72	2106.95
996.88	1551.75
997.05	1608.27
997.21	2368.07
997.37	2115.35
997.54	1701.45
997.70	1630.59
997.87	2066.20
998.03	2028.92
998.20	1534.95
998.36	1533.72
998.52	2101.63
998.69	2174.12
998.85	1565.47
999.02	1660.08
999.18	2176.38
999.35	2163.88
999.51	1680.56
999.67	1639.19
999.84	1848.09
1000.00	2135.42
1000.17	1711.90
1000.33	1589.63
1000.49	1944.75
1000.66	1970.35
1000.82	1641.45
1000.99	1671.96
1001.15	2244.78
1001.31	1992.47
1001.48	1647.59
1001.64	1709.23
1001.81	1996.56
1001.97	2359.67
1002.13	1640.22
1002.30	1651.48
1002.46	2253.79
1002.63	1951.92
1002.79	1724.59
1002.95	1595.37
1003.12	2169.62
1003.28	2098.14
1003.45	1597.42
1003.61	1588.81
1003.77	2047.97
1003.94	1816.75
1004.10	1651.69
1004.26	1730.53
1004.43	2132.55
1004.59	2295.57
1004.75	1616.87
1004.92	1607.04
1005.08	1956.42
1005.25	2039.37
1005.41	1630.80
1005.57	1695.92
1005.74	2199.31
1005.90	1957.45
1006.06	1772.11
1006.23	1605.61
1006.39	2136.03
1006.55	2448.55
1006.72	1768.83
1006.88	1555.84
1007.04	1899.29
1007.21	1947.62
1007.37	1633.66
1007.53	1614.82
1007.70	2248.87
1007.86	2135.21
1008.02	1719.06
1008.19	1600.08
1008.35	2066.61
1008.51	1899.90
1008.68	1634.69
1008.84	1574.07
1009.00	1886.79
1009.17	2218.15
1009.33	1807.74
1009.49	1730.53
1009.65	1895.60
1009.82	2041.01
1009.98	1697.56
1010.14	1532.70
1010.31	2148.11
1010.47	2123.13
1010.63	1679.95
1010.80	1686.71
1010.96	2106.54
1011.12	1984.48
1011.28	1649.02
1011.45	1624.65
1011.61	2475.38
1011.77	1887.20
1011.94	1599.46
1012.10	1588.40
1012.26	1870.41
1012.42	1927.34
1012.59	1666.64
1012.75	1688.35
1012.91	2006.19
1013.07	2173.71
1013.24	1584.10
1013.40	1624.45
1013.56	2051.45
1013.72	2016.43
1013.89	1697.77
1014.05	1737.70
1014.21	2346.97
1014.37	2438.93
1014.54	1671.96
1014.70	1581.65
1014.86	1949.26
1015.02	1858.74
1015.19	1637.76
1015.35	1587.59
1015.51	1987.55
1015.67	1957.86
1015.84	1632.85
1016.00	1639.19
1016.16	2213.85
1016.32	2146.68
1016.49	1635.30
1016.65	1579.80
1016.81	2019.09
1016.97	2123.54
1017.14	1757.57
1017.30	1651.69
1017.46	1927.34
1017.62	2082.58
1017.78	1717.63
1017.95	1611.75
1018.11	2152.62
1018.27	2418.04
1018.43	1778.87
1018.59	1699.61
1018.76	2167.16
1018.92	2447.53
1019.08	1594.96
1019.24	1660.70
1019.40	2239.04
1019.57	2064.56
1019.73	1741.39
1019.89	1635.30
1020.05	2045.92
1020.21	2394.69
1020.38	1613.39
1020.54	1803.65
1020.70	2130.71
1020.86	2136.44
1021.02	1643.90
1021.18	1635.71
1021.35	1939.22
1021.51	2111.87
1021.67	1778.46
1021.83	1679.95
1021.99	2032.20
1022.15	2089.34
1022.32	1726.03
1022.48	1661.31
1022.64	2251.13
1022.80	2297.62
1022.96	1708.83
1023.12	1580.42
1023.29	2162.45
1023.45	2105.52
1023.61	1613.18
1023.77	1878.19
1023.93	2042.85
1024.09	1895.80
1024.25	1614.21
1024.42	1572.02
1024.58	1943.93
1024.74	2070.70
1024.90	1655.78
1025.06	1691.21
1025.22	1956.22
1025.38	2311.95
1025.54	1570.18
1025.71	1711.69
1025.87	2121.49
1026.03	2090.36
1026.19	1596.60
1026.35	1808.36
1026.51	2113.30
1026.67	2016.63
1026.83	1675.03
1026.99	1794.23
1027.16	2113.91
1027.32	2236.59
1027.48	1662.75
1027.64	1608.07
1027.80	2112.68
1027.96	2046.13
1028.12	1665.82
1028.28	1632.64
1028.44	2073.57
1028.60	2259.11
1028.77	1770.88
1028.93	1700.02
1029.09	1949.26
1029.25	1836.41
1029.41	1669.09
1029.57	1750.19
1029.73	2112.68
1029.89	2281.23
1030.05	1777.02
1030.21	1721.11
1030.37	2422.54
1030.53	2107.77
1030.69	1684.86
1030.85	1603.56
1031.02	1888.02
1031.18	2024.83
1031.34	1650.46
1031.50	1745.89
1031.66	1891.50
1031.82	2284.51
1031.98	1685.07
1032.14	1575.91
1032.30	1902.56
1032.46	2148.52
1032.62	1781.53
1032.78	1561.17
1032.94	1954.99
1033.10	1968.92
1033.26	1711.69
1033.42	1799.75
1033.58	2401.04
1033.74	1961.34
1033.90	1627.32
1034.06	1833.14
1034.22	2406.77
1034.38	2186.82
1034.54	1700.63
1034.70	1700.43
1034.86	2367.45
>>>>>End Processed Spectral Data<<<<<
