SpectraSuite Data File
++++++++++++++++++++++++++++++++++++
Date: Thu Mar 30 16:06:43 PDT 2017
User: UCSD _CER
Dark Spectrum Present: No
Reference Spectrum Present: No
Number of Sampled Component Spectra: 1
Spectrometers: USB4C00073
Integration Time (usec): 250000 (USB4C00073)
Spectra Averaged: 10 (USB4C00073)
Boxcar Smoothing: 0 (USB4C00073)
Correct for Electrical Dark: No (USB4C00073)
Strobe/Lamp Enabled: No (USB4C00073)
Correct for Detector Non-linearity: No (USB4C00073)
Correct for Stray Light: No (USB4C00073)
Number of Pixels in Processed Spectrum: 3648
>>>>>Begin Processed Spectral Data<<<<<
345.37	1289.40
345.58	1289.40
345.80	1289.40
346.01	1277.52
346.22	1270.36
346.43	1967.69
346.65	1788.90
346.86	2108.38
347.07	2102.44
347.28	1806.31
347.50	1783.99
347.71	1933.90
347.92	1730.12
348.13	1801.39
348.35	1715.79
348.56	1885.56
348.77	1771.29
348.98	1795.66
349.20	1694.08
349.41	1914.24
349.62	1978.95
349.83	1865.49
350.05	1723.57
350.26	1969.53
350.47	2068.86
350.68	1800.98
350.90	1718.66
351.11	2094.05
351.32	2044.49
351.53	1820.64
351.75	1729.71
351.96	1920.99
352.17	1884.34
352.38	1846.04
352.60	1851.36
352.81	1916.90
353.02	2130.71
353.23	1756.54
353.44	1821.87
353.66	1858.33
353.87	1853.82
354.08	1889.05
354.29	1828.63
354.51	1824.54
354.72	1892.53
354.93	1795.25
355.14	1726.85
355.35	1768.63
355.57	2035.68
355.78	1833.55
355.99	1877.78
356.20	1933.90
356.42	1921.20
356.63	1906.04
356.84	1845.22
357.05	2012.95
357.26	2206.48
357.48	1892.32
357.69	1839.69
357.90	1970.76
358.11	1840.71
358.32	1801.19
358.54	1850.13
358.75	1859.97
358.96	2010.70
359.17	1774.36
359.38	1812.66
359.60	2011.11
359.81	1893.96
360.02	1795.66
360.23	1777.23
360.44	1864.06
360.66	2046.54
360.87	1744.05
361.08	1751.22
361.29	1918.33
361.50	1909.94
361.72	1781.32
361.93	1863.65
362.14	1911.16
362.35	1716.81
362.56	1899.08
362.77	1712.92
362.99	1981.41
363.20	1915.67
363.41	1889.46
363.62	1709.44
363.83	1975.88
364.05	2020.53
364.26	1735.24
364.47	1770.67
364.68	2070.09
364.89	1806.72
365.10	1723.98
365.32	1813.27
365.53	1817.57
365.74	1824.94
365.95	1805.28
366.16	1708.83
366.37	1889.87
366.59	1865.70
366.80	1815.32
367.01	1684.66
367.22	2156.10
367.43	2258.70
367.64	1803.65
367.86	1803.44
368.07	1975.88
368.28	2054.93
368.49	1748.76
368.70	1837.03
368.91	1884.13
369.12	1870.21
369.34	1715.79
369.55	1711.49
369.76	1904.00
369.97	1849.73
370.18	1751.01
370.39	1743.44
370.60	1716.81
370.82	1773.75
371.03	1781.32
371.24	1743.64
371.45	1995.13
371.66	1974.86
371.87	1794.64
372.08	1755.93
372.30	1757.36
372.51	2009.67
372.72	1882.49
372.93	1772.72
373.14	2096.51
373.35	1825.56
373.56	1743.23
373.78	1784.19
373.99	2009.88
374.20	2251.54
374.41	1776.82
374.62	1812.86
374.83	2093.02
375.04	1877.17
375.25	1824.33
375.47	1769.45
375.68	1872.05
375.89	1991.85
376.10	1816.14
376.31	1886.79
376.52	1970.35
376.73	1935.13
376.94	1829.25
377.15	1782.96
377.37	1919.77
377.58	1863.04
377.79	1682.82
378.00	1725.00
378.21	1917.72
378.42	1989.40
378.63	1795.66
378.84	1863.45
379.05	2010.08
379.27	1909.53
379.48	1892.94
379.69	1769.85
379.90	2060.05
380.11	1660.70
380.32	1788.49
380.53	1902.97
380.74	2041.42
380.95	1920.18
381.16	1791.56
381.37	1775.79
381.59	2072.13
381.80	2051.86
382.01	1736.27
382.22	1702.07
382.43	1980.39
382.64	1901.74
382.85	1746.71
383.06	1838.46
383.27	2026.26
383.48	1874.92
383.69	1848.50
383.91	1736.27
384.12	1961.75
384.33	1958.68
384.54	1805.08
384.75	1698.79
384.96	2270.58
385.17	2008.24
385.38	1764.12
385.59	1742.21
385.80	2003.12
386.01	2096.30
386.22	1854.85
386.43	1807.33
386.64	2200.75
386.86	1886.79
387.07	1912.19
387.28	1734.42
387.49	1811.02
387.70	2044.28
387.91	1856.89
388.12	1742.41
388.33	1960.52
388.54	1847.88
388.75	1773.54
388.96	1846.86
389.17	1840.92
389.38	1883.11
389.59	1854.23
389.80	1829.86
390.01	1894.99
390.22	1858.94
390.43	1901.13
390.64	1703.09
390.86	1941.27
391.07	2012.33
391.28	1823.72
391.49	1841.53
391.70	1748.35
391.91	1806.72
392.12	1803.24
392.33	1778.46
392.54	1891.91
392.75	1865.29
392.96	1884.13
393.17	1753.68
393.38	2199.72
393.59	2052.68
393.80	1747.74
394.01	1884.54
394.22	1991.44
394.43	2250.72
394.64	1872.46
394.85	2010.29
395.06	1987.96
395.27	2000.05
395.48	1867.13
395.69	1737.91
395.90	1871.02
396.11	1908.91
396.32	1760.84
396.53	1903.18
396.74	1880.65
396.95	2026.67
397.16	1762.28
397.37	1707.39
397.58	2035.07
397.79	1919.77
398.00	1845.02
398.21	1807.33
398.42	1951.51
398.63	2182.32
398.84	1795.04
399.05	1778.05
399.26	2037.11
399.47	1966.87
399.68	1618.10
399.89	1731.97
400.10	1781.32
400.31	1845.22
400.52	1832.32
400.73	1787.47
400.94	1719.47
401.15	1918.13
401.36	1783.78
401.57	1866.93
401.78	2022.16
401.99	2017.45
402.20	1723.57
402.41	1908.71
402.62	2103.26
402.83	1876.14
403.04	1755.11
403.25	1948.03
403.46	1983.25
403.67	2183.13
403.88	1959.09
404.09	1941.68
404.30	2012.54
404.51	1945.37
404.72	1858.12
404.93	1955.61
405.14	1847.06
405.35	1903.79
405.56	1804.87
405.77	1768.01
405.98	1945.16
406.19	1867.13
406.40	1755.93
406.61	1783.58
406.82	1803.03
407.03	2173.51
407.24	1703.71
407.45	1817.37
407.66	1933.28
407.87	2027.28
408.08	1846.65
408.29	1879.83
408.49	1971.78
408.70	1915.06
408.91	1809.99
409.12	1902.36
409.33	1779.68
409.54	2079.30
409.75	1769.65
409.96	1803.65
410.17	2001.48
410.38	1878.19
410.59	1781.53
410.80	1853.41
411.01	1890.07
411.22	1875.94
411.43	1845.02
411.64	1754.49
411.85	1807.13
412.06	1797.71
412.27	1640.42
412.47	1775.59
412.68	1898.88
412.89	1982.84
413.10	1773.54
413.31	1702.48
413.52	2179.45
413.73	2142.99
413.94	1763.30
414.15	1899.08
414.36	1849.93
414.57	1816.34
414.78	1800.78
414.99	2228.39
415.19	2739.77
415.40	2870.84
415.61	3034.68
415.82	2881.70
416.03	2771.31
416.24	2534.77
416.45	2230.24
416.66	1962.77
416.87	1867.34
417.08	2048.79
417.29	1845.22
417.50	1962.36
417.70	2124.97
417.91	2157.74
418.12	2113.71
418.33	2181.70
418.54	2368.68
418.75	2530.88
418.96	2605.22
419.17	2888.46
419.38	3481.34
419.59	3442.02
419.79	3320.58
420.00	3194.22
420.21	3223.91
420.42	2526.37
420.63	2195.83
420.84	2100.19
421.05	1982.02
421.26	1949.05
421.47	1738.32
421.67	2067.63
421.88	1803.24
422.09	1761.25
422.30	1948.85
422.51	1822.90
422.72	2126.61
422.93	1981.20
423.14	1807.74
423.35	1704.73
423.55	1720.09
423.76	1817.78
423.97	1803.24
424.18	1714.56
424.39	1926.93
424.60	2086.06
424.81	1913.83
425.02	2103.26
425.22	2194.40
425.43	2215.29
425.64	2411.28
425.85	2405.34
426.06	2663.79
426.27	2571.84
426.48	2579.62
426.68	2528.63
426.89	2647.82
427.10	2664.41
427.31	2225.12
427.52	1991.85
427.73	2131.94
427.94	2072.75
428.14	1902.77
428.35	1822.28
428.56	2069.88
428.77	2039.57
428.98	1911.16
429.19	2060.67
429.40	2179.45
429.60	2210.78
429.81	2345.95
430.02	2181.70
430.23	2114.73
430.44	2137.26
430.65	1906.66
430.85	1888.02
431.06	1975.88
431.27	1747.12
431.48	1808.15
431.69	1848.91
431.90	1914.44
432.10	1930.21
432.31	1890.48
432.52	1955.40
432.73	2560.98
432.94	2540.30
433.15	2417.42
433.35	2296.80
433.56	2444.46
433.77	2203.00
433.98	2168.18
434.19	2019.71
434.40	2077.25
434.60	1983.46
434.81	1865.70
435.02	1903.18
435.23	1928.16
435.44	1862.42
435.64	1701.66
435.85	1764.33
436.06	1906.25
436.27	1867.75
436.48	1717.63
436.68	1781.94
436.89	2146.68
437.10	2013.56
437.31	1822.49
437.52	1899.08
437.73	1916.69
437.93	1890.89
438.14	1855.46
438.35	1704.32
438.56	1845.63
438.77	1878.81
438.97	1960.32
439.18	1761.66
439.39	2039.78
439.60	1743.23
439.80	1691.21
440.01	1833.96
440.22	1836.82
440.43	1995.75
440.64	1732.17
440.84	1821.26
441.05	1748.35
441.26	2224.91
441.47	1852.39
441.68	1775.18
441.88	1879.01
442.09	1879.01
442.30	1940.86
442.51	1864.27
442.71	1861.19
442.92	1954.79
443.13	1753.47
443.34	1759.41
443.55	1765.96
443.75	1997.38
443.96	1762.28
444.17	1736.47
444.38	2027.69
444.58	1837.23
444.79	1888.64
445.00	1809.79
445.21	1891.91
445.41	1884.13
445.62	1623.63
445.83	1871.84
446.04	1932.26
446.24	1753.88
446.45	1658.04
446.66	1797.30
446.87	1953.35
447.07	1838.05
447.28	1995.13
447.49	1831.70
447.70	2018.07
447.90	2002.09
448.11	1815.93
448.32	1885.16
448.53	2081.76
448.73	2035.68
448.94	1815.32
449.15	1919.77
449.36	1929.60
449.56	1967.89
449.77	1772.11
449.98	1726.03
450.19	1892.32
450.39	1998.20
450.60	2053.70
450.81	1987.35
451.02	2064.56
451.22	2220.20
451.43	1858.33
451.64	1857.92
451.84	1977.93
452.05	2167.16
452.26	1914.24
452.47	1854.44
452.67	1890.68
452.88	2091.59
453.09	1774.97
453.30	1756.54
453.50	1981.82
453.71	2084.42
453.92	1819.21
454.12	1915.26
454.33	1860.99
454.54	1866.72
454.75	1747.33
454.95	1734.22
455.16	1931.23
455.37	1977.52
455.57	1837.23
455.78	1829.25
455.99	1874.10
456.19	1933.69
456.40	1781.32
456.61	1837.85
456.82	1882.90
457.02	1991.85
457.23	1870.82
457.44	1971.37
457.64	1839.49
457.85	1988.58
458.06	1831.29
458.26	1982.23
458.47	1911.16
458.68	2046.33
458.89	1810.40
459.09	1994.11
459.30	2231.47
459.51	1983.25
459.71	1785.62
459.92	1853.82
460.13	2029.54
460.33	2196.45
460.54	1803.44
460.75	1804.26
460.95	1771.49
461.16	1940.04
461.37	1795.86
461.57	1865.90
461.78	1927.96
461.99	1780.91
462.19	2043.05
462.40	1831.91
462.61	2415.78
462.81	2086.06
463.02	1783.58
463.23	1809.79
463.43	2013.56
463.64	1892.94
463.85	2775.00
464.05	1847.88
464.26	2389.98
464.47	2128.86
464.67	2001.68
464.88	1888.02
465.09	1831.09
465.29	1947.21
465.50	1949.67
465.71	1836.00
465.91	1828.22
466.12	1913.42
466.33	1858.94
466.53	1791.15
466.74	2082.17
466.94	1870.61
467.15	1805.90
467.36	1994.31
467.56	1816.96
467.77	1956.42
467.98	1877.99
468.18	1783.58
468.39	1857.92
468.60	2171.05
468.80	1839.49
469.01	1790.13
469.21	1960.93
469.42	2073.36
469.63	1889.25
469.83	1848.50
470.04	2092.41
470.25	2215.70
470.45	1943.73
470.66	1856.07
470.86	2005.78
471.07	1913.83
471.28	1937.99
471.48	1977.31
471.69	1943.32
471.90	2355.37
472.10	1818.60
472.31	1826.38
472.51	1811.43
472.72	1812.25
472.93	1764.12
473.13	1959.09
473.34	1938.61
473.54	1905.23
473.75	1850.75
473.96	1992.06
474.16	1931.64
474.37	1982.43
474.57	1948.85
474.78	1876.55
474.99	2040.80
475.19	1980.59
475.40	1856.89
475.60	1775.38
475.81	2116.37
476.02	1913.21
476.22	1954.79
476.43	2063.94
476.63	1989.60
476.84	2177.20
477.05	1732.58
477.25	1843.58
477.46	2320.76
477.66	1925.91
477.87	1721.52
478.08	1840.92
478.28	2077.05
478.49	1900.92
478.69	1806.51
478.90	1852.39
479.10	2009.06
479.31	2121.08
479.52	1899.08
479.72	1965.23
479.93	1992.26
480.13	1844.81
480.34	1825.97
480.54	1904.41
480.75	1823.72
480.96	2062.10
481.16	1798.32
481.37	1912.39
481.57	2006.19
481.78	2015.20
481.98	2023.60
482.19	1889.87
482.40	2155.90
482.60	1998.20
482.81	1961.75
483.01	1864.06
483.22	2111.25
483.42	2127.84
483.63	1967.48
483.83	1946.80
484.04	1894.58
484.24	2021.75
484.45	1917.92
484.66	1750.40
484.86	1992.88
485.07	1833.75
485.27	1883.31
485.48	1790.74
485.68	2074.80
485.89	1847.06
486.09	1906.86
486.30	1811.63
486.50	1959.91
486.71	1992.88
486.91	1985.30
487.12	2066.20
487.33	2308.88
487.53	2284.92
487.74	2042.03
487.94	2054.73
488.15	2131.32
488.35	2234.74
488.56	2096.71
488.76	2092.41
488.97	2053.29
489.17	2121.90
489.38	1960.52
489.58	1913.01
489.79	2042.44
489.99	1996.36
490.20	1921.20
490.40	1982.02
490.61	2019.50
490.81	1892.53
491.02	1875.12
491.22	1956.42
491.43	2041.82
491.63	1932.67
491.84	2010.08
492.04	1774.36
492.25	2002.50
492.45	1872.66
492.66	1824.33
492.86	1744.25
493.07	1882.29
493.27	2198.49
493.48	1731.76
493.68	1848.91
493.89	1910.96
494.09	2015.82
494.30	1828.22
494.50	2094.87
494.71	2009.47
494.91	1831.09
495.12	1958.27
495.32	2035.68
495.53	1996.16
495.73	1797.91
495.94	1882.70
496.14	1730.33
496.35	2192.15
496.55	1887.82
496.76	1858.12
496.96	1909.32
497.17	1962.77
497.37	2016.02
497.58	1835.39
497.78	1805.28
497.98	1893.96
498.19	1938.61
498.39	1920.99
498.60	1979.16
498.80	1769.24
499.01	2055.34
499.21	1815.11
499.42	1886.59
499.62	1886.38
499.83	2214.47
500.03	1716.20
500.24	1899.08
500.44	2085.24
500.64	2051.66
500.85	1817.78
501.05	1956.22
501.26	1757.16
501.46	2075.41
501.67	1789.92
501.87	1772.31
502.08	1817.57
502.28	1890.68
502.48	1966.66
502.69	2011.72
502.89	1824.54
503.10	1889.25
503.30	1913.83
503.51	1904.82
503.71	1773.95
503.92	2050.63
504.12	2013.97
504.32	1959.09
504.53	2138.49
504.73	2159.99
504.94	2138.49
505.14	2263.01
505.35	2273.86
505.55	2260.14
505.75	2203.00
505.96	2251.13
506.16	2372.78
506.37	2012.54
506.57	1913.42
506.78	2017.86
506.98	2183.75
507.18	1851.57
507.39	1849.11
507.59	1967.69
507.80	1925.91
508.00	2000.46
508.20	2083.81
508.41	1959.09
508.61	2144.43
508.82	2092.82
509.02	2011.51
509.22	1802.21
509.43	1809.18
509.63	1874.30
509.84	1890.07
510.04	1784.19
510.24	2114.32
510.45	2016.84
510.65	1754.90
510.86	1901.13
511.06	1834.37
511.26	2056.78
511.47	2060.05
511.67	1891.09
511.88	2043.26
512.08	2104.49
512.28	1798.53
512.49	1971.78
512.69	1974.86
512.90	1970.15
513.10	1815.73
513.30	1906.04
513.51	1974.65
513.71	2131.73
513.91	1931.23
514.12	1940.25
514.32	2097.53
514.53	1993.08
514.73	2127.43
514.93	2070.09
515.14	2185.18
515.34	2421.52
515.54	2287.17
515.75	2384.65
515.95	2565.49
516.15	2562.42
516.36	2263.82
516.56	2175.76
516.77	1854.44
516.97	2140.33
517.17	2001.89
517.38	2080.12
517.58	2268.33
517.78	2130.50
517.99	2309.70
518.19	2414.35
518.39	2667.27
518.60	2506.30
518.80	2352.91
519.00	2309.29
519.21	2151.19
519.41	2320.55
519.61	1928.37
519.82	2036.91
520.02	2047.76
520.22	2015.41
520.43	1975.06
520.63	1989.40
520.83	1947.21
521.04	1908.30
521.24	2253.38
521.44	2284.51
521.65	2391.41
521.85	2589.04
522.05	2334.27
522.26	2194.60
522.46	2437.49
522.66	2206.69
522.87	1981.61
523.07	2129.07
523.27	1973.22
523.48	2235.15
523.68	2051.66
523.88	2012.74
524.09	2207.10
524.29	2107.77
524.49	1953.97
524.70	2287.17
524.90	2417.63
525.10	2348.82
525.31	2039.57
525.51	1955.81
525.71	2146.68
525.91	2059.44
526.12	1893.35
526.32	1807.74
526.52	1875.53
526.73	1862.83
526.93	1934.72
527.13	1809.59
527.34	1959.91
527.54	1968.71
527.74	1889.05
527.94	1845.42
528.15	1866.52
528.35	1987.96
528.55	1999.23
528.76	1960.11
528.96	1750.40
529.16	2062.30
529.36	2017.86
529.57	1807.54
529.77	2088.11
529.97	1814.91
530.18	1967.69
530.38	1869.18
530.58	1993.29
530.78	1939.22
530.99	1867.13
531.19	1975.27
531.39	1900.52
531.60	1964.62
531.80	1866.31
532.00	2035.27
532.20	1973.42
532.41	1881.47
532.61	1874.51
532.81	1886.18
533.01	1898.26
533.22	1998.61
533.42	2011.31
533.62	1738.11
533.82	2066.81
534.03	1917.31
534.23	1970.15
534.43	1811.22
534.63	1867.34
534.84	1959.70
535.04	1894.99
535.24	1898.47
535.44	2242.53
535.65	1884.13
535.85	1830.68
536.05	1809.99
536.25	1925.91
536.46	1841.94
536.66	2080.33
536.86	1995.75
537.06	2096.10
537.27	2164.09
537.47	2016.23
537.67	1879.83
537.87	2114.32
538.08	1922.22
538.28	1829.66
538.48	1860.99
538.68	1969.94
538.88	2055.34
539.09	1800.78
539.29	1881.88
539.49	2069.68
539.69	1982.43
539.90	1966.87
540.10	1878.40
540.30	2151.60
540.50	1967.28
540.70	1863.24
540.91	2008.85
541.11	2176.58
541.31	2327.31
541.51	2182.73
541.72	2209.14
541.92	2275.91
542.12	2086.47
542.32	2036.91
542.52	1960.52
542.73	1917.72
542.93	2047.15
543.13	1960.52
543.33	2081.35
543.53	2197.68
543.74	2213.85
543.94	2073.36
544.14	2292.91
544.34	2446.71
544.54	2320.35
544.75	2432.58
544.95	2616.89
545.15	2475.99
545.35	2497.91
545.55	2321.99
545.75	2103.47
545.96	2418.04
546.16	1987.96
546.36	2022.98
546.56	2019.91
546.76	2185.59
546.97	2235.15
547.17	1977.31
547.37	2019.09
547.57	1899.49
547.77	2053.29
547.97	1975.27
548.18	1979.98
548.38	2031.18
548.58	2536.41
548.78	2644.34
548.98	3020.55
549.18	3379.35
549.39	3569.61
549.59	3209.17
549.79	2845.45
549.99	2897.88
550.19	2666.46
550.39	2589.66
550.60	2310.11
550.80	2279.80
551.00	2281.03
551.20	2045.31
551.40	1992.67
551.60	2107.77
551.80	2091.18
552.01	2140.54
552.21	2044.49
552.41	2099.99
552.61	2253.38
552.81	2023.60
553.01	1857.30
553.21	2053.70
553.42	1862.01
553.62	1851.36
553.82	1863.86
554.02	2162.45
554.22	2049.61
554.42	1825.76
554.62	1992.06
554.83	2352.50
555.03	2675.06
555.23	2643.11
555.43	3070.31
555.63	3027.92
555.83	2901.15
556.03	2562.42
556.23	2372.78
556.44	2532.72
556.64	2592.11
556.84	2201.36
557.04	2375.03
557.24	2415.17
557.44	2262.39
557.64	2175.15
557.84	1996.56
558.04	2017.66
558.25	2128.66
558.45	1962.16
558.65	2016.43
558.85	2088.93
559.05	1883.52
559.25	2054.73
559.45	2183.13
559.65	2622.22
559.85	3156.33
560.05	2628.36
560.26	2792.00
560.46	2803.05
560.66	2569.59
560.86	2339.39
561.06	2217.54
561.26	2449.17
561.46	2294.34
561.66	2101.83
561.86	2196.24
562.06	2010.49
562.26	2049.61
562.47	2028.72
562.67	1875.12
562.87	2090.77
563.07	1843.58
563.27	2013.56
563.47	2030.15
563.67	1978.13
563.87	2147.09
564.07	2070.29
564.27	2182.73
564.47	2250.51
564.67	2388.75
564.87	2274.68
565.08	2314.82
565.28	2170.03
565.48	2272.22
565.68	2195.83
565.88	2111.05
566.08	2278.57
566.28	2014.18
566.48	1851.98
566.68	1925.30
566.88	1898.67
567.08	2068.65
567.28	1939.63
567.48	1974.86
567.68	2125.38
567.88	1916.08
568.08	2103.67
568.28	2207.71
568.48	2075.21
568.68	2247.85
568.89	2080.94
569.09	1868.98
569.29	2117.19
569.49	2108.79
569.69	1870.00
569.89	1841.94
570.09	1740.98
570.29	1868.98
570.49	1777.23
570.69	1834.78
570.89	2053.50
571.09	2170.03
571.29	1772.11
571.49	2032.81
571.69	1950.49
571.89	2003.53
572.09	1843.99
572.29	1856.69
572.49	2017.04
572.69	1988.78
572.89	1962.57
573.09	1783.78
573.29	2098.35
573.49	2173.51
573.69	2146.48
573.89	2203.82
574.09	2013.15
574.29	2184.36
574.49	1908.30
574.69	1892.12
574.89	1834.78
575.09	1812.25
575.29	1819.21
575.49	1890.68
575.69	2000.25
575.89	1767.81
576.09	1938.61
576.29	1972.19
576.49	1870.82
576.69	2003.32
576.89	1963.59
577.09	1977.93
577.29	1836.41
577.49	2228.39
577.69	1876.96
577.89	2003.53
578.09	1970.15
578.29	1758.18
578.49	1935.94
578.69	1841.53
578.89	2063.74
579.09	1940.25
579.29	1858.53
579.49	2072.13
579.69	1949.67
579.89	2254.20
580.09	1797.09
580.29	1773.13
580.49	1889.46
580.69	1808.56
580.89	1904.41
581.09	1865.29
581.29	1839.28
581.49	1897.44
581.69	1794.02
581.89	1778.25
582.09	1807.54
582.28	1839.49
582.48	2020.32
582.68	2175.97
582.88	2231.88
583.08	2078.89
583.28	2033.02
583.48	2016.63
583.68	1907.27
583.88	1987.35
584.08	1959.70
584.28	1930.42
584.48	2183.95
584.68	1984.28
584.88	1890.28
585.08	2068.45
585.28	2095.28
585.48	2159.79
585.68	2043.67
585.87	2038.75
586.07	2012.95
586.27	1941.06
586.47	2038.96
586.67	1935.74
586.87	1929.19
587.07	1876.76
587.27	1827.81
587.47	2002.30
587.67	2314.41
587.87	2683.86
588.07	2561.80
588.27	2541.32
588.46	2820.05
588.66	2815.34
588.86	2526.17
589.06	2439.54
589.26	2383.02
589.46	2309.29
589.66	2014.38
589.86	1953.56
590.06	2053.70
590.26	2264.23
590.46	2198.29
590.66	2353.12
590.85	2270.99
591.05	2385.47
591.25	2108.59
591.45	2130.71
591.65	2232.29
591.85	2237.82
592.05	2212.22
592.25	2402.27
592.45	2466.16
592.64	2307.24
592.84	2246.83
593.04	2087.70
593.24	2496.47
593.44	2115.76
593.64	2182.93
593.84	2201.98
594.04	2094.25
594.24	2287.99
594.43	1964.82
594.63	2024.62
594.83	2138.90
595.03	2102.24
595.23	1872.05
595.43	1789.52
595.63	1875.53
595.83	2065.38
596.02	1753.06
596.22	1982.64
596.42	2043.87
596.62	2003.12
596.82	1936.97
597.02	2053.09
597.22	2151.19
597.41	2005.37
597.61	1900.92
597.81	2104.70
598.01	2168.39
598.21	2036.70
598.41	2024.42
598.61	1997.79
598.80	2086.27
599.00	2123.74
599.20	2192.56
599.40	2039.16
599.60	2069.68
599.80	2208.32
599.99	2192.56
600.19	2004.55
600.39	2073.57
600.59	2110.84
600.79	2066.61
600.99	2030.36
601.19	2237.61
601.38	2316.87
601.58	2084.63
601.78	1886.79
601.98	2356.19
602.18	3183.36
602.37	3972.65
602.57	4210.62
602.77	4739.61
602.97	4862.90
603.17	4551.82
603.37	4333.71
603.56	4315.27
603.76	4142.22
603.96	4003.37
604.16	3774.20
604.36	3500.39
604.56	3201.59
604.75	2757.39
604.95	2696.56
605.15	2770.49
605.35	2577.16
605.55	2354.34
605.74	2252.97
605.94	2389.77
606.14	2165.11
606.34	2123.33
606.54	2044.28
606.73	1961.13
606.93	2077.05
607.13	1899.70
607.33	1976.29
607.53	2164.09
607.72	2082.17
607.92	2025.85
608.12	2081.76
608.32	1981.20
608.51	2071.93
608.71	1956.42
608.91	2121.49
609.11	2205.46
609.31	2154.67
609.50	2314.20
609.70	2529.04
609.90	2477.43
610.10	2477.02
610.29	2301.10
610.49	2217.34
610.69	2320.96
610.89	2183.75
611.09	2163.06
611.28	2230.85
611.48	2190.71
611.68	2022.98
611.88	1959.09
612.07	1937.99
612.27	2124.97
612.47	1960.32
612.67	2025.65
612.86	2115.35
613.06	1977.93
613.26	1808.97
613.46	1971.99
613.65	2083.81
613.85	2478.66
614.05	2299.87
614.25	2249.69
614.44	2175.56
614.64	2182.52
614.84	2105.93
615.04	2091.80
615.23	2107.97
615.43	2215.70
615.63	2218.77
615.83	2025.65
616.02	2004.14
616.22	2374.82
616.42	2256.04
616.62	2324.24
616.81	2427.66
617.01	2443.84
617.21	2365.81
617.41	2132.75
617.60	2172.69
617.80	2205.05
618.00	2167.57
618.19	2071.11
618.39	2066.20
618.59	2078.48
618.79	1962.36
618.98	1772.31
619.18	1908.50
619.38	2180.06
619.57	1890.48
619.77	1891.30
619.97	1889.87
620.17	1921.40
620.36	1936.76
620.56	2299.46
620.76	2138.49
620.95	2196.04
621.15	2241.30
621.35	2143.20
621.54	2116.58
621.74	2154.05
621.94	2015.20
622.14	1958.06
622.33	1829.66
622.53	1961.75
622.73	1931.85
622.92	1781.32
623.12	1959.29
623.32	2176.58
623.51	2054.93
623.71	1760.23
623.91	2052.47
624.10	1827.20
624.30	1964.41
624.50	1805.08
624.69	1800.78
624.89	2372.16
625.09	1879.42
625.29	1706.57
625.48	1800.16
625.68	1963.80
625.88	2024.62
626.07	1920.18
626.27	1815.11
626.47	1863.65
626.66	1731.35
626.86	1846.86
627.06	1874.71
627.25	1900.51
627.45	2117.39
627.64	1877.99
627.84	2029.33
628.04	1835.59
628.23	2179.86
628.43	1829.25
628.63	1876.55
628.82	1961.75
629.02	2315.23
629.22	2182.73
629.41	2272.43
629.61	2153.23
629.81	2414.96
630.00	2138.08
630.20	2089.34
630.40	2269.56
630.59	2297.82
630.79	2153.85
630.98	2063.53
631.18	2063.74
631.38	2036.30
631.57	2136.24
631.77	1817.57
631.97	1977.52
632.16	1982.02
632.36	1948.44
632.56	1905.63
632.75	1945.57
632.95	2039.37
633.14	1758.39
633.34	2036.50
633.54	1705.55
633.73	1833.75
633.93	1817.37
634.12	1720.70
634.32	2253.18
634.52	1912.60
634.71	1776.20
634.91	1918.74
635.11	1748.35
635.30	1820.03
635.50	1914.24
635.69	1819.62
635.89	2192.56
636.09	2101.01
636.28	1896.01
636.48	1935.33
636.67	2096.10
636.87	2080.12
637.07	2029.95
637.26	1920.38
637.46	2067.63
637.65	2171.67
637.85	2043.87
638.04	1977.11
638.24	1998.82
638.44	2077.46
638.63	1972.81
638.83	1921.40
639.02	1998.82
639.22	2034.04
639.42	1931.44
639.61	1907.48
639.81	1920.18
640.00	1916.28
640.20	1983.87
640.39	2030.36
640.59	2486.44
640.79	2502.00
640.98	2550.54
641.18	2601.13
641.37	2647.20
641.57	2426.64
641.76	2370.11
641.96	2101.01
642.15	2274.88
642.35	2129.89
642.55	2154.46
642.74	1972.19
642.94	2146.89
643.13	2207.10
643.33	1921.81
643.52	1864.68
643.72	1845.22
643.91	1891.91
644.11	1838.67
644.31	1808.77
644.50	1826.79
644.70	2043.87
644.89	1867.75
645.09	1938.61
645.28	1901.95
645.48	1985.10
645.67	1806.10
645.87	1729.92
646.06	1890.48
646.26	1968.30
646.45	1708.42
646.65	1686.91
646.84	2165.93
647.04	1900.92
647.24	1766.99
647.43	1912.19
647.63	1949.26
647.82	2095.07
648.02	1766.78
648.21	1826.99
648.41	2082.37
648.60	1873.89
648.80	2012.74
648.99	1922.02
649.19	1846.45
649.38	1733.61
649.58	1895.19
649.77	1929.19
649.97	2045.51
650.16	1952.12
650.36	1680.56
650.55	2014.38
650.75	1918.74
650.94	2101.63
651.14	1897.85
651.33	1927.34
651.53	2093.64
651.72	1803.85
651.92	1867.75
652.11	1674.42
652.31	1968.51
652.50	1960.11
652.70	1944.75
652.89	1795.86
653.09	2170.44
653.28	1923.45
653.48	1736.06
653.67	1750.81
653.87	2349.63
654.06	1937.17
654.25	2097.32
654.45	1843.58
654.64	1872.05
654.84	1898.06
655.03	1686.91
655.23	1980.39
655.42	1978.75
655.62	2126.20
655.81	1917.92
656.01	1774.97
656.20	2035.89
656.40	2099.99
656.59	1912.39
656.79	2031.58
656.98	1918.95
657.17	2002.91
657.37	1898.47
657.56	1820.85
657.76	1936.97
657.95	2041.21
658.15	1574.07
658.34	1876.96
658.54	1904.00
658.73	1801.60
658.92	1860.78
659.12	1921.20
659.31	2038.96
659.51	1880.24
659.70	2016.23
659.90	1978.75
660.09	2143.61
660.29	2020.32
660.48	1885.56
660.67	2106.75
660.87	1902.77
661.06	2021.55
661.26	2005.17
661.45	1959.70
661.65	1968.51
661.84	1872.87
662.03	1862.63
662.23	1835.39
662.42	2167.37
662.62	1791.15
662.81	1780.50
663.00	1846.86
663.20	1902.97
663.39	1954.99
663.59	1965.03
663.78	1829.86
663.97	1848.91
664.17	1993.90
664.36	1736.88
664.56	1795.66
664.75	1996.56
664.94	1984.69
665.14	1926.93
665.33	1929.19
665.53	1979.36
665.72	1997.59
665.91	2132.55
666.11	1957.24
666.30	1988.17
666.50	1928.16
666.69	1991.04
666.88	1917.31
667.08	1949.26
667.27	1912.80
667.47	1915.87
667.66	1878.19
667.85	2049.40
668.05	1932.26
668.24	1837.85
668.43	2044.90
668.63	1882.49
668.82	2065.99
669.02	1973.63
669.21	1920.79
669.40	1786.44
669.60	2152.62
669.79	1780.71
669.98	2366.22
670.18	1803.85
670.37	1795.45
670.56	1844.40
670.76	1939.22
670.95	1927.14
671.15	2062.10
671.34	1984.69
671.53	1972.81
671.73	1890.07
671.92	1903.38
672.11	1797.09
672.31	1881.67
672.50	1961.13
672.69	1780.91
672.89	1682.61
673.08	1854.64
673.27	2020.12
673.47	1927.14
673.66	1950.49
673.85	1798.73
674.05	2051.04
674.24	2407.18
674.43	2545.22
674.63	2935.15
674.82	3327.13
675.01	2804.08
675.21	2948.67
675.40	2659.90
675.59	2584.54
675.79	2745.30
675.98	2455.31
676.17	2546.65
676.37	2423.16
676.56	2206.89
676.75	2201.98
676.95	2078.48
677.14	1992.26
677.33	2141.15
677.52	1862.83
677.72	1872.05
677.91	1966.66
678.10	1765.76
678.30	1781.12
678.49	1784.40
678.68	2164.70
678.88	1734.42
679.07	2007.42
679.26	1863.24
679.45	2135.21
679.65	2051.04
679.84	1690.19
680.03	1713.13
680.23	1874.30
680.42	2224.09
680.61	1768.42
680.81	1816.55
681.00	1932.05
681.19	1978.13
681.38	1991.24
681.58	1980.59
681.77	1915.26
681.96	2040.80
682.15	1908.50
682.35	1973.63
682.54	2004.55
682.73	1805.49
682.93	1823.10
683.12	1829.25
683.31	2005.37
683.50	2251.95
683.70	1822.08
683.89	1909.73
684.08	1810.61
684.27	2052.47
684.47	1718.66
684.66	1925.50
684.85	2180.27
685.04	2061.89
685.24	1818.80
685.43	1888.64
685.62	1722.75
685.81	2001.07
686.01	2126.82
686.20	2249.90
686.39	2336.53
686.58	2857.94
686.78	2650.07
686.97	2612.39
687.16	2544.60
687.35	2399.20
687.55	2286.56
687.74	2341.03
687.93	2187.64
688.12	2248.46
688.32	2254.81
688.51	2046.94
688.70	2191.12
688.89	1974.65
689.08	1846.04
689.28	1877.17
689.47	2016.84
689.66	1961.95
689.85	2035.48
690.05	1868.57
690.24	1871.02
690.43	1967.89
690.62	1933.28
690.81	1866.72
691.01	1924.68
691.20	1852.39
691.39	1789.92
691.58	1972.81
691.77	2142.38
691.97	1924.27
692.16	1967.89
692.35	1873.28
692.54	1867.54
692.73	2107.97
692.93	2105.93
693.12	2190.10
693.31	2240.07
693.50	2209.14
693.69	2180.06
693.89	2064.35
694.08	2235.56
694.27	2277.55
694.46	1974.24
694.65	2079.51
694.85	2146.27
695.04	2151.80
695.23	2088.31
695.42	2697.99
695.61	3110.86
695.80	3470.90
696.00	3772.56
696.19	3953.19
696.38	3491.79
696.57	3162.27
696.76	3093.66
696.95	2876.99
697.15	2942.93
697.34	2832.75
697.53	2495.25
697.72	2432.37
697.91	2301.10
698.10	2414.76
698.30	2104.29
698.49	2044.69
698.68	2057.18
698.87	1953.35
699.06	1877.37
699.25	1910.55
699.45	2070.50
699.64	1949.05
699.83	2038.55
700.02	1816.55
700.21	1963.59
700.40	1835.59
700.59	1855.05
700.79	1852.39
700.98	1960.73
701.17	1836.62
701.36	1813.07
701.55	1816.75
701.74	2131.53
701.93	2137.87
702.12	2550.75
702.32	2611.77
702.51	3010.72
702.70	3024.65
702.89	2763.94
703.08	2458.59
703.27	2665.84
703.46	2503.23
703.65	2339.60
703.85	2188.87
704.04	2203.82
704.23	2354.55
704.42	2051.86
704.61	2016.23
704.80	2204.64
704.99	1903.79
705.18	1981.20
705.37	1960.11
705.57	2429.30
705.76	3119.88
705.95	3258.93
706.14	3887.86
706.33	4140.79
706.52	4246.87
706.71	3507.97
706.90	3124.79
707.09	3133.19
707.28	2981.02
707.47	2719.91
707.67	2749.81
707.86	2498.52
708.05	2597.23
708.24	2333.46
708.43	2210.17
708.62	2101.01
708.81	1950.90
709.00	1831.29
709.19	1857.30
709.38	2089.54
709.57	1840.10
709.76	2046.54
709.96	1990.42
710.15	2242.73
710.34	2078.07
710.53	2141.77
710.72	2028.31
710.91	2141.77
711.10	2056.57
711.29	2056.37
711.48	1914.85
711.67	1892.73
711.86	2090.98
712.05	1903.79
712.24	1923.25
712.43	2084.22
712.62	2137.67
712.81	1977.93
713.00	2058.41
713.19	1795.45
713.39	1996.16
713.58	1840.71
713.77	1983.05
713.96	2093.02
714.15	2002.09
714.34	1992.88
714.53	1879.63
714.72	2267.10
714.91	1922.84
715.10	2047.35
715.29	1930.82
715.48	2472.92
715.67	2166.55
715.86	2042.23
716.05	2008.24
716.24	1963.80
716.43	1917.92
716.62	1852.18
716.81	1815.11
717.00	1923.86
717.19	2156.51
717.38	1986.32
717.57	1890.68
717.76	1738.11
717.95	2043.46
718.14	1911.57
718.33	1874.51
718.52	1712.51
718.71	1739.54
718.90	1749.37
719.09	1848.91
719.28	1908.71
719.47	2041.21
719.66	2121.08
719.85	2126.20
720.04	2098.55
720.23	2165.93
720.42	2091.39
720.61	2149.75
720.80	1895.40
720.99	2087.70
721.18	1997.79
721.37	1893.14
721.56	1954.17
721.75	2099.37
721.94	1885.77
722.13	1943.11
722.32	1932.26
722.51	2062.71
722.70	1903.79
722.89	1941.68
723.08	1883.93
723.27	2013.77
723.46	1906.86
723.65	1863.65
723.84	1807.95
724.03	2099.37
724.22	1752.65
724.41	1940.86
724.60	1834.16
724.79	2029.54
724.98	1925.30
725.16	1834.98
725.35	1983.46
725.54	1783.99
725.73	1911.78
725.92	1944.55
726.11	2039.78
726.30	2301.30
726.49	2150.57
726.68	2301.10
726.87	2388.55
727.06	2501.59
727.25	2143.61
727.44	2229.01
727.63	2180.88
727.82	2103.47
728.01	2150.16
728.20	2196.86
728.38	2298.64
728.57	2018.48
728.76	2014.59
728.95	2079.30
729.14	1831.50
729.33	1823.10
729.52	1704.73
729.71	1818.60
729.90	1836.21
730.09	1931.03
730.28	1981.82
730.47	2000.46
730.66	2294.34
730.84	2197.47
731.03	2156.10
731.22	2156.72
731.41	2127.43
731.60	2132.35
731.79	1868.98
731.98	1954.79
732.17	2075.21
732.36	2054.73
732.55	1897.44
732.73	1853.41
732.92	2135.83
733.11	1984.28
733.30	1861.60
733.49	1779.89
733.68	2000.87
733.87	1990.42
734.06	1902.36
734.25	2066.40
734.43	2222.66
734.62	2412.51
734.81	2470.46
735.00	2430.32
735.19	2366.63
735.38	2320.76
735.57	2106.54
735.76	2260.55
735.94	2413.12
736.13	3006.21
736.32	3048.61
736.51	3196.06
736.70	3585.38
736.89	3687.98
737.08	3510.01
737.27	3863.29
737.45	4740.64
737.64	4975.13
737.83	5445.34
738.02	5587.68
738.21	5410.12
738.40	4708.48
738.59	4204.48
738.77	4041.67
738.96	3709.90
739.15	3564.08
739.34	3331.84
739.53	3135.24
739.72	3019.53
739.90	2841.76
740.09	2461.86
740.28	2429.10
740.47	2347.38
740.66	2258.30
740.85	2036.70
741.03	2051.86
741.22	1920.38
741.41	2001.07
741.60	1886.59
741.79	2077.05
741.98	2193.78
742.16	2309.70
742.35	2147.91
742.54	2159.17
742.73	2497.29
742.92	2267.51
743.10	2187.44
743.29	2238.02
743.48	2497.09
743.67	2107.16
743.86	1945.57
744.05	2008.65
744.23	1982.23
744.42	1966.66
744.61	1999.84
744.80	1867.95
744.99	1933.08
745.17	1751.63
745.36	1798.12
745.55	1968.30
745.74	1930.01
745.93	1836.21
746.11	1827.20
746.30	1789.31
746.49	2035.27
746.68	1800.78
746.86	1877.99
747.05	1866.72
747.24	2003.53
747.43	2013.77
747.62	1853.21
747.80	1956.42
747.99	2201.57
748.18	2149.96
748.37	2076.44
748.56	2048.38
748.74	2139.72
748.93	2052.88
749.12	2310.11
749.31	3070.31
749.49	3679.38
749.68	4078.94
749.87	4479.11
750.06	4610.59
750.24	4678.18
750.43	5019.78
750.62	5508.01
750.81	5852.48
750.99	6194.90
751.18	6161.31
751.37	5264.30
751.56	4680.84
751.74	4786.51
751.93	4561.24
752.12	3730.99
752.31	3465.78
752.49	3286.58
752.68	3300.10
752.87	2839.51
753.06	2609.93
753.24	2501.80
753.43	2462.27
753.62	2130.09
753.81	2056.98
753.99	2275.50
754.18	2082.37
754.37	1901.74
754.55	1994.52
754.74	2187.23
754.93	1742.62
755.12	1888.64
755.30	1818.19
755.49	2043.46
755.68	1922.22
755.86	1940.45
756.05	1787.88
756.24	2105.31
756.43	1760.02
756.61	1812.66
756.80	1920.59
756.99	2087.49
757.17	1927.55
757.36	1817.37
757.55	1903.18
757.74	1987.76
757.92	1948.23
758.11	1761.05
758.30	1722.75
758.48	1901.74
758.67	1769.04
758.86	1886.59
759.04	1781.94
759.23	1850.54
759.42	1927.14
759.60	1824.94
759.79	1916.69
759.98	1870.82
760.16	1806.92
760.35	1821.05
760.54	1748.76
760.73	1954.99
760.91	1778.05
761.10	1891.71
761.29	1941.27
761.47	1916.90
761.66	2224.50
761.85	1965.85
762.03	2119.24
762.22	2908.12
762.41	5333.93
762.59	8073.30
762.78	9456.50
762.97	11345.95
763.15	12037.35
763.34	11000.25
763.52	8395.85
763.71	7898.81
763.90	7348.93
764.08	6893.46
764.27	6421.41
764.46	6073.87
764.64	5393.53
764.83	4877.24
765.02	4468.05
765.20	4002.75
765.39	3551.59
765.58	2850.77
765.76	2638.19
765.95	2380.56
766.13	2230.44
766.32	2124.77
766.51	2035.68
766.69	2197.47
766.88	2018.89
767.07	1858.12
767.25	1748.15
767.44	2062.51
767.62	2120.88
767.81	1868.16
768.00	1915.67
768.18	1956.42
768.37	1868.16
768.56	1792.79
768.74	1851.57
768.93	1785.42
769.11	1985.51
769.30	1946.39
769.49	1833.14
769.67	1907.68
769.86	1891.50
770.04	1868.98
770.23	1856.48
770.42	2056.37
770.60	1915.26
770.79	1815.73
770.97	1895.40
771.16	2375.64
771.35	3043.90
771.53	3711.74
771.72	4140.58
771.90	4661.18
772.09	5044.97
772.27	4535.84
772.46	3675.69
772.65	3767.44
772.83	3505.71
773.02	3429.94
773.20	3104.11
773.39	3152.03
773.58	3020.55
773.76	2623.04
773.95	2566.72
774.13	2544.60
774.32	2289.22
774.50	2081.76
774.69	2078.89
774.87	1974.65
775.06	2239.25
775.25	1838.46
775.43	1911.37
775.62	1959.09
775.80	1978.75
775.99	1948.03
776.17	1854.03
776.36	1932.46
776.54	2057.39
776.73	1848.70
776.92	1937.17
777.10	2038.34
777.29	1944.75
777.47	1809.59
777.66	1870.00
777.84	1928.37
778.03	1897.44
778.21	1790.74
778.40	1913.83
778.58	1963.80
778.77	2025.24
778.95	1742.41
779.14	1826.99
779.32	2115.35
779.51	2032.61
779.70	1881.88
779.88	1771.49
780.07	1845.02
780.25	2207.30
780.44	1859.97
780.62	2003.53
780.81	1999.84
780.99	1910.96
781.18	1817.98
781.36	1833.75
781.55	1863.24
781.73	2098.35
781.92	1770.06
782.10	1772.31
782.29	1942.50
782.47	2109.20
782.66	1909.94
782.84	1736.47
783.03	1810.61
783.21	2024.83
783.40	1859.97
783.58	1811.02
783.77	1815.73
783.95	1858.74
784.14	1754.49
784.32	1881.67
784.51	2070.29
784.69	1851.16
784.88	1794.64
785.06	1908.09
785.24	1794.23
785.43	2042.64
785.61	2006.60
785.80	1813.89
785.98	2020.53
786.17	1950.08
786.35	1809.59
786.54	1972.60
786.72	2051.04
786.91	2062.92
787.09	1899.70
787.28	1785.01
787.46	1929.19
787.65	2030.97
787.83	1780.91
788.01	1944.96
788.20	1841.12
788.38	1974.04
788.57	1928.57
788.75	1963.59
788.94	2225.73
789.12	2104.49
789.31	1953.97
789.49	2006.19
789.67	1893.35
789.86	2022.98
790.04	1872.46
790.23	1784.80
790.41	2257.27
790.60	1938.20
790.78	1943.52
790.96	1945.98
791.15	2056.98
791.33	1932.26
791.52	1886.59
791.70	1807.13
791.89	1924.89
792.07	2038.55
792.25	1878.81
792.44	1764.33
792.62	2050.22
792.81	1859.76
792.99	1895.19
793.17	1825.97
793.36	1855.25
793.54	2310.52
793.73	2683.66
793.91	3171.89
794.10	3736.93
794.28	4170.07
794.46	4080.17
794.65	4017.71
794.83	3374.64
795.01	3291.90
795.20	3326.52
795.38	3080.14
795.57	3031.61
795.75	2925.32
795.93	2684.27
796.12	2644.75
796.30	2626.32
796.49	2526.78
796.67	2248.46
796.85	2293.93
797.04	2174.94
797.22	2125.79
797.40	1887.41
797.59	2008.03
797.77	1984.28
797.96	1862.63
798.14	1846.45
798.32	1869.80
798.51	2028.92
798.69	2170.03
798.87	1888.23
799.06	1881.88
799.24	1750.19
799.42	2207.10
799.61	2480.09
799.79	2781.96
799.98	3259.96
800.16	3271.43
800.34	3914.90
800.53	4712.99
800.71	5003.39
800.89	5786.13
801.08	5859.85
801.26	5867.84
801.44	5047.83
801.63	4362.58
801.81	4252.40
801.99	3943.98
802.18	3735.70
802.36	3612.41
802.54	3405.16
802.73	3027.31
802.91	2944.57
803.09	2804.08
803.28	2667.68
803.46	2530.67
803.64	2545.63
803.83	2121.49
804.01	2022.16
804.19	1917.10
804.38	2143.81
804.56	2092.61
804.74	1982.64
804.92	2018.89
805.11	1896.83
805.29	2104.29
805.47	1893.96
805.66	1821.87
805.84	1821.26
806.02	2078.89
806.21	1933.28
806.39	2058.00
806.57	2067.83
806.76	2054.52
806.94	1962.77
807.12	1915.26
807.30	1916.08
807.49	2027.90
807.67	2034.04
807.85	2104.70
808.04	2081.35
808.22	2292.29
808.40	1842.35
808.58	1839.90
808.77	2026.67
808.95	2214.47
809.13	2298.23
809.31	3541.96
809.50	4761.73
809.68	5387.39
809.86	5869.27
810.05	6331.70
810.23	6971.90
810.41	8648.78
810.59	13339.24
810.78	16256.78
810.96	18747.52
811.14	20300.90
811.32	19783.38
811.51	16209.67
811.69	13164.14
811.87	12910.19
812.05	11416.40
812.24	10749.99
812.42	9995.32
812.60	9030.11
812.78	7731.70
812.97	6687.44
813.15	6189.58
813.33	5418.11
813.51	4767.67
813.70	3923.91
813.88	3334.91
814.06	2957.88
814.24	2606.65
814.42	2226.35
814.61	2227.17
814.79	2332.64
814.97	1884.54
815.15	1928.37
815.34	2024.21
815.52	2075.21
815.70	1827.40
815.88	1864.68
816.06	1825.15
816.25	1880.04
816.43	1808.77
816.61	1981.41
816.79	2134.60
816.98	1763.10
817.16	1899.29
817.34	1826.58
817.52	2046.54
817.70	2141.56
817.89	1884.54
818.07	1814.09
818.25	1926.93
818.43	1939.63
818.61	1885.56
818.80	1865.09
818.98	2140.54
819.16	1937.17
819.34	1780.09
819.52	2068.04
819.70	1795.66
819.89	1908.91
820.07	1767.40
820.25	1728.69
820.43	1944.55
820.61	1980.80
820.80	1884.75
820.98	1785.42
821.16	1711.69
821.34	1737.09
821.52	1844.81
821.70	1910.35
821.89	1896.01
822.07	1867.95
822.25	1827.20
822.43	1776.61
822.61	2089.13
822.79	1931.64
822.98	1835.59
823.16	1680.36
823.34	1902.36
823.52	2047.35
823.70	1949.87
823.88	1709.85
824.06	1983.25
824.25	1887.82
824.43	2000.05
824.61	1824.13
824.79	1966.87
824.97	2017.25
825.15	2113.30
825.33	2438.93
825.52	2877.60
825.70	3020.14
825.88	3171.07
826.06	3444.48
826.24	3454.51
826.42	3259.55
826.60	2857.53
826.78	2918.56
826.97	2682.43
827.15	2784.42
827.33	2445.48
827.51	2510.20
827.69	2349.02
827.87	2372.78
828.05	2320.14
828.23	2074.80
828.41	2257.48
828.60	2176.79
828.78	1868.36
828.96	2024.83
829.14	1923.04
829.32	1926.73
829.50	1835.59
829.68	1852.39
829.86	1872.46
830.04	1977.93
830.22	1925.71
830.41	1769.04
830.59	1897.03
830.77	1959.29
830.95	1804.87
831.13	1814.91
831.31	1806.92
831.49	1992.26
831.67	1982.64
831.85	1975.88
832.03	1858.94
832.21	1989.60
832.39	1747.33
832.57	1806.31
832.76	2017.04
832.94	1908.30
833.12	1697.36
833.30	1855.87
833.48	2047.97
833.66	1933.08
833.84	1810.20
834.02	1876.14
834.20	2035.89
834.38	2000.66
834.56	1709.23
834.74	1769.45
834.92	1752.65
835.10	2113.91
835.28	1923.86
835.46	1855.46
835.64	1881.67
835.82	1811.63
836.01	2047.56
836.19	1984.07
836.37	1840.92
836.55	1804.47
836.73	1792.59
836.91	1749.99
837.09	1978.13
837.27	2085.86
837.45	1732.99
837.63	1798.12
837.81	1778.87
837.99	1925.91
838.17	1889.46
838.35	1874.10
838.53	2284.10
838.71	2088.72
838.89	1929.60
839.07	1928.78
839.25	2025.65
839.43	2131.12
839.61	2114.94
839.79	3041.03
839.97	3916.95
840.15	4370.16
840.33	4712.79
840.51	5133.44
840.69	4938.88
840.87	4210.62
841.05	3923.70
841.23	4023.23
841.41	4908.37
841.59	6525.24
841.77	7261.69
841.95	7798.26
842.13	8424.93
842.31	8085.79
842.49	6556.57
842.67	5696.43
842.85	5693.15
843.03	4963.87
843.21	4762.35
843.39	4555.30
843.57	4199.97
843.75	3922.88
843.93	3500.59
844.11	3181.93
844.29	3049.02
844.47	2812.07
844.65	2822.72
844.83	2497.91
845.01	2335.30
845.19	2365.61
845.36	2109.82
845.54	2070.91
845.72	1993.08
845.90	2042.44
846.08	1798.53
846.26	1893.96
846.44	1975.88
846.62	1961.95
846.80	1880.85
846.98	1788.70
847.16	1862.83
847.34	1936.97
847.52	1760.84
847.70	1785.42
847.88	1885.97
848.06	2083.19
848.24	1940.66
848.41	1719.88
848.59	2006.80
848.77	1926.11
848.95	1804.26
849.13	1823.92
849.31	1985.92
849.49	1922.02
849.67	1787.06
849.85	1750.19
850.03	1940.66
850.21	1922.22
850.39	1800.37
850.57	1939.02
850.74	2063.74
850.92	2110.23
851.10	2168.18
851.28	2450.80
851.46	2788.72
851.64	3177.42
851.82	2933.10
852.00	2946.41
852.18	2901.56
852.36	2690.21
852.53	2479.07
852.71	2504.26
852.89	2470.46
853.07	2425.41
853.25	2205.05
853.43	2089.54
853.61	2206.07
853.79	2170.85
853.97	1971.99
854.14	1923.45
854.32	2186.82
854.50	2099.58
854.68	1870.61
854.86	1897.44
855.04	1834.78
855.22	2007.01
855.40	1733.40
855.57	1794.02
855.75	2009.67
855.93	1965.23
856.11	1714.97
856.29	1772.93
856.47	1821.26
856.65	1913.21
856.82	1777.23
857.00	1698.99
857.18	1878.19
857.36	1831.50
857.54	1906.45
857.72	1987.35
857.89	1990.83
858.07	1898.88
858.25	1956.42
858.43	1714.56
858.61	1835.80
858.79	1882.08
858.97	1773.34
859.14	1906.86
859.32	1889.87
859.50	1844.40
859.68	1941.27
859.86	1812.04
860.03	1926.11
860.21	2002.91
860.39	1839.28
860.57	1958.68
860.75	1971.99
860.93	2164.50
861.10	2042.44
861.28	1832.11
861.46	1992.47
861.64	2005.58
861.82	1868.16
861.99	1976.70
862.17	2046.74
862.35	2038.55
862.53	1878.60
862.71	1885.36
862.88	1935.13
863.06	1968.30
863.24	1817.16
863.42	1789.52
863.60	1854.64
863.77	1937.58
863.95	1686.50
864.13	1839.90
864.31	1857.51
864.49	1986.94
864.66	1737.29
864.84	1815.52
865.02	1917.10
865.20	2230.65
865.37	1883.93
865.55	1801.19
865.73	1788.90
865.91	2058.00
866.09	2045.92
866.26	2025.65
866.44	2151.60
866.62	2049.40
866.80	1929.19
866.97	1975.47
867.15	1979.57
867.33	2018.89
867.51	2011.51
867.68	1949.05
867.86	1906.66
868.04	1872.46
868.22	1735.45
868.39	1870.00
868.57	1950.90
868.75	2074.80
868.93	1745.69
869.10	1806.72
869.28	2143.40
869.46	2077.87
869.64	1859.15
869.81	1847.06
869.99	1901.74
870.17	1900.72
870.35	1771.08
870.52	1785.01
870.70	2018.68
870.88	1817.78
871.05	1746.51
871.23	1662.34
871.41	1868.98
871.59	1873.28
871.76	1825.15
871.94	1784.19
872.12	1856.28
872.29	1728.90
872.47	1810.20
872.65	1756.34
872.83	1915.87
873.00	2067.63
873.18	1845.02
873.36	1790.95
873.53	1983.66
873.71	1727.67
873.89	1787.06
874.06	1852.39
874.24	1938.40
874.42	2025.24
874.60	1958.88
874.77	1882.49
874.95	1807.33
875.13	2021.55
875.30	1797.30
875.48	1840.10
875.66	2110.84
875.83	1848.70
876.01	1859.15
876.19	1982.43
876.36	1800.37
876.54	1914.85
876.72	1758.18
876.89	1923.66
877.07	1975.06
877.25	1671.35
877.42	1879.01
877.60	1844.20
877.78	2094.66
877.95	1851.16
878.13	1792.18
878.31	1930.42
878.48	1996.97
878.66	1955.20
878.84	1808.97
879.01	1851.16
879.19	1961.75
879.37	1969.12
879.54	1795.25
879.72	1760.84
879.90	1676.47
880.07	1972.19
880.25	1606.63
880.42	1956.22
880.60	1878.40
880.78	1975.06
880.95	1845.83
881.13	1852.80
881.31	1870.41
881.48	1777.23
881.66	1757.16
881.83	1888.23
882.01	1772.31
882.19	1738.73
882.36	1866.52
882.54	1829.04
882.72	1952.33
882.89	1893.76
883.07	1746.71
883.24	1803.03
883.42	1947.82
883.60	1930.01
883.77	1771.08
883.95	1817.78
884.12	2028.72
884.30	1963.80
884.48	2041.62
884.65	1956.42
884.83	1996.16
885.00	2004.76
885.18	1799.55
885.36	1854.64
885.53	2009.26
885.71	2049.81
885.88	1778.25
886.06	1829.04
886.23	1970.56
886.41	1828.63
886.59	1790.54
886.76	1777.84
886.94	1974.45
887.11	2236.18
887.29	1850.54
887.47	1701.25
887.64	2040.19
887.82	2038.75
887.99	1669.91
888.17	1866.11
888.34	1831.91
888.52	1747.53
888.69	1854.85
888.87	1723.78
889.05	1822.49
889.22	1808.15
889.40	1765.96
889.57	1971.99
889.75	2086.68
889.92	1824.13
890.10	1760.84
890.27	1809.99
890.45	1784.80
890.62	1682.61
890.80	1739.14
890.98	1700.43
891.15	2086.47
891.33	1970.15
891.50	1766.17
891.68	1709.44
891.85	1968.51
892.03	1942.70
892.20	1782.76
892.38	1757.77
892.55	1997.79
892.73	1987.96
892.90	1736.27
893.08	1781.32
893.25	1790.33
893.43	1816.14
893.60	1930.82
893.78	1638.17
893.95	1932.87
894.13	1866.11
894.30	1745.48
894.48	1840.30
894.65	1973.01
894.83	1896.21
895.00	1657.01
895.18	1653.12
895.35	1993.70
895.53	1957.04
895.70	1715.17
895.88	1934.31
896.05	1937.58
896.23	1762.07
896.40	1815.11
896.58	1884.95
896.75	1974.24
896.93	2055.96
897.10	1772.93
897.28	1725.82
897.45	1899.29
897.63	1934.51
897.80	1940.25
897.98	1838.67
898.15	1903.38
898.33	1763.30
898.50	1862.22
898.67	1845.83
898.85	1826.38
899.02	1937.99
899.20	1953.15
899.37	1869.18
899.55	1880.24
899.72	2035.89
899.90	1796.48
900.07	1760.64
900.25	1922.22
900.42	1975.47
900.59	1777.64
900.77	1890.89
900.94	1925.91
901.12	1907.68
901.29	1775.18
901.47	1918.54
901.64	1941.47
901.82	1865.90
901.99	1621.38
902.16	1740.57
902.34	2016.63
902.51	1917.72
902.69	1806.10
902.86	1856.28
903.03	2348.61
903.21	1875.53
903.38	1867.13
903.56	1778.66
903.73	2010.08
903.91	1831.09
904.08	1764.73
904.25	1663.77
904.43	1786.44
904.60	1980.80
904.78	1796.48
904.95	1767.60
905.12	1831.09
905.30	2123.33
905.47	1908.50
905.65	1965.23
905.82	1882.70
905.99	2026.47
906.17	1903.59
906.34	1815.93
906.52	1872.05
906.69	2038.75
906.86	1994.31
907.04	1937.58
907.21	2080.33
907.38	2080.33
907.56	1802.62
907.73	1808.77
907.91	2092.82
908.08	2045.72
908.25	1795.86
908.43	1756.95
908.60	1962.57
908.77	1921.61
908.95	1787.26
909.12	1759.21
909.30	2006.39
909.47	1753.68
909.64	1814.30
909.82	1950.49
909.99	1842.56
910.16	1911.78
910.34	1761.05
910.51	1795.86
910.68	1914.65
910.86	1902.15
911.03	1787.88
911.20	1999.23
911.38	2632.66
911.55	3608.73
911.72	3965.28
911.90	4092.66
912.07	4489.56
912.24	4489.15
912.42	3617.33
912.59	2940.47
912.76	3001.91
912.94	2693.69
913.11	2447.73
913.28	2302.94
913.46	2215.08
913.63	2322.40
913.80	2404.72
913.98	2097.94
914.15	2297.00
914.32	2308.47
914.49	2102.44
914.67	1980.80
914.84	2123.13
915.01	2189.89
915.19	2043.26
915.36	1961.34
915.53	2111.46
915.71	2037.32
915.88	1962.57
916.05	1810.20
916.22	2012.13
916.40	1925.09
916.57	1761.87
916.74	1902.15
916.92	2063.33
917.09	1763.92
917.26	1767.60
917.43	1728.69
917.61	1816.14
917.78	1699.81
917.95	1670.53
918.13	1730.74
918.30	2159.17
918.47	1916.90
918.64	1796.68
918.82	1774.77
918.99	1934.72
919.16	2175.76
919.33	1944.34
919.51	1879.42
919.68	1958.68
919.85	2116.17
920.02	1755.52
920.20	1844.81
920.37	2105.31
920.54	1995.54
920.71	1773.54
920.89	1821.67
921.06	2115.76
921.23	1806.92
921.40	1796.89
921.58	2120.06
921.75	2671.58
921.92	2240.48
922.09	2348.00
922.27	2368.89
922.44	2332.43
922.61	2234.54
922.78	2027.28
922.96	1951.10
923.13	1967.89
923.30	2113.71
923.47	1786.85
923.64	1845.83
923.82	1988.37
923.99	1957.04
924.16	1926.32
924.33	1792.79
924.50	1928.37
924.68	2107.56
924.85	1794.23
925.02	1846.45
925.19	2034.45
925.36	1952.53
925.54	1898.26
925.71	1874.10
925.88	2258.70
926.05	1852.18
926.22	1753.68
926.40	1870.41
926.57	1906.66
926.74	1969.12
926.91	1785.62
927.08	1971.58
927.26	2025.65
927.43	1889.25
927.60	1750.81
927.77	1832.73
927.94	2049.61
928.11	2041.21
928.29	1712.10
928.46	1837.03
928.63	1797.30
928.80	1850.54
928.97	1930.42
929.14	1758.80
929.32	2167.16
929.49	1882.70
929.66	1754.70
929.83	1694.08
930.00	1816.14
930.17	1918.33
930.35	1714.97
930.52	1769.04
930.69	2075.00
930.86	1765.35
931.03	1871.84
931.20	1635.71
931.37	2004.76
931.55	1890.89
931.72	1854.64
931.89	1696.33
932.06	1748.76
932.23	2074.39
932.40	1909.94
932.57	1906.45
932.74	2035.07
932.92	2024.01
933.09	1928.16
933.26	1581.65
933.43	1814.71
933.60	1929.60
933.77	1820.64
933.94	1875.53
934.11	1845.63
934.29	1891.91
934.46	1715.79
934.63	1848.29
934.80	1730.12
934.97	1903.38
935.14	1827.40
935.31	1710.46
935.48	1796.27
935.65	1913.62
935.82	1887.00
936.00	1724.18
936.17	2089.75
936.34	1867.34
936.51	1904.00
936.68	1732.99
936.85	1913.62
937.02	1896.21
937.19	1893.35
937.36	1820.85
937.53	1938.81
937.70	1994.72
937.87	1839.90
938.05	1907.07
938.22	1894.17
938.39	1769.85
938.56	1831.09
938.73	1755.31
938.90	1866.72
939.07	1806.10
939.24	1861.40
939.41	1679.13
939.58	1938.20
939.75	1932.87
939.92	1765.76
940.09	1962.98
940.26	1856.48
940.43	1974.65
940.60	1789.31
940.77	1799.35
940.95	1937.38
941.12	1964.21
941.29	1768.22
941.46	1832.32
941.63	2005.99
941.80	2050.84
941.97	1689.16
942.14	1707.19
942.31	1956.63
942.48	1870.82
942.65	1859.15
942.82	1790.13
942.99	1968.10
943.16	1902.97
943.33	1736.06
943.50	1767.19
943.67	2000.66
943.84	2030.36
944.01	1804.87
944.18	1729.71
944.35	2038.14
944.52	1775.18
944.69	1865.90
944.86	1688.35
945.03	1968.71
945.20	2178.42
945.37	1664.79
945.54	1840.30
945.71	2073.57
945.88	2092.00
946.05	1752.24
946.22	1745.28
946.39	2041.62
946.56	1860.37
946.73	1718.25
946.90	1747.12
947.07	1833.34
947.24	1845.42
947.41	1680.15
947.58	1909.94
947.75	1975.88
947.92	1917.10
948.09	1592.50
948.26	1701.25
948.43	1882.90
948.60	2135.62
948.77	1751.22
948.94	1788.29
949.11	1958.68
949.27	1936.35
949.44	1763.51
949.61	1777.84
949.78	1901.95
949.95	2015.82
950.12	1744.05
950.29	1685.68
950.46	1816.96
950.63	1997.79
950.80	1771.29
950.97	1813.07
951.14	1996.36
951.31	1838.87
951.48	1765.35
951.65	1722.55
951.82	2077.87
951.99	1927.14
952.15	1689.57
952.32	1770.26
952.49	1811.02
952.66	1808.15
952.83	1736.68
953.00	1720.91
953.17	1867.95
953.34	1983.25
953.51	1840.30
953.68	1789.11
953.85	1996.77
954.02	2002.30
954.18	1816.34
954.35	1816.14
954.52	1763.10
954.69	1905.23
954.86	1651.28
955.03	1800.78
955.20	1946.80
955.37	1849.32
955.54	1788.29
955.71	1749.99
955.87	1904.41
956.04	2093.64
956.21	1798.32
956.38	1740.77
956.55	1878.81
956.72	2178.42
956.89	1816.96
957.06	1761.66
957.23	1818.39
957.39	2026.06
957.56	1758.59
957.73	1723.78
957.90	1627.11
958.07	2089.34
958.24	1808.77
958.41	1780.30
958.57	1974.86
958.74	1896.62
958.91	1715.79
959.08	1749.37
959.25	1959.70
959.42	1868.77
959.59	1822.49
959.75	1775.38
959.92	2021.55
960.09	2013.15
960.26	1752.86
960.43	1855.66
960.60	1907.48
960.76	1865.09
960.93	1665.20
961.10	1836.00
961.27	1997.59
961.44	1825.97
961.61	1716.20
961.77	1730.33
961.94	1895.80
962.11	1975.88
962.28	1795.04
962.45	1699.81
962.62	1848.29
962.78	2006.39
962.95	1727.26
963.12	1770.26
963.29	1941.06
963.46	2253.18
963.62	1850.13
963.79	1779.07
963.96	2220.00
964.13	1848.50
964.30	1850.13
964.46	1769.24
964.63	1756.13
964.80	2241.91
964.97	1704.11
965.14	1963.59
965.30	2013.56
965.47	2106.95
965.64	2042.23
965.81	1998.61
965.98	2192.96
966.14	1970.97
966.31	1878.81
966.48	1854.23
966.65	2109.00
966.81	2012.74
966.98	1821.87
967.15	1853.62
967.32	1918.13
967.49	1822.28
967.65	1686.30
967.82	1668.07
967.99	1889.05
968.16	1726.23
968.32	1957.86
968.49	1801.19
968.66	1871.43
968.83	2090.36
968.99	1829.25
969.16	1718.66
969.33	2058.41
969.50	1962.57
969.66	1899.70
969.83	2001.07
970.00	1995.13
970.17	1943.73
970.33	1809.18
970.50	1702.89
970.67	2053.09
970.84	2059.44
971.00	1717.84
971.17	1712.92
971.34	1952.33
971.50	1878.81
971.67	1903.79
971.84	1833.75
972.01	1753.27
972.17	1645.54
972.34	1720.29
972.51	1864.68
972.67	1999.23
972.84	1932.26
973.01	1699.20
973.18	1773.75
973.34	1991.44
973.51	1762.07
973.68	1801.80
973.84	1790.13
974.01	1843.38
974.18	2076.44
974.34	1830.88
974.51	1873.48
974.68	1786.03
974.85	2095.48
975.01	1904.41
975.18	1820.44
975.35	1884.75
975.51	1771.29
975.68	1635.10
975.85	1908.71
976.01	1805.28
976.18	2077.05
976.35	1791.97
976.51	1762.89
976.68	2084.83
976.85	1998.61
977.01	1815.32
977.18	1874.30
977.35	1969.74
977.51	1756.13
977.68	1606.84
977.85	1695.72
978.01	2016.63
978.18	1974.45
978.35	1826.58
978.51	1858.53
978.68	2043.05
978.85	2071.93
979.01	1779.07
979.18	1833.55
979.34	1846.86
979.51	1886.18
979.68	1737.09
979.84	1831.29
980.01	2162.45
980.18	1890.28
980.34	1750.81
980.51	1841.12
980.67	1967.48
980.84	1941.27
981.01	1813.68
981.17	1863.86
981.34	1698.99
981.51	1942.70
981.67	1741.18
981.84	1902.97
982.00	1949.87
982.17	1854.03
982.34	1650.87
982.50	1585.13
982.67	2062.92
982.83	1815.93
983.00	1727.26
983.17	1615.85
983.33	1992.88
983.50	1706.16
983.66	1681.79
983.83	1590.45
984.00	1848.91
984.16	1907.68
984.33	1611.55
984.49	1589.43
984.66	1752.65
984.83	1977.72
984.99	1668.48
985.16	1604.58
985.32	1965.85
985.49	1965.85
985.65	1742.00
985.82	1614.21
985.99	2053.70
986.15	1890.68
986.32	1696.33
986.48	1664.38
986.65	1813.07
986.81	1964.21
986.98	1606.63
987.14	1684.45
987.31	1879.63
987.48	1708.83
987.64	1549.29
987.81	1585.13
987.97	2137.26
988.14	1773.95
988.30	1637.76
988.47	1502.80
988.63	1942.91
988.80	1758.59
988.96	1701.45
989.13	1726.03
989.30	1816.96
989.46	1983.87
989.63	1576.32
989.79	1602.33
989.96	1874.71
990.12	2072.13
990.29	1635.10
990.45	1684.86
990.62	1856.69
990.78	2013.36
990.95	1739.75
991.11	1625.47
991.28	1802.62
991.44	1889.87
991.61	1544.58
991.77	1681.79
991.94	1887.00
992.10	2019.50
992.27	1715.58
992.43	1677.70
992.60	1933.90
992.76	1846.65
992.93	1774.77
993.09	1610.52
993.26	1983.25
993.42	2076.64
993.59	1652.71
993.75	1580.62
993.92	1773.13
994.08	1783.58
994.25	1706.78
994.41	1587.59
994.58	1979.36
994.74	2046.54
994.91	1614.41
995.07	1720.50
995.24	1854.64
995.40	1844.81
995.56	1754.09
995.73	1716.81
995.89	2072.54
996.06	1856.48
996.22	1634.89
996.39	1567.92
996.55	1881.26
996.72	1939.63
996.88	1592.91
997.05	1625.68
997.21	2131.94
997.37	1938.20
997.54	1726.23
997.70	1633.05
997.87	1899.29
998.03	1852.39
998.20	1535.98
998.36	1575.30
998.52	1948.64
998.69	2002.09
998.85	1577.35
999.02	1671.55
999.18	1988.78
999.35	1971.37
999.51	1682.00
999.67	1679.13
999.84	1769.65
1000.00	1939.84
1000.17	1732.17
1000.33	1626.09
1000.49	1803.44
1000.66	1846.86
1000.82	1622.20
1000.99	1712.72
1001.15	2023.39
1001.31	1808.77
1001.48	1687.32
1001.64	1701.04
1001.81	1825.97
1001.97	2112.68
1002.13	1618.30
1002.30	1663.16
1002.46	2050.02
1002.63	1829.45
1002.79	1752.04
1002.95	1637.56
1003.12	1998.41
1003.28	1934.72
1003.45	1641.45
1003.61	1581.85
1003.77	1897.24
1003.94	1690.80
1004.10	1654.35
1004.26	1715.79
1004.43	1958.68
1004.59	2083.40
1004.75	1623.22
1004.92	1624.04
1005.08	1825.56
1005.25	1923.86
1005.41	1647.59
1005.57	1714.97
1005.74	2025.24
1005.90	1836.21
1006.06	1746.51
1006.23	1668.48
1006.39	1964.82
1006.55	2228.60
1006.72	1774.16
1006.88	1619.53
1007.04	1783.58
1007.21	1860.99
1007.37	1683.43
1007.53	1669.30
1007.70	2067.42
1007.86	1987.76
1008.02	1715.79
1008.19	1603.76
1008.35	1922.22
1008.51	1787.67
1008.68	1660.29
1008.84	1599.87
1009.00	1758.18
1009.17	2018.07
1009.33	1761.66
1009.49	1734.02
1009.65	1773.54
1009.82	1936.56
1009.98	1716.81
1010.14	1572.64
1010.31	1971.99
1010.47	1939.84
1010.63	1739.75
1010.80	1704.32
1010.96	1917.72
1011.12	1848.50
1011.28	1658.65
1011.45	1677.49
1011.61	2231.06
1011.77	1747.53
1011.94	1621.17
1012.10	1571.20
1012.26	1748.97
1012.42	1810.40
1012.59	1678.72
1012.75	1703.09
1012.91	1838.67
1013.07	1996.77
1013.24	1600.49
1013.40	1640.83
1013.56	1867.95
1013.72	1841.53
1013.89	1715.99
1014.05	1698.59
1014.21	2131.73
1014.37	2189.48
1014.54	1695.31
1014.70	1618.71
1014.86	1838.46
1015.02	1748.56
1015.19	1671.35
1015.35	1622.40
1015.51	1846.86
1015.67	1823.51
1015.84	1630.18
1016.00	1629.98
1016.16	2010.08
1016.32	1954.38
1016.49	1633.46
1016.65	1638.17
1016.81	1865.90
1016.97	1952.74
1017.14	1762.89
1017.30	1662.13
1017.46	1811.22
1017.62	1902.36
1017.78	1708.83
1017.95	1622.40
1018.11	1970.56
1018.27	2169.62
1018.43	1756.75
1018.59	1707.80
1018.76	1931.85
1018.92	2203.82
1019.08	1629.36
1019.24	1641.24
1019.40	2032.20
1019.57	1905.84
1019.73	1707.80
1019.89	1658.45
1020.05	1914.03
1020.21	2119.65
1020.38	1622.81
1020.54	1793.61
1020.70	1952.12
1020.86	1978.95
1021.02	1695.31
1021.18	1620.76
1021.35	1840.51
1021.51	1936.56
1021.67	1786.44
1021.83	1663.97
1021.99	1849.93
1022.15	1922.63
1022.32	1749.17
1022.48	1699.40
1022.64	2057.39
1022.80	2101.83
1022.96	1682.41
1023.12	1587.38
1023.29	1988.99
1023.45	1932.05
1023.61	1645.95
1023.77	1789.11
1023.93	1869.59
1024.09	1789.11
1024.25	1627.11
1024.42	1601.92
1024.58	1813.89
1024.74	1904.41
1024.90	1682.41
1025.06	1722.96
1025.22	1845.63
1025.38	2070.70
1025.54	1621.38
1025.71	1745.89
1025.87	1954.58
1026.03	1935.94
1026.19	1634.48
1026.35	1777.02
1026.51	1912.39
1026.67	1886.79
1026.83	1670.73
1026.99	1771.29
1027.16	1930.42
1027.32	1869.39
1027.48	1678.72
1027.64	1632.23
1027.80	1961.95
1027.96	1898.88
1028.12	1671.96
1028.28	1629.16
1028.44	1901.54
1028.60	2064.76
1028.77	1761.05
1028.93	1690.19
1029.09	1821.46
1029.25	1759.00
1029.41	1691.42
1029.57	1727.46
1029.73	1910.96
1029.89	2065.99
1030.05	1785.01
1030.21	1738.32
1030.37	2150.98
1030.53	1934.10
1030.69	1685.89
1030.85	1589.02
1031.02	1761.87
1031.18	1869.80
1031.34	1678.52
1031.50	1725.21
1031.66	1787.26
1031.82	2038.75
1031.98	1714.35
1032.14	1655.58
1032.30	1763.92
1032.46	1975.47
1032.62	1756.13
1032.78	1616.05
1032.94	1809.59
1033.10	1817.78
1033.26	1721.52
1033.42	1746.71
1033.58	2148.52
1033.74	1804.26
1033.90	1635.92
1034.06	1838.67
1034.22	2143.81
1034.38	2009.26
1034.54	1677.49
1034.70	1715.79
1034.86	2098.35
>>>>>End Processed Spectral Data<<<<<
