SpectraSuite Data File
++++++++++++++++++++++++++++++++++++
Date: Thu Mar 30 16:28:38 PDT 2017
User: UCSD _CER
Dark Spectrum Present: No
Reference Spectrum Present: No
Number of Sampled Component Spectra: 1
Spectrometers: USB4C00073
Integration Time (usec): 250000 (USB4C00073)
Spectra Averaged: 10 (USB4C00073)
Boxcar Smoothing: 0 (USB4C00073)
Correct for Electrical Dark: No (USB4C00073)
Strobe/Lamp Enabled: No (USB4C00073)
Correct for Detector Non-linearity: No (USB4C00073)
Correct for Stray Light: No (USB4C00073)
Number of Pixels in Processed Spectrum: 3648
>>>>>Begin Processed Spectral Data<<<<<
345.37	1291.24
345.58	1291.24
345.80	1291.24
346.01	1281.62
346.22	1261.55
346.43	1976.09
346.65	1770.06
346.86	2117.80
347.07	2076.64
347.28	1784.19
347.50	1803.44
347.71	1932.46
347.92	1722.34
348.13	1812.45
348.35	1721.11
348.56	1918.33
348.77	1766.58
348.98	1821.46
349.20	1680.15
349.41	1931.03
349.62	1981.41
349.83	1869.18
350.05	1746.30
350.26	1974.04
350.47	2093.64
350.68	1785.21
350.90	1730.53
351.11	2130.91
351.32	2039.98
351.53	1846.24
351.75	1749.17
351.96	1951.51
352.17	1934.72
352.38	1885.97
352.60	1891.91
352.81	1933.69
353.02	2153.03
353.23	1799.75
353.44	1840.51
353.66	1857.51
353.87	1911.37
354.08	1919.77
354.29	1819.01
354.51	1837.23
354.72	1903.59
354.93	1790.13
355.14	1752.86
355.35	1751.01
355.57	2068.24
355.78	1816.75
355.99	1919.15
356.20	1929.39
356.42	1906.25
356.63	1897.85
356.84	1843.38
357.05	2038.75
357.26	2215.70
357.48	1927.96
357.69	1871.23
357.90	1999.02
358.11	1895.60
358.32	1833.34
358.54	1893.35
358.75	1866.31
358.96	2019.09
359.17	1811.02
359.38	1832.11
359.60	2027.69
359.81	1921.20
360.02	1822.90
360.23	1789.52
360.44	1842.56
360.66	2056.16
360.87	1784.80
361.08	1765.76
361.29	1981.82
361.50	1939.84
361.72	1781.32
361.93	1853.62
362.14	1930.62
362.35	1752.45
362.56	1917.51
362.77	1738.32
362.99	2021.14
363.20	1929.60
363.41	1846.65
363.62	1698.38
363.83	2011.11
364.05	2030.77
364.26	1696.13
364.47	1761.05
364.68	2062.10
364.89	1819.21
365.10	1746.51
365.32	1830.88
365.53	1837.85
365.74	1842.97
365.95	1839.08
366.16	1711.28
366.37	1896.42
366.59	1865.49
366.80	1834.98
367.01	1675.85
367.22	2178.01
367.43	2286.97
367.64	1826.99
367.86	1787.26
368.07	1964.82
368.28	2097.94
368.49	1763.10
368.70	1854.64
368.91	1879.42
369.12	1923.66
369.34	1729.30
369.55	1743.03
369.76	1911.78
369.97	1829.45
370.18	1740.77
370.39	1734.02
370.60	1768.63
370.82	1763.92
371.03	1824.13
371.24	1755.72
371.45	2008.24
371.66	2008.24
371.87	1837.85
372.08	1791.56
372.30	1834.98
372.51	2073.98
372.72	1924.89
372.93	1787.67
373.14	2137.87
373.35	1887.41
373.56	1766.99
373.78	1807.74
373.99	2051.04
374.20	2294.13
374.41	1826.58
374.62	1828.84
374.83	2119.85
375.04	1891.30
375.25	1798.32
375.47	1776.00
375.68	1882.49
375.89	1998.20
376.10	1821.46
376.31	1919.56
376.52	1998.82
376.73	1973.01
376.94	1823.72
377.15	1798.32
377.37	1913.83
377.58	1897.44
377.79	1708.62
378.00	1774.97
378.21	1951.10
378.42	2017.66
378.63	1867.54
378.84	1903.18
379.05	2069.27
379.27	1960.32
379.48	1956.63
379.69	1787.88
379.90	2104.90
380.11	1712.92
380.32	1844.40
380.53	1919.77
380.74	2100.81
380.95	1942.29
381.16	1850.54
381.37	1805.49
381.59	2139.31
381.80	2048.38
382.01	1787.67
382.22	1710.67
382.43	1988.99
382.64	1959.70
382.85	1766.17
383.06	1894.99
383.27	2029.74
383.48	1918.33
383.69	1891.71
383.91	1797.50
384.12	2045.72
384.33	2044.08
384.54	1916.28
384.75	1805.90
384.96	2417.42
385.17	2109.82
385.38	1891.50
385.59	1852.80
385.80	2068.45
386.01	2148.11
386.22	1960.32
386.43	1890.89
386.64	2238.02
386.86	1953.76
387.07	1967.28
387.28	1791.77
387.49	1930.42
387.70	2133.37
387.91	1925.71
388.12	1818.39
388.33	2027.90
388.54	1907.48
388.75	1832.73
388.96	1880.04
389.17	1848.09
389.38	1896.42
389.59	1899.49
389.80	1863.86
390.01	1950.69
390.22	1888.02
390.43	1936.35
390.64	1736.27
390.86	1998.61
391.07	2086.68
391.28	1862.83
391.49	1869.18
391.70	1771.70
391.91	1856.07
392.12	1851.98
392.33	1826.38
392.54	1975.27
392.75	1929.39
392.96	1927.14
393.17	1782.55
393.38	2233.72
393.59	2078.69
393.80	1759.61
394.01	1856.07
394.22	1956.42
394.43	2212.01
394.64	1794.64
394.85	1961.75
395.06	1927.14
395.27	1946.59
395.48	1836.62
395.69	1762.07
395.90	1900.72
396.11	1918.13
396.32	1800.37
396.53	1926.73
396.74	1898.67
396.95	2044.49
397.16	1792.38
397.37	1723.57
397.58	2043.05
397.79	1940.66
398.00	1865.29
398.21	1823.51
398.42	1961.34
398.63	2170.44
398.84	1834.16
399.05	1768.63
399.26	2085.45
399.47	1993.70
399.68	1658.65
399.89	1769.85
400.10	1783.99
400.31	1862.83
400.52	1882.90
400.73	1836.62
400.94	1759.21
401.15	2000.66
401.36	1845.63
401.57	1881.06
401.78	2095.69
401.99	2044.69
402.20	1761.46
402.41	1922.22
402.62	2127.43
402.83	1900.72
403.04	1806.92
403.25	1998.82
403.46	2008.44
403.67	2154.46
403.88	1901.13
404.09	1876.55
404.30	1928.78
404.51	1909.94
404.72	1815.52
404.93	1945.37
405.14	1860.37
405.35	1929.60
405.56	1843.99
405.77	1839.69
405.98	1950.69
406.19	1925.91
406.40	1802.01
406.61	1851.98
406.82	1940.66
407.03	2292.70
407.24	1812.45
407.45	1901.74
407.66	2035.27
407.87	2084.22
408.08	1889.25
408.29	1896.21
408.49	2022.78
408.70	1908.71
408.91	1824.74
409.12	1921.40
409.33	1802.21
409.54	2089.75
409.75	1814.09
409.96	1849.52
410.17	2035.48
410.38	1909.12
410.59	1838.05
410.80	1948.23
411.01	1921.81
411.22	1927.14
411.43	1876.55
411.64	1759.00
411.85	1823.92
412.06	1813.68
412.27	1654.55
412.47	1823.72
412.68	1925.30
412.89	2015.61
413.10	1824.54
413.31	1747.53
413.52	2184.98
413.73	2184.77
413.94	1807.74
414.15	1925.91
414.36	1857.10
414.57	1844.81
414.78	1747.33
414.99	1900.31
415.19	2233.31
415.40	2239.45
415.61	2290.86
415.82	2141.97
416.03	2251.74
416.24	2141.77
416.45	1946.39
416.66	1842.35
416.87	1811.02
417.08	2034.66
417.29	1806.31
417.50	1911.16
417.70	2070.29
417.91	2030.77
418.12	1944.75
418.33	1936.97
418.54	2127.43
418.75	2256.25
418.96	2207.92
419.17	2272.43
419.38	2657.44
419.59	2554.64
419.79	2444.66
420.00	2318.92
420.21	2657.44
420.42	2180.06
420.63	1956.83
420.84	1963.39
421.05	1976.29
421.26	1950.49
421.47	1776.20
421.67	2041.82
421.88	1871.23
422.09	1855.87
422.30	2042.03
422.51	1913.83
422.72	2214.26
422.93	2070.09
423.14	1870.82
423.35	1756.13
423.55	1754.49
423.76	1834.78
423.97	1858.12
424.18	1754.49
424.39	1892.32
424.60	2060.67
424.81	1855.87
425.02	2009.67
425.22	2079.51
425.43	2100.40
425.64	2230.44
425.85	2184.77
426.06	2476.20
426.27	2312.77
426.48	2228.60
426.68	2190.92
426.89	2295.16
427.10	2426.64
427.31	2056.78
427.52	1915.47
427.73	2088.31
427.94	2053.50
428.14	1961.75
428.35	1861.40
428.56	2158.35
428.77	2090.98
428.98	1898.06
429.19	1936.56
429.40	1993.90
429.60	2036.30
429.81	2068.04
430.02	2034.25
430.23	1993.29
430.44	2087.90
430.65	1847.06
430.85	1878.40
431.06	2014.79
431.27	1735.45
431.48	1849.73
431.69	1874.92
431.90	1916.69
432.10	1975.88
432.31	1959.91
432.52	1967.07
432.73	2469.85
432.94	2384.45
433.15	2217.54
433.35	2056.16
433.56	2269.97
433.77	2114.32
433.98	2438.93
434.19	2498.32
434.40	2676.49
434.60	2670.96
434.81	2554.43
435.02	2371.75
435.23	2252.36
435.44	2138.69
435.64	1885.16
435.85	1871.02
436.06	1917.31
436.27	1936.35
436.48	1835.18
436.68	1895.80
436.89	2295.77
437.10	2209.35
437.31	2007.83
437.52	2113.09
437.73	2099.99
437.93	2092.82
438.14	1987.35
438.35	1765.55
438.56	1910.55
438.77	1932.87
438.97	1970.15
439.18	1866.11
439.39	2197.06
439.60	1968.92
439.80	1940.66
440.01	2053.09
440.22	2036.30
440.43	2093.02
440.64	1795.86
440.84	1946.18
441.05	1815.93
441.26	2315.23
441.47	1909.12
441.68	1914.85
441.88	2183.13
442.09	2258.30
442.30	2464.12
442.51	2424.80
442.71	2329.56
442.92	2291.88
443.13	2056.98
443.34	1953.97
443.55	1964.62
443.75	2072.95
443.96	1807.13
444.17	1776.82
444.38	2061.49
444.58	1839.90
444.79	1918.13
445.00	1877.58
445.21	1933.90
445.41	1926.73
445.62	1633.26
445.83	1928.78
446.04	1971.17
446.24	1776.82
446.45	1660.70
446.66	1812.86
446.87	1966.46
447.07	1870.61
447.28	2068.24
447.49	1914.85
447.70	2109.41
447.90	2105.11
448.11	1876.14
448.32	1976.29
448.53	2105.72
448.73	2124.56
448.94	1848.50
449.15	1962.77
449.36	1952.94
449.56	1974.45
449.77	1806.72
449.98	1770.47
450.19	1884.54
450.39	1988.78
450.60	1982.23
450.81	1951.71
451.02	2027.69
451.22	2180.88
451.43	1847.47
451.64	1866.72
451.84	1939.02
452.05	2114.73
452.26	1918.13
452.47	1863.04
452.67	1879.83
452.88	2099.17
453.09	1795.66
453.30	1786.65
453.50	2063.94
453.71	2256.66
453.92	1993.70
454.12	2124.56
454.33	2041.62
454.54	2058.62
454.75	1876.96
454.95	1858.33
455.16	2003.94
455.37	2038.75
455.57	1901.13
455.78	1866.31
455.99	1928.37
456.19	1962.98
456.40	1793.00
456.61	1864.06
456.82	1918.33
457.02	2123.95
457.23	2028.72
457.44	2208.94
457.64	2041.82
457.85	2158.56
458.06	2002.91
458.26	2110.64
458.47	2040.19
458.68	2150.98
458.89	1899.08
459.09	2068.24
459.30	2276.11
459.51	1989.19
459.71	1779.28
459.92	1859.76
460.13	2126.61
460.33	2354.14
460.54	1988.17
460.75	2005.78
460.95	1983.46
461.16	2078.89
461.37	1886.79
461.57	1909.73
461.78	1989.81
461.99	1862.01
462.19	2078.07
462.40	1844.81
462.61	2206.28
462.81	2098.76
463.02	1784.80
463.23	1819.83
463.43	2012.54
463.64	1875.32
463.85	2763.73
464.05	1813.48
464.26	2325.88
464.47	2096.92
464.67	1993.29
464.88	1947.41
465.09	1957.65
465.29	2107.97
465.50	2161.43
465.71	2051.45
465.91	2024.01
466.12	1979.16
466.33	1957.45
466.53	1901.13
466.74	2148.32
466.94	1942.29
467.15	1877.78
467.36	2045.92
467.56	1838.26
467.77	1970.56
467.98	1883.93
468.18	1802.01
468.39	1870.82
468.60	2188.25
468.80	1873.07
469.01	1788.08
469.21	2009.47
469.42	2092.41
469.63	1880.65
469.83	1807.74
470.04	2044.90
470.25	2118.62
470.45	1918.33
470.66	1827.61
470.86	1990.01
471.07	1914.44
471.28	1953.76
471.48	1970.35
471.69	1978.34
471.90	2557.30
472.10	2047.35
472.31	2141.97
472.51	2119.65
472.72	2160.81
472.93	2044.08
473.13	2235.56
473.34	2273.86
473.54	2199.72
473.75	2072.95
473.96	2135.42
474.16	1999.43
474.37	2046.13
474.57	1894.37
474.78	1830.88
474.99	1991.44
475.19	1971.17
475.40	1831.29
475.60	1875.53
475.81	2354.34
476.02	2177.81
476.22	2159.38
476.43	2255.02
476.63	2055.34
476.84	2211.60
477.05	1765.14
477.25	1869.80
477.46	2354.14
477.66	1998.00
477.87	1803.24
478.08	1883.11
478.28	2091.59
478.49	1925.50
478.69	1824.74
478.90	1819.01
479.10	2011.11
479.31	2105.72
479.52	1885.16
479.72	2143.20
479.93	2382.40
480.13	2364.58
480.34	2359.06
480.54	2459.00
480.75	2180.68
480.96	2268.74
481.16	1950.49
481.37	2030.15
481.57	2120.26
481.78	2092.82
481.98	2130.30
482.19	1962.77
482.40	2217.95
482.60	2034.45
482.81	1907.27
483.01	1805.49
483.22	2036.70
483.42	2038.34
483.63	1921.61
483.83	1941.88
484.04	1976.09
484.24	2171.46
484.45	2059.85
484.66	1904.00
484.86	2116.78
485.07	1896.01
485.27	1928.78
485.48	1867.54
485.68	2130.91
485.89	1881.67
486.09	1947.82
486.30	1861.40
486.50	1981.82
486.71	1957.86
486.91	1917.31
487.12	2269.76
487.33	2772.54
487.53	2917.74
487.74	2835.00
487.94	2689.19
488.15	2474.36
488.35	2309.29
488.56	2114.53
488.76	2030.77
488.97	2081.15
489.17	2135.42
489.38	2002.91
489.58	1993.29
489.79	2079.71
489.99	2030.15
490.20	1930.21
490.40	1982.64
490.61	2006.19
490.81	1895.19
491.02	1890.48
491.22	1960.52
491.43	2036.30
491.63	1928.98
491.84	1990.22
492.04	1769.04
492.25	2018.89
492.45	1937.58
492.66	1914.24
492.86	1809.18
493.07	2012.13
493.27	2290.86
493.48	1774.77
493.68	1887.41
493.89	1924.27
494.09	2062.10
494.30	1849.73
494.50	2117.60
494.71	2015.61
494.91	1793.20
495.12	1851.98
495.32	1937.99
495.53	1949.87
495.73	1876.14
495.94	2064.76
496.14	1921.40
496.35	2398.79
496.55	2075.00
496.76	1958.47
496.96	2001.48
497.17	1967.69
497.37	2029.54
497.58	1867.95
497.78	1803.65
497.98	1941.47
498.19	1925.91
498.39	1896.62
498.60	1909.12
498.80	1754.70
499.01	2016.84
499.21	1812.04
499.42	1880.04
499.62	1905.43
499.83	2213.04
500.03	1793.20
500.24	2021.55
500.44	2213.65
500.64	2173.71
500.85	2004.14
501.05	2077.05
501.26	1844.40
501.46	2173.92
501.67	1888.02
501.87	1802.42
502.08	1849.32
502.28	1924.68
502.48	1957.04
502.69	1989.60
502.89	1771.90
503.10	1864.68
503.30	1904.41
503.51	1892.12
503.71	1812.45
503.92	2004.76
504.12	1937.99
504.32	1879.42
504.53	2028.92
504.73	2087.70
504.94	2005.37
505.14	2097.94
505.35	2080.74
505.55	2068.24
505.75	2004.55
505.96	2117.60
506.16	2321.17
506.37	1942.29
506.57	1878.81
506.78	1977.31
506.98	2109.82
507.18	1798.53
507.39	1830.27
507.59	1923.04
507.80	1868.36
508.00	1983.25
508.20	2053.50
508.41	1930.82
508.61	2116.17
508.82	2068.04
509.02	2020.53
509.22	1828.84
509.43	1848.09
509.63	1895.80
509.84	1902.56
510.04	1788.49
510.24	2148.32
510.45	2053.70
510.65	1815.52
510.86	1909.32
511.06	1844.61
511.26	2017.66
511.47	1965.44
511.67	1828.84
511.88	2013.15
512.08	2081.15
512.28	1791.15
512.49	1965.85
512.69	1955.40
512.90	1966.66
513.10	1847.06
513.30	1938.20
513.51	2023.60
513.71	2196.45
513.91	2022.57
514.12	2027.49
514.32	2121.08
514.53	1951.71
514.73	1975.06
514.93	1899.29
515.14	1968.30
515.34	2112.68
515.54	1898.88
515.75	1956.63
515.95	2044.69
516.15	2105.93
516.36	1978.54
516.56	1966.25
516.77	1696.33
516.97	1988.99
517.17	1884.13
517.38	1978.95
517.58	2135.62
517.78	1891.91
517.99	1933.49
518.19	1915.47
518.39	2129.68
518.60	1921.40
518.80	1837.23
519.00	1976.09
519.21	1930.82
519.41	2168.18
519.61	1830.27
519.82	1945.37
520.02	1952.33
520.22	1932.87
520.43	1875.73
520.63	1862.22
520.83	1853.62
521.04	1772.31
521.24	1933.69
521.44	1837.64
521.65	1839.49
521.85	2017.25
522.05	1792.18
522.26	1868.98
522.46	2180.88
522.66	2041.82
522.87	1857.51
523.07	2003.94
523.27	1901.33
523.48	2131.12
523.68	1926.93
523.88	1918.33
524.09	2083.40
524.29	1980.39
524.49	1746.71
524.70	2007.83
524.90	2082.37
525.10	2022.37
525.31	1744.66
525.51	1784.19
525.71	2055.55
525.91	1982.23
526.12	1849.73
526.32	1776.41
526.52	1867.34
526.73	1857.30
526.93	1918.54
527.13	1758.80
527.34	1911.78
527.54	1904.00
527.74	1854.85
527.94	1778.46
528.15	1823.31
528.35	1968.51
528.55	1950.90
528.76	1957.04
528.96	1767.81
529.16	2037.32
529.36	2010.08
529.57	1796.68
529.77	2055.75
529.97	1826.58
530.18	1986.94
530.38	1866.72
530.58	2009.47
530.78	1955.40
530.99	1866.93
531.19	1964.41
531.39	1829.86
531.60	1937.17
531.80	1867.95
532.00	2008.44
532.20	1965.64
532.41	1863.04
532.61	1867.95
532.81	1868.57
533.01	1877.78
533.22	2012.74
533.42	2031.59
533.62	1725.41
533.82	2138.49
534.03	1910.96
534.23	1956.63
534.43	1825.15
534.63	1878.40
534.84	1970.15
535.04	1944.96
535.24	1937.58
535.44	2294.13
535.65	1896.42
535.85	1854.03
536.05	1865.49
536.25	1960.73
536.46	1812.25
536.66	2067.83
536.86	1920.79
537.06	2020.32
537.27	2105.93
537.47	1977.93
537.67	1865.09
537.87	2149.96
538.08	1912.19
538.28	1823.51
538.48	1805.08
538.68	1928.37
538.88	2008.44
539.09	1794.43
539.29	1883.93
539.49	2051.86
539.69	2001.28
539.90	1967.89
540.10	1823.10
540.30	2127.23
540.50	1897.65
540.70	1773.54
540.91	1902.77
541.11	2019.91
541.31	2149.96
541.51	1982.43
541.72	1958.88
541.92	1992.67
542.12	1864.27
542.32	1867.13
542.52	1869.59
542.73	1882.90
542.93	2031.58
543.13	1884.34
543.33	1969.33
543.53	2058.62
543.74	2033.63
543.94	1892.32
544.14	2011.72
544.34	2107.36
544.54	1976.70
544.75	1998.82
544.95	2142.99
545.15	2061.89
545.35	2188.05
545.55	2016.23
545.75	1886.18
545.96	2250.92
546.16	1796.07
546.36	1868.77
546.56	1939.43
546.76	2102.04
546.97	2169.62
547.17	1935.54
547.37	2000.05
547.57	1918.74
547.77	2052.68
547.97	1960.52
548.18	1946.18
548.38	1955.40
548.58	2122.92
548.78	1861.19
548.98	1935.13
549.18	2058.82
549.39	2194.60
549.59	2010.08
549.79	1951.51
549.99	2151.80
550.19	2094.66
550.39	2034.45
550.60	1919.56
550.80	1988.78
551.00	2022.37
551.20	1857.71
551.40	1888.43
551.60	2023.39
551.80	2022.16
552.01	2003.53
552.21	1939.22
552.41	1991.44
552.61	2204.84
552.81	1974.04
553.01	1864.47
553.21	2012.33
553.42	1848.50
553.62	1844.40
553.82	1851.77
554.02	2138.49
554.22	2068.86
554.42	1836.21
554.62	1999.84
554.83	2189.07
555.03	2154.26
555.23	1971.37
555.43	2185.80
555.63	2045.72
555.83	2007.83
556.03	1965.44
556.23	1817.78
556.44	1990.01
556.64	2110.23
556.84	1706.37
557.04	1904.61
557.24	1971.99
557.44	1977.52
557.64	1935.54
557.84	1842.35
558.04	1884.13
558.25	2039.16
558.45	1872.46
558.65	1930.82
558.85	1961.54
559.05	1745.69
559.25	1881.26
559.45	1991.44
559.65	2214.67
559.85	2588.43
560.05	1983.46
560.26	2020.94
560.46	2026.26
560.66	1962.57
560.86	1944.14
561.06	1856.28
561.26	2148.93
561.46	2040.19
561.66	1882.49
561.86	2003.73
562.06	1865.70
562.26	1917.51
562.47	1941.27
562.67	1819.62
562.87	2033.63
563.07	1745.69
563.27	1954.58
563.47	1938.40
563.67	1887.82
563.87	2009.47
564.07	1859.56
564.27	1924.48
564.47	1974.04
564.67	2017.45
564.87	1888.23
565.08	1979.77
565.28	1891.71
565.48	2021.14
565.68	1981.20
565.88	1996.97
566.08	2178.01
566.28	1959.70
566.48	1783.37
566.68	1894.37
566.88	1920.59
567.08	2092.41
567.28	1902.77
567.48	1915.87
567.68	1996.36
567.88	1774.36
568.08	1976.70
568.28	2064.35
568.48	1926.11
568.68	2088.93
568.89	1932.46
569.09	1759.61
569.29	2047.56
569.49	2033.84
569.69	1826.38
569.89	1819.83
570.09	1735.04
570.29	1873.07
570.49	1770.47
570.69	1840.71
570.89	2042.85
571.09	2207.30
571.29	1807.33
571.49	2053.29
571.69	1996.16
571.89	2018.89
572.09	1859.56
572.29	1889.05
572.49	2043.05
572.69	2036.70
572.89	1920.99
573.09	1689.98
573.29	1941.27
573.49	1971.17
573.69	1920.79
573.89	2038.96
574.09	1914.44
574.29	2114.73
574.49	1870.41
574.69	1850.13
574.89	1811.84
575.09	1843.17
575.29	1838.67
575.49	1921.20
575.69	1982.43
575.89	1807.74
576.09	1951.10
576.29	1951.92
576.49	1821.26
576.69	1932.46
576.89	1863.04
577.09	1913.42
577.29	1762.07
577.49	2162.45
577.69	1873.28
577.89	2012.95
578.09	1974.65
578.29	1762.48
578.49	1919.56
578.69	1851.57
578.89	2071.93
579.09	1960.52
579.29	1837.44
579.49	2026.87
579.69	1905.02
579.89	2171.26
580.09	1737.09
580.29	1782.96
580.49	1860.58
580.69	1823.10
580.89	1902.15
581.09	1906.66
581.29	1908.30
581.49	1908.50
581.69	1835.18
581.89	1847.06
582.09	1812.45
582.28	1840.92
582.48	2011.51
582.68	2095.48
582.88	2087.49
583.08	1920.59
583.28	1894.78
583.48	1909.53
583.68	1857.92
583.88	1949.87
584.08	1938.20
584.28	1921.81
584.48	2179.65
584.68	2021.55
584.88	1900.11
585.08	2076.44
585.28	2066.40
585.48	2109.61
585.68	2007.42
585.87	2012.13
586.07	2028.92
586.27	1954.79
586.47	2028.10
586.67	1949.46
586.87	1957.24
587.07	1890.89
587.27	1826.79
587.47	1986.12
587.67	2194.81
587.87	2335.09
588.07	2046.13
588.27	1960.11
588.46	2125.18
588.66	2134.80
588.86	1962.16
589.06	2023.39
589.26	2104.08
589.46	2076.03
589.66	1869.39
589.86	1866.31
590.06	1949.26
590.26	2044.69
590.46	1944.96
590.66	2052.47
590.85	1944.55
591.05	2058.00
591.25	1848.91
591.45	1943.52
591.65	2053.50
591.85	1989.19
592.05	1922.84
592.25	2034.86
592.45	2103.88
592.64	1950.90
592.84	1943.93
593.04	1856.69
593.24	2286.97
593.44	1897.24
593.64	1984.07
593.84	2031.18
594.04	1899.70
594.24	2158.35
594.43	1882.08
594.63	1943.11
594.83	2095.48
595.03	2053.50
595.23	1827.81
595.43	1796.68
595.63	1841.53
595.83	2074.59
596.02	1715.99
596.22	1961.54
596.42	1990.42
596.62	1907.68
596.82	1866.93
597.02	1991.44
597.22	2090.98
597.41	1980.80
597.61	1879.22
597.81	2001.48
598.01	2052.68
598.21	1893.55
598.41	1891.91
598.61	1824.74
598.80	1944.34
599.00	1988.58
599.20	2079.30
599.40	1915.67
599.60	1938.81
599.80	2076.85
599.99	2128.86
600.19	1934.92
600.39	1988.58
600.59	2018.48
600.79	1997.18
600.99	1997.59
601.19	2192.15
601.38	2238.43
601.58	2008.44
601.78	1759.61
601.98	2034.66
602.18	2082.37
602.37	2295.36
602.57	2155.90
602.77	2338.99
602.97	2272.43
603.17	2301.71
603.37	2188.46
603.56	2295.98
603.76	2232.29
603.96	2196.45
604.16	2158.56
604.36	2257.89
604.56	2161.84
604.75	1949.46
604.95	2038.55
605.15	2190.71
605.35	2140.33
605.55	1958.68
605.74	1910.14
605.94	2145.25
606.14	2003.53
606.34	2030.36
606.54	1944.75
606.73	1900.31
606.93	2039.16
607.13	1875.32
607.33	1947.21
607.53	2128.86
607.72	2047.15
607.92	2033.02
608.12	2040.80
608.32	1934.10
608.51	2000.05
608.71	1834.37
608.91	1946.80
609.11	2031.58
609.31	1926.11
609.50	1980.80
609.70	2122.11
609.90	2083.81
610.10	2063.12
610.29	1951.71
610.49	1868.16
610.69	2062.10
610.89	1986.94
611.09	1997.79
611.28	2076.85
611.48	2108.18
611.68	1950.90
611.88	1874.51
612.07	1859.15
612.27	2052.27
612.47	1858.94
612.67	1969.53
612.86	2040.80
613.06	1946.39
613.26	1781.73
613.46	1882.29
613.65	1935.94
613.85	2290.86
614.05	2055.55
614.25	1994.72
614.44	1934.92
614.64	1950.69
614.84	1895.80
615.04	1868.16
615.23	1880.24
615.43	2014.59
615.63	2033.02
615.83	1858.74
616.02	1786.03
616.22	2047.97
616.42	1827.61
616.62	1835.39
616.81	1925.91
617.01	2013.36
617.21	1954.79
617.41	1838.26
617.60	1927.75
617.80	2008.03
618.00	2020.53
618.19	1951.92
618.39	1967.48
618.59	2004.14
618.79	1928.57
618.98	1754.09
619.18	1908.50
619.38	2196.04
619.57	1904.00
619.77	1908.30
619.97	1908.30
620.17	1868.98
620.36	1798.73
620.56	2050.43
620.76	1780.30
620.95	1824.94
621.15	1907.27
621.35	1871.84
621.54	1893.14
621.74	1939.63
621.94	1863.24
622.14	1850.13
622.33	1774.36
622.53	1899.49
622.73	1869.39
622.92	1770.88
623.12	1936.76
623.32	2216.52
623.51	2030.97
623.71	1792.18
623.91	2060.46
624.10	1853.62
624.30	1957.45
624.50	1821.46
624.69	1794.64
624.89	2435.24
625.09	1894.58
625.29	1715.17
625.48	1827.61
625.68	1944.14
625.88	2051.45
626.07	1948.03
626.27	1815.32
626.47	1855.25
626.66	1769.24
626.86	1897.03
627.06	1902.77
627.25	1918.54
627.45	2136.44
627.64	1898.47
627.84	2076.85
628.04	1823.31
628.23	2203.41
628.43	1833.96
628.63	1836.62
628.82	1891.09
629.02	2175.56
629.22	2002.71
629.41	2108.38
629.61	1970.76
629.81	2220.61
630.00	1850.13
630.20	1822.49
630.40	1973.01
630.59	2006.80
630.79	1934.92
630.98	1919.97
631.18	1917.92
631.38	1932.67
631.57	2048.38
631.77	1796.89
631.97	1953.76
632.16	1962.36
632.36	1937.38
632.56	1913.42
632.75	1978.75
632.95	2072.75
633.14	1815.73
633.34	2102.44
633.54	1711.49
633.73	1870.41
633.93	1882.49
634.12	1743.23
634.32	2310.11
634.52	1926.52
634.71	1817.98
634.91	1971.58
635.11	1812.25
635.30	1862.22
635.50	1960.11
635.69	1829.86
635.89	2175.76
636.09	2046.74
636.28	1812.45
636.48	1868.57
636.67	2023.39
636.87	2009.47
637.07	2010.70
637.26	1855.87
637.46	1969.53
637.65	2093.02
637.85	1982.84
638.04	1852.18
638.24	1909.73
638.44	2044.90
638.63	1951.10
638.83	1887.61
639.02	1975.06
639.22	2041.62
639.42	1910.75
639.61	1944.96
639.81	1953.15
640.00	1935.74
640.20	1976.09
640.39	1999.64
640.59	2272.43
640.79	2160.61
640.98	2090.77
641.18	2034.25
641.37	2116.78
641.57	2011.72
641.76	2029.95
641.96	1832.52
642.15	2020.53
642.35	1953.97
642.55	1976.70
642.74	1880.44
642.94	2064.35
643.13	2145.45
643.33	1923.86
643.52	1874.30
643.72	1887.00
643.91	1979.36
644.11	1885.77
644.31	1846.65
644.50	1879.22
644.70	2120.88
644.89	1944.34
645.09	2025.44
645.28	1973.01
645.48	2003.32
645.67	1846.86
645.87	1765.96
646.06	1916.28
646.26	2000.87
646.45	1722.75
646.65	1717.22
646.84	2217.95
647.04	1915.87
647.24	1799.35
647.43	1940.66
647.63	1948.85
647.82	2155.08
648.02	1824.13
648.21	1865.09
648.41	2088.11
648.60	1908.71
648.80	2045.31
648.99	1969.53
649.19	1881.67
649.38	1784.19
649.58	1938.61
649.77	1956.63
649.97	2068.86
650.16	2029.54
650.36	1736.27
650.55	2057.39
650.75	1981.20
650.94	2141.36
651.14	1923.25
651.33	1965.23
651.53	2173.51
651.72	1872.46
651.92	1924.27
652.11	1751.22
652.31	2021.14
652.50	1976.90
652.70	1972.60
652.89	1831.50
653.09	2145.04
653.28	1932.87
653.48	1750.40
653.67	1795.86
653.87	2348.20
654.06	1988.37
654.25	2087.70
654.45	1841.53
654.64	1932.46
654.84	1941.06
655.03	1729.92
655.23	2056.37
655.42	2045.31
655.62	2194.19
655.81	2020.73
656.01	1875.12
656.20	2107.36
656.40	2158.97
656.59	1945.57
656.79	2082.99
656.98	2004.55
657.17	2077.25
657.37	1939.02
657.56	1873.28
657.76	1983.25
657.95	2075.00
658.15	1612.57
658.34	1919.56
658.54	1957.24
658.73	1798.73
658.92	1865.90
659.12	1955.81
659.31	2047.76
659.51	1847.47
659.70	1996.77
659.90	1896.42
660.09	2101.83
660.29	1961.54
660.48	1860.58
660.67	2095.28
660.87	1904.61
661.06	2003.94
661.26	2034.66
661.45	2003.53
661.65	1994.52
661.84	1873.89
662.03	1864.88
662.23	1868.98
662.42	2206.28
662.62	1807.33
662.81	1819.83
663.00	1887.82
663.20	2001.07
663.39	2069.88
663.59	2096.10
663.78	2001.68
663.97	1979.36
664.17	2125.79
664.36	1829.86
664.56	1894.17
664.75	2086.47
664.94	2062.71
665.14	1951.10
665.33	1911.16
665.53	1988.78
665.72	1983.25
665.91	2066.20
666.11	1967.28
666.30	1995.34
666.50	1949.05
666.69	2021.55
666.88	1990.63
667.08	2057.59
667.27	2012.95
667.47	2081.97
667.66	1999.64
667.85	2163.27
668.05	2026.47
668.24	1920.79
668.43	2115.35
668.63	1960.52
668.82	2134.80
669.02	2028.51
669.21	1973.42
669.40	1824.54
669.60	2198.08
669.79	1811.22
669.98	2384.04
670.18	1851.57
670.37	1791.56
670.56	1898.88
670.76	1979.57
670.95	1899.08
671.15	2066.81
671.34	1944.34
671.53	1914.44
671.73	1881.47
671.92	1850.34
672.11	1804.06
672.31	1864.88
672.50	1957.04
672.69	1787.88
672.89	1703.30
673.08	1851.77
673.27	2045.10
673.47	1966.87
673.66	1958.68
673.85	1824.74
674.05	1973.22
674.24	2086.06
674.43	2013.97
674.63	2304.37
674.82	2583.92
675.01	2055.96
675.21	2300.48
675.40	2141.97
675.59	2081.15
675.79	2299.46
675.98	2006.80
676.17	2182.11
676.37	2091.59
676.56	1968.10
676.75	1998.20
676.95	1963.39
677.14	1921.81
677.33	2114.32
677.52	1813.68
677.72	1852.59
677.91	1977.31
678.10	1759.00
678.30	1805.08
678.49	1788.70
678.68	2220.41
678.88	1722.96
679.07	2043.87
679.26	1873.69
679.45	2171.46
679.65	2076.23
679.84	1716.20
680.03	1743.64
680.23	1873.28
680.42	2226.96
680.61	1772.72
680.81	1845.83
681.00	1954.79
681.19	1968.71
681.38	1993.08
681.58	1967.28
681.77	1889.05
681.96	2021.55
682.15	1888.84
682.35	1935.74
682.54	1983.66
682.73	1823.72
682.93	1846.65
683.12	1819.01
683.31	2011.11
683.50	2262.60
683.70	1847.47
683.89	1938.20
684.08	1797.71
684.27	2048.58
684.47	1738.11
684.66	1949.26
684.85	2168.18
685.04	2092.20
685.24	1841.53
685.43	1932.67
685.62	1752.65
685.81	1981.00
686.01	2047.56
686.20	1991.24
686.39	1996.97
686.58	2446.50
686.78	2237.82
686.97	2196.24
687.16	2264.23
687.35	2111.46
687.55	2026.47
687.74	2048.17
687.93	1931.85
688.12	2025.85
688.32	2025.85
688.51	1836.00
688.70	2036.09
688.89	1823.31
689.08	1817.78
689.28	1853.21
689.47	1961.95
689.66	1956.01
689.85	2002.91
690.05	1858.33
690.24	1855.25
690.43	1987.96
690.62	1944.34
690.81	1848.91
691.01	1958.27
691.20	1885.36
691.39	1799.35
691.58	1978.54
691.77	2176.38
691.97	1941.68
692.16	1972.60
692.35	1888.64
692.54	1888.84
692.73	2010.29
692.93	1987.14
693.12	2012.95
693.31	2082.78
693.50	2061.49
693.69	2078.48
693.89	1930.21
694.08	2144.43
694.27	2148.73
694.46	1899.29
694.65	1950.90
694.85	2065.58
695.04	2057.18
695.23	2155.08
695.42	3176.40
695.61	4142.63
695.80	4778.94
696.00	5373.67
696.19	5664.48
696.38	4957.72
696.57	4257.52
696.76	4079.76
696.95	3800.01
697.15	3735.90
697.34	3548.11
697.53	3083.01
697.72	2947.23
697.91	2720.11
698.10	2716.43
698.30	2301.92
698.49	2155.28
698.68	2097.32
698.87	1960.32
699.06	1846.65
699.25	1941.27
699.45	2091.18
699.64	1991.65
699.83	1995.34
700.02	1840.30
700.21	1978.95
700.40	1868.36
700.59	1882.49
700.79	1893.35
700.98	1989.60
701.17	1843.79
701.36	1871.84
701.55	1830.27
701.74	2096.30
701.93	1880.44
702.12	2060.46
702.32	2006.19
702.51	2267.31
702.70	2213.04
702.89	2106.13
703.08	1985.30
703.27	2186.41
703.46	2103.67
703.65	1984.89
703.85	1853.41
704.04	1908.09
704.23	2130.50
704.42	1866.11
704.61	1893.35
704.80	2147.91
704.99	1865.29
705.18	1987.76
705.37	2025.03
705.57	2760.87
705.76	3834.21
705.95	4133.01
706.14	4948.51
706.33	5298.71
706.52	5230.92
706.71	4125.84
706.90	3793.25
707.09	3677.95
707.28	3453.69
707.47	3151.41
707.67	3128.48
707.86	2839.51
708.05	2904.02
708.24	2544.40
708.43	2350.45
708.62	2168.39
708.81	2039.16
709.00	1875.53
709.19	1883.72
709.38	2090.16
709.57	1823.72
709.76	1956.01
709.96	1890.68
710.15	2147.91
710.34	1960.32
710.53	2036.70
710.72	1950.90
710.91	2065.17
711.10	2045.31
711.29	2012.74
711.48	1896.01
711.67	1822.49
711.86	2009.47
712.05	1812.25
712.24	1852.80
712.43	2013.56
712.62	2097.53
712.81	1931.03
713.00	2091.59
713.19	1792.38
713.39	1994.31
713.58	1874.71
713.77	2096.51
713.96	2242.12
714.15	2204.02
714.34	2199.72
714.53	2046.33
714.72	2362.95
714.91	2017.66
715.10	2105.72
715.29	1935.94
715.48	2452.44
715.67	2144.22
715.86	2055.96
716.05	1968.30
716.24	1968.30
716.43	1946.59
716.62	1856.69
716.81	1790.54
717.00	1916.69
717.19	2136.44
717.38	1916.49
717.57	1904.82
717.76	1744.87
717.95	2054.93
718.14	1924.27
718.33	1864.27
718.52	1726.85
718.71	1738.93
718.90	1756.13
719.09	1868.77
719.28	1921.20
719.47	2034.86
719.66	2012.33
719.85	1995.34
720.04	1924.27
720.23	1976.90
720.42	1877.99
720.61	2000.87
720.80	1799.14
720.99	1999.84
721.18	1882.08
721.37	1818.80
721.56	1897.24
721.75	2016.02
721.94	1815.11
722.13	1872.66
722.32	1899.90
722.51	2039.78
722.70	1921.20
722.89	1968.10
723.08	1918.74
723.27	2055.55
723.46	1962.77
723.65	1902.97
723.84	1863.24
724.03	2082.37
724.22	1797.71
724.41	1953.76
724.60	1917.10
724.79	2039.37
724.98	1977.52
725.16	1892.12
725.35	2016.63
725.54	1828.84
725.73	1937.79
725.92	1943.73
726.11	2076.85
726.30	2459.41
726.49	2396.74
726.68	2622.83
726.87	2762.51
727.06	2830.91
727.25	2398.79
727.44	2503.85
727.63	2371.55
727.82	2303.96
728.01	2269.97
728.20	2283.08
728.38	2405.34
728.57	2147.91
728.76	2099.99
728.95	2144.22
729.14	1852.80
729.33	1885.16
729.52	1757.16
729.71	1871.84
729.90	1853.00
730.09	1898.06
730.28	1923.66
730.47	1889.05
730.66	2158.15
730.84	2024.83
731.03	1991.24
731.22	2033.63
731.41	1994.31
731.60	2036.09
731.79	1801.39
731.98	1867.95
732.17	2027.49
732.36	2029.74
732.55	1869.59
732.73	1810.61
732.92	2134.60
733.11	1998.41
733.30	1873.28
733.49	1802.62
733.68	2005.37
733.87	1994.11
734.06	1872.05
734.25	1897.03
734.43	1950.49
734.62	2096.71
734.81	2022.37
735.00	2010.49
735.19	2024.83
735.38	2078.48
735.57	1880.85
735.76	2024.01
735.94	2069.88
736.13	2390.39
736.32	2268.94
736.51	2210.17
736.70	2541.32
736.89	2562.21
737.08	2752.88
737.27	3996.82
737.45	5740.87
737.64	6445.16
737.83	7417.13
738.02	7854.37
738.21	7523.42
738.40	6087.59
738.59	5469.71
738.77	5178.70
738.96	4771.77
739.15	4552.43
739.34	4310.56
739.53	3952.99
739.72	3769.08
739.90	3474.58
740.09	2920.81
740.28	2698.20
740.47	2505.69
740.66	2341.85
740.85	2026.67
741.03	2034.25
741.22	1932.67
741.41	1981.00
741.60	1880.65
741.79	2016.23
741.98	2136.65
742.16	2224.50
742.35	2019.50
742.54	2002.71
742.73	2282.46
742.92	2016.43
743.10	1898.67
743.29	1981.82
743.48	2368.27
743.67	1979.98
743.86	1833.96
744.05	1884.54
744.23	1911.78
744.42	1927.96
744.61	1963.39
744.80	1859.15
744.99	1903.59
745.17	1812.86
745.36	1831.91
745.55	2048.38
745.74	2021.96
745.93	1922.22
746.11	1933.08
746.30	1903.18
746.49	2149.34
746.68	1917.31
746.86	1984.89
747.05	1978.75
747.24	2110.02
747.43	2099.37
747.62	1897.03
747.80	1946.59
747.99	2201.16
748.18	2129.07
748.37	2073.77
748.56	2098.96
748.74	2162.86
748.93	2212.42
749.12	3205.07
749.31	6225.82
749.49	8842.92
749.68	10658.86
749.87	12330.41
750.06	12991.29
750.24	12366.25
750.43	11826.20
750.62	12924.94
750.81	13251.59
750.99	13812.53
751.18	13450.24
751.37	11226.76
751.56	9608.66
751.74	9284.47
751.93	8365.75
752.12	6930.74
752.31	6087.59
752.49	5317.14
752.68	4885.63
752.87	4142.84
753.06	3619.17
753.24	3227.39
753.43	2993.31
753.62	2493.40
753.81	2272.84
753.99	2368.07
754.18	2163.88
754.37	1968.10
754.55	2042.64
754.74	2245.60
754.93	1819.62
755.12	1962.98
755.30	1886.18
755.49	2132.75
755.68	2004.35
755.86	2005.58
756.05	1859.76
756.24	2168.80
756.43	1826.38
756.61	1843.79
756.80	1995.75
756.99	2134.80
757.17	1951.51
757.36	1846.45
757.55	1952.94
757.74	2047.35
757.92	1968.71
758.11	1816.75
758.30	1763.51
758.48	1948.85
758.67	1849.93
758.86	2005.58
759.04	1894.99
759.23	1979.16
759.42	2037.73
759.60	1943.11
759.79	1986.12
759.98	1956.22
760.16	1878.60
760.35	1899.70
760.54	1838.05
760.73	1986.73
760.91	1819.01
761.10	1985.71
761.29	1988.58
761.47	1990.22
761.66	2278.37
761.85	2027.49
762.03	2320.35
762.22	3909.78
762.41	9236.75
762.59	15343.79
762.78	18512.41
762.97	22482.60
763.15	24238.53
763.34	21858.99
763.52	16060.38
763.71	14793.50
763.90	13621.24
764.08	12667.10
764.27	11624.89
764.46	10724.80
764.64	9421.89
764.83	8406.50
765.02	7432.69
765.20	6383.31
765.39	5317.55
765.58	4052.32
765.76	3423.79
765.95	2861.63
766.13	2484.80
766.32	2280.41
766.51	2159.99
766.69	2659.08
766.88	2085.86
767.07	1901.13
767.25	1804.47
767.44	2090.98
767.62	2112.27
767.81	1917.72
768.00	1947.21
768.18	1978.95
768.37	1883.72
768.56	1781.73
768.74	1864.47
768.93	1784.19
769.11	2017.66
769.30	1942.50
769.49	1842.76
769.67	1916.49
769.86	1898.47
770.04	1857.71
770.23	1879.42
770.42	2111.05
770.60	1955.61
770.79	1852.39
770.97	1988.99
771.16	2688.16
771.35	4039.82
771.53	5335.98
771.72	6147.39
771.90	7083.31
772.09	7583.63
772.27	6717.34
772.46	5251.81
772.65	5249.97
772.83	4801.67
773.02	4652.37
773.20	4256.29
773.39	4121.95
773.58	3834.62
773.76	3375.46
773.95	3215.52
774.13	3066.22
774.32	2697.38
774.50	2380.76
774.69	2278.98
774.87	2102.44
775.06	2353.32
775.25	1926.73
775.43	1975.47
775.62	2026.26
775.80	2067.01
775.99	1972.40
776.17	1873.28
776.36	1969.53
776.54	2108.38
776.73	1897.44
776.92	2001.28
777.10	2113.50
777.29	2029.95
777.47	1870.61
777.66	1909.73
777.84	1962.57
778.03	1935.54
778.21	1842.97
778.40	1927.55
778.58	1991.04
778.77	2052.68
778.95	1795.45
779.14	1832.93
779.32	2159.79
779.51	2051.45
779.70	1884.34
779.88	1751.01
780.07	1854.23
780.25	2258.70
780.44	1894.17
780.62	2019.50
780.81	2002.30
780.99	1982.84
781.18	1840.51
781.36	1857.30
781.55	1903.79
781.73	2137.46
781.92	1790.95
782.10	1790.33
782.29	1981.61
782.47	2123.13
782.66	1918.74
782.84	1733.61
783.03	1856.89
783.21	2103.26
783.40	1881.47
783.58	1857.92
783.77	1854.23
783.95	1933.08
784.14	1797.09
784.32	1899.29
784.51	2091.18
784.69	1841.33
784.88	1757.77
785.06	1880.44
785.24	1744.46
785.43	2048.99
785.61	1967.69
785.80	1808.36
785.98	2006.19
786.17	1930.42
786.35	1823.10
786.54	1963.80
786.72	2052.68
786.91	2066.81
787.09	1899.08
787.28	1799.96
787.46	1966.46
787.65	2075.82
787.83	1803.65
788.01	1918.74
788.20	1821.26
788.38	1942.91
788.57	1880.44
788.75	1914.03
788.94	2199.52
789.12	2070.09
789.31	1916.28
789.49	2009.26
789.67	1896.01
789.86	1988.78
790.04	1838.26
790.23	1775.38
790.41	2256.25
790.60	1920.18
790.78	1903.79
790.96	1933.49
791.15	2042.44
791.33	1940.66
791.52	1916.08
791.70	1843.17
791.89	1942.09
792.07	2040.80
792.25	1940.86
792.44	1798.12
792.62	2098.14
792.81	1900.11
792.99	1937.17
793.17	1912.80
793.36	1952.94
793.54	2600.92
793.73	3593.37
793.91	4799.82
794.10	5716.09
794.28	6573.77
794.46	6714.47
794.65	6522.17
794.83	5233.38
795.01	4846.72
795.20	4783.24
795.38	4433.03
795.57	4201.61
795.75	4066.04
795.93	3693.51
796.12	3519.02
796.30	3334.91
796.49	3157.35
796.67	2747.55
796.85	2746.94
797.04	2490.94
797.22	2407.59
797.40	2060.67
797.59	2164.91
797.77	2123.95
797.96	2030.77
798.14	1987.14
798.32	1958.88
798.51	2134.19
798.69	2269.35
798.87	2028.10
799.06	1960.11
799.24	1898.88
799.42	2488.49
799.61	3155.92
799.79	3791.40
799.98	4475.22
800.16	4852.87
800.34	6002.19
800.53	7470.17
800.71	7929.94
800.89	9065.13
801.08	9401.81
801.26	9329.73
801.44	7867.68
801.63	6486.74
801.81	6381.68
801.99	5824.42
802.18	5444.12
802.36	5159.65
802.54	4755.79
802.73	4171.51
802.91	3907.11
803.09	3581.08
803.28	3299.89
803.46	3054.34
803.64	2914.26
803.83	2365.40
804.01	2214.67
804.19	2052.88
804.38	2241.91
804.56	2140.54
804.74	2028.10
804.92	2020.73
805.11	1908.50
805.29	2139.31
805.47	1953.15
805.66	1871.84
805.84	1878.81
806.02	2127.23
806.21	1936.97
806.39	2090.77
806.57	2136.85
806.76	2128.45
806.94	2001.28
807.12	1969.53
807.30	2011.31
807.49	2120.88
807.67	2083.40
807.85	2188.87
808.04	2177.81
808.22	2328.13
808.40	1895.19
808.58	1858.53
808.77	2080.33
808.95	2301.10
809.13	2709.87
809.31	4673.87
809.50	6820.76
809.68	8010.22
809.86	9098.10
810.05	9894.76
810.23	11426.44
810.41	16569.91
810.59	28425.19
810.78	35680.53
810.96	41635.41
811.14	45305.37
811.32	44766.55
811.51	36037.70
811.69	28405.53
811.87	28009.86
812.05	24442.92
812.24	22939.71
812.42	21020.97
812.60	18661.71
812.78	15879.95
812.97	13570.86
813.15	11935.15
813.33	10149.73
813.51	8690.35
813.70	6910.67
813.88	5533.61
814.06	4432.21
814.24	3561.01
814.42	2848.11
814.61	2659.08
814.79	2659.08
814.97	2092.20
815.15	2109.61
815.34	2196.45
815.52	2225.73
815.70	1947.62
815.88	1961.13
816.06	1918.54
816.25	1962.36
816.43	1867.34
816.61	2030.97
816.79	2147.50
816.98	1785.62
817.16	1859.15
817.34	1831.91
817.52	1998.82
817.70	2135.42
817.89	1886.79
818.07	1787.67
818.25	1938.40
818.43	1965.44
818.61	1893.96
818.80	1854.64
818.98	2129.48
819.16	1957.65
819.34	1766.37
819.52	2113.71
819.70	1828.02
819.89	1947.00
820.07	1747.94
820.25	1762.48
820.43	1952.74
820.61	2051.25
820.80	1904.41
820.98	1773.54
821.16	1720.50
821.34	1776.20
821.52	1875.73
821.70	1925.71
821.89	1926.11
822.07	1892.53
822.25	1869.39
822.43	1814.91
822.61	2111.46
822.79	1955.40
822.98	1878.19
823.16	1720.70
823.34	1967.28
823.52	2086.47
823.70	1963.18
823.88	1735.24
824.06	1992.47
824.25	1902.15
824.43	1988.99
824.61	1785.42
824.79	1921.40
824.97	1952.33
825.15	2124.15
825.33	2639.42
825.52	3535.82
825.70	3938.65
825.88	4314.25
826.06	4716.68
826.24	4850.82
826.42	4404.57
826.60	3680.40
826.78	3728.94
826.97	3390.41
827.15	3443.45
827.33	3027.72
827.51	3070.31
827.69	2836.85
827.87	2736.09
828.05	2644.95
828.23	2382.20
828.41	2495.45
828.60	2396.33
828.78	2002.30
828.96	2143.61
829.14	1969.33
829.32	1988.58
829.50	1921.40
829.68	1890.48
829.86	1909.94
830.04	2018.07
830.22	1946.59
830.41	1783.58
830.59	1894.99
830.77	1999.02
830.95	1828.02
831.13	1835.59
831.31	1815.52
831.49	2023.19
831.67	2030.97
831.85	1997.79
832.03	1876.35
832.21	1973.01
832.39	1759.21
832.57	1764.12
832.76	2008.44
832.94	1896.21
833.12	1697.97
833.30	1866.11
833.48	2055.34
833.66	1959.29
833.84	1807.33
834.02	1891.30
834.20	2014.79
834.38	2019.50
834.56	1701.25
834.74	1791.36
834.92	1761.05
835.10	2114.53
835.28	1939.22
835.46	1889.66
835.64	1906.66
835.82	1821.67
836.01	2094.46
836.19	2019.71
836.37	1866.72
836.55	1824.33
836.73	1810.20
836.91	1759.41
837.09	2003.53
837.27	2106.34
837.45	1765.35
837.63	1791.15
837.81	1789.31
837.99	1908.91
838.17	1876.14
838.35	1811.63
838.53	2233.11
838.71	2015.41
838.89	1839.69
839.07	1848.50
839.25	1962.98
839.43	2129.89
839.61	2321.58
839.79	3792.63
839.97	5383.29
840.15	6243.85
840.33	7025.76
840.51	7600.01
840.69	7309.20
840.87	6039.87
841.05	5439.40
841.23	5788.99
841.41	7377.19
841.59	10403.89
841.77	11739.78
841.95	12847.93
842.13	13797.78
842.31	13202.23
842.49	10602.74
842.67	8920.34
842.85	8759.78
843.03	7579.33
843.21	7130.21
843.39	6648.32
843.57	5992.15
843.75	5405.61
843.93	4673.46
844.11	4156.35
844.29	3831.34
844.47	3570.02
844.65	3431.37
844.83	2968.53
845.01	2729.74
845.19	2611.16
845.36	2273.86
845.54	2222.66
845.72	2087.29
845.90	2076.23
846.08	1871.23
846.26	1923.66
846.44	2018.68
846.62	2020.12
846.80	1911.78
846.98	1825.35
847.16	1897.65
847.34	1951.30
847.52	1771.49
847.70	1796.48
847.88	1899.08
848.06	2095.07
848.24	1941.68
848.41	1742.82
848.59	2044.90
848.77	1966.25
848.95	1831.50
849.13	1821.67
849.31	1986.53
849.49	1958.27
849.67	1755.52
849.85	1731.56
850.03	1974.24
850.21	1934.10
850.39	1808.77
850.57	1955.20
850.74	2105.52
850.92	2235.56
851.10	2518.80
851.28	3155.51
851.46	3661.77
851.64	4229.67
851.82	4093.89
852.00	4133.62
852.18	3843.83
852.36	3373.21
852.53	3168.62
852.71	3093.46
852.89	3003.14
853.07	2919.17
853.25	2639.22
853.43	2503.44
853.61	2534.98
853.79	2427.46
853.97	2230.03
854.14	2115.76
854.32	2323.22
854.50	2258.30
854.68	2011.92
854.86	1957.04
855.04	1910.55
855.22	2032.61
855.40	1759.82
855.57	1836.82
855.75	2012.74
855.93	1955.20
856.11	1693.26
856.29	1768.42
856.47	1841.33
856.65	1926.52
856.82	1781.32
857.00	1722.55
857.18	1896.42
857.36	1834.37
857.54	1888.23
857.72	1968.51
857.89	1985.10
858.07	1897.85
858.25	1976.49
858.43	1731.15
858.61	1865.70
858.79	1906.25
858.97	1787.67
859.14	1930.42
859.32	1867.75
859.50	1865.09
859.68	1908.91
859.86	1771.90
860.03	1911.37
860.21	1967.69
860.39	1810.81
860.57	1930.82
860.75	1926.93
860.93	2106.75
861.10	2012.95
861.28	1810.61
861.46	1955.20
861.64	1963.18
861.82	1838.46
861.99	1928.57
862.17	2034.25
862.35	2055.75
862.53	1867.54
862.71	1887.82
862.88	1917.72
863.06	1975.88
863.24	1860.78
863.42	1795.86
863.60	1883.52
863.77	1970.35
863.95	1697.56
864.13	1854.85
864.31	1874.10
864.49	1994.11
864.66	1726.64
864.84	1853.82
865.02	1922.43
865.20	2246.83
865.37	1907.07
865.55	1819.83
865.73	1827.81
865.91	2158.76
866.09	2208.12
866.26	2207.71
866.44	2373.60
866.62	2232.70
866.80	2081.97
866.97	2116.37
867.15	2076.03
867.33	2135.42
867.51	2120.67
867.68	2052.88
867.86	1964.00
868.04	1936.76
868.22	1771.90
868.39	1905.43
868.57	1984.28
868.75	2150.78
868.93	1788.08
869.10	1828.43
869.28	2166.14
869.46	2112.89
869.64	1858.12
869.81	1859.35
869.99	1924.89
870.17	1931.85
870.35	1804.87
870.52	1778.66
870.70	2026.47
870.88	1816.75
871.05	1745.28
871.23	1640.01
871.41	1900.92
871.59	1880.65
871.76	1835.39
871.94	1802.42
872.12	1884.13
872.29	1723.78
872.47	1796.27
872.65	1751.63
872.83	1943.32
873.00	2056.16
873.18	1838.26
873.36	1772.11
873.53	2006.60
873.71	1728.90
873.89	1779.48
874.06	1867.95
874.24	1965.85
874.42	2058.82
874.60	1972.60
874.77	1913.42
874.95	1806.31
875.13	2034.45
875.30	1766.78
875.48	1843.38
875.66	2091.18
875.83	1804.26
876.01	1789.11
876.19	1963.39
876.36	1750.19
876.54	1908.50
876.72	1753.88
876.89	1922.63
877.07	1980.59
877.25	1694.08
877.42	1892.94
877.60	1841.33
877.78	2090.77
877.95	1849.11
878.13	1811.43
878.31	1921.61
878.48	2009.47
878.66	1967.07
878.84	1815.11
879.01	1849.11
879.19	1941.06
879.37	1951.71
879.54	1820.85
879.72	1725.82
879.90	1683.84
880.07	1997.79
880.25	1596.60
880.42	1939.22
880.60	1926.52
880.78	2001.48
880.95	1809.18
881.13	1823.31
881.31	1876.76
881.48	1805.49
881.66	1782.14
881.83	1874.10
882.01	1821.87
882.19	1760.02
882.36	1888.23
882.54	1816.75
882.72	1961.54
882.89	1910.96
883.07	1753.47
883.24	1814.09
883.42	1988.37
883.60	1893.55
883.77	1754.29
883.95	1808.15
884.12	2000.25
884.30	1906.45
884.48	1927.75
884.65	1847.68
884.83	1910.14
885.00	1925.30
885.18	1750.40
885.36	1811.22
885.53	1954.38
885.71	2040.19
885.88	1733.20
886.06	1834.78
886.23	1973.83
886.41	1832.73
886.59	1829.86
886.76	1798.94
886.94	1956.42
887.11	2268.94
887.29	1846.65
887.47	1724.39
887.64	2021.55
887.82	2066.81
887.99	1704.32
888.17	1864.88
888.34	1853.41
888.52	1749.78
888.69	1883.11
888.87	1759.61
889.05	1847.27
889.22	1851.57
889.40	1788.70
889.57	1980.59
889.75	2073.57
889.92	1857.92
890.10	1751.42
890.27	1836.21
890.45	1804.06
890.62	1700.22
890.80	1765.35
890.98	1720.50
891.15	2068.24
891.33	2010.70
891.50	1775.18
891.68	1709.64
891.85	1997.79
892.03	1972.81
892.20	1812.25
892.38	1745.69
892.55	1979.36
892.73	1985.51
892.90	1756.75
893.08	1781.73
893.25	1812.04
893.43	1823.72
893.60	1934.92
893.78	1662.54
893.95	1943.11
894.13	1873.07
894.30	1759.82
894.48	1867.54
894.65	1988.78
894.83	1910.35
895.00	1667.46
895.18	1670.73
895.35	1996.16
895.53	1947.82
895.70	1733.20
895.88	1907.48
896.05	1976.70
896.23	1736.68
896.40	1798.32
896.58	1864.06
896.75	1983.46
896.93	2095.28
897.10	1759.41
897.28	1726.44
897.45	1927.96
897.63	1972.19
897.80	1941.06
897.98	1838.26
898.15	1959.70
898.33	1778.87
898.50	1888.43
898.67	1830.88
898.85	1830.27
899.02	1921.61
899.20	1990.83
899.37	1814.50
899.55	1901.33
899.72	2057.59
899.90	1783.17
900.07	1752.04
900.25	1963.59
900.42	2036.09
900.59	1780.09
900.77	1918.95
900.94	1967.07
901.12	1915.67
901.29	1789.11
901.47	1926.93
901.64	1954.99
901.82	1907.07
901.99	1618.92
902.16	1770.06
902.34	2018.48
902.51	1950.28
902.69	1800.98
902.86	1848.09
903.03	2360.69
903.21	1883.11
903.38	1839.49
903.56	1793.41
903.73	2004.55
903.91	1851.57
904.08	1737.91
904.25	1660.49
904.43	1794.23
904.60	1968.10
904.78	1841.94
904.95	1723.57
905.12	1843.58
905.30	2084.83
905.47	1925.50
905.65	1943.52
905.82	1873.07
905.99	1979.36
906.17	1854.85
906.34	1765.96
906.52	1778.87
906.69	1977.11
906.86	1926.32
907.04	1866.31
907.21	2025.85
907.38	1999.43
907.56	1778.87
907.73	1810.81
907.91	2064.35
908.08	2023.19
908.25	1767.81
908.43	1758.18
908.60	1957.04
908.77	1931.23
908.95	1806.10
909.12	1776.20
909.30	1994.11
909.47	1750.60
909.64	1879.01
909.82	1957.24
909.99	1872.66
910.16	1894.78
910.34	1794.64
910.51	1836.41
910.68	1914.44
910.86	1930.82
911.03	1873.28
911.20	2405.13
911.38	3927.18
911.55	6115.64
911.72	7127.75
911.90	7767.74
912.07	8535.73
912.24	8322.54
912.42	6502.71
912.59	4769.51
912.76	4518.43
912.94	3875.58
913.11	3482.37
913.28	3156.53
913.46	2980.20
913.63	2994.13
913.80	3032.43
913.98	2703.11
914.15	2800.60
914.32	2758.82
914.49	2555.87
914.67	2395.92
914.84	2556.89
915.01	2591.50
915.19	2458.79
915.36	2275.70
915.53	2348.41
915.71	2224.50
915.88	2103.06
916.05	1914.85
916.22	2096.92
916.40	2005.99
916.57	1800.78
916.74	1919.77
916.92	2109.00
917.09	1788.08
917.26	1772.52
917.43	1742.00
917.61	1845.63
917.78	1682.41
917.95	1674.62
918.13	1746.30
918.30	2145.04
918.47	1911.16
918.64	1769.04
918.82	1758.18
918.99	1889.05
919.16	2112.89
919.33	1889.46
919.51	1796.07
919.68	1900.72
919.85	2033.63
920.02	1730.74
920.20	1842.97
920.37	2115.35
920.54	1982.02
920.71	1788.90
920.89	1796.07
921.06	2117.19
921.23	1814.91
921.40	1865.29
921.58	2292.50
921.75	3085.06
921.92	2745.51
922.09	2887.84
922.27	2924.91
922.44	2851.39
922.61	2575.94
922.78	2237.41
922.96	2203.41
923.13	2121.90
923.30	2254.20
923.47	1882.90
923.64	1967.89
923.82	2148.32
923.99	2090.16
924.16	2035.48
924.33	1878.81
924.50	2010.29
924.68	2186.82
924.85	1830.06
925.02	1906.86
925.19	2094.87
925.36	2006.60
925.54	1929.19
925.71	1895.80
925.88	2342.26
926.05	1886.59
926.22	1758.39
926.40	1876.14
926.57	1916.49
926.74	1973.63
926.91	1808.36
927.08	1976.29
927.26	2019.71
927.43	1913.21
927.60	1768.01
927.77	1823.31
927.94	2084.22
928.11	2050.02
928.29	1730.12
928.46	1858.74
928.63	1800.16
928.80	1860.58
928.97	1918.33
929.14	1741.39
929.32	2154.46
929.49	1904.00
929.66	1758.80
929.83	1708.01
930.00	1807.54
930.17	1904.00
930.35	1718.25
930.52	1772.93
930.69	2087.70
930.86	1775.18
931.03	1893.14
931.20	1637.35
931.37	2009.47
931.55	1857.71
931.72	1860.99
931.89	1724.59
932.06	1755.72
932.23	2087.90
932.40	1900.52
932.57	1870.00
932.74	2078.07
932.92	2027.49
933.09	1914.24
933.26	1573.04
933.43	1838.67
933.60	1902.56
933.77	1839.69
933.94	1863.45
934.11	1855.66
934.29	1904.61
934.46	1740.77
934.63	1887.20
934.80	1770.47
934.97	1943.93
935.14	1895.60
935.31	1765.76
935.48	1827.40
935.65	1948.44
935.82	1874.30
936.00	1721.73
936.17	2058.82
936.34	1877.37
936.51	1918.54
936.68	1710.05
936.85	1927.34
937.02	1913.01
937.19	1891.09
937.36	1831.50
937.53	1905.02
937.70	1995.54
937.87	1845.22
938.05	1893.55
938.22	1909.32
938.39	1773.75
938.56	1832.93
938.73	1746.71
938.90	1885.36
939.07	1821.26
939.24	1854.85
939.41	1653.12
939.58	1915.67
939.75	1952.94
939.92	1774.56
940.09	1946.59
940.26	1840.92
940.43	1986.53
940.60	1748.15
940.77	1800.78
940.95	1933.69
941.12	1983.25
941.29	1789.72
941.46	1826.79
941.63	2018.48
941.80	2074.59
941.97	1700.22
942.14	1694.49
942.31	1958.88
942.48	1855.25
942.65	1876.76
942.82	1806.92
942.99	1962.57
943.16	1861.81
943.33	1715.79
943.50	1781.73
943.67	1980.80
943.84	1995.54
944.01	1800.78
944.18	1740.16
944.35	2079.10
944.52	1788.90
944.69	1842.97
944.86	1708.21
945.03	1945.16
945.20	2204.43
945.37	1651.07
945.54	1808.56
945.71	2077.05
945.88	2086.06
946.05	1758.80
946.22	1735.04
946.39	2030.56
946.56	1882.08
946.73	1693.67
946.90	1722.96
947.07	1819.42
947.24	1858.53
947.41	1651.69
947.58	1890.68
947.75	1965.03
947.92	1917.92
948.09	1571.00
948.26	1699.61
948.43	1904.41
948.60	2106.13
948.77	1757.77
948.94	1765.55
949.11	1985.51
949.27	1921.20
949.44	1768.22
949.61	1752.65
949.78	1921.61
949.95	2036.70
950.12	1738.32
950.29	1717.84
950.46	1813.27
950.63	1995.75
950.80	1759.21
950.97	1810.20
951.14	1977.31
951.31	1851.98
951.48	1740.36
951.65	1712.92
951.82	2133.98
951.99	1909.73
952.15	1681.79
952.32	1829.66
952.49	1827.40
952.66	1785.21
952.83	1753.88
953.00	1745.07
953.17	1869.59
953.34	1987.76
953.51	1835.80
953.68	1813.48
953.85	2029.13
954.02	2024.83
954.18	1824.33
954.35	1802.21
954.52	1792.18
954.69	1912.39
954.86	1659.06
955.03	1797.71
955.20	1971.78
955.37	1884.95
955.54	1799.35
955.71	1778.46
955.87	1929.60
956.04	2093.23
956.21	1808.36
956.38	1744.87
956.55	1891.09
956.72	2190.10
956.89	1837.85
957.06	1769.44
957.23	1808.15
957.39	2029.74
957.56	1772.72
957.73	1713.33
957.90	1653.53
958.07	2091.80
958.24	1818.60
958.41	1747.94
958.57	1994.31
958.74	1864.68
958.91	1730.74
959.08	1761.87
959.25	1970.56
959.42	1847.06
959.59	1842.15
959.75	1770.26
959.92	2053.70
960.09	2016.84
960.26	1734.42
960.43	1848.91
960.60	1897.03
960.76	1842.35
960.93	1685.27
961.10	1852.59
961.27	2028.92
961.44	1839.28
961.61	1733.81
961.77	1696.13
961.94	1923.25
962.11	1994.52
962.28	1794.23
962.45	1722.55
962.62	1855.05
962.78	1996.16
962.95	1740.77
963.12	1764.53
963.29	1977.93
963.46	2219.79
963.62	1850.34
963.79	1762.48
963.96	2213.85
964.13	1871.02
964.30	1854.23
964.46	1777.23
964.63	1799.55
964.80	2302.74
964.97	1794.02
965.14	2165.93
965.30	2274.27
965.47	2377.90
965.64	2340.62
965.81	2269.56
965.98	2409.64
966.14	2129.07
966.31	1961.54
966.48	1930.21
966.65	2191.94
966.81	2076.44
966.98	1896.83
967.15	1925.30
967.32	1989.19
967.49	1875.12
967.65	1767.81
967.82	1723.37
967.99	1939.43
968.16	1765.35
968.32	1984.48
968.49	1864.06
968.66	1933.08
968.83	2182.11
968.99	1900.52
969.16	1743.44
969.33	2094.66
969.50	2025.03
969.66	1942.29
969.83	2030.56
970.00	2025.44
970.17	1960.32
970.33	1808.77
970.50	1697.15
970.67	2088.52
970.84	2048.58
971.00	1740.57
971.17	1704.11
971.34	1957.45
971.50	1873.48
971.67	1886.59
971.84	1842.35
972.01	1757.98
972.17	1637.97
972.34	1738.93
972.51	1870.41
972.67	2043.46
972.84	1919.77
973.01	1734.22
973.18	1776.41
973.34	2000.66
973.51	1763.30
973.68	1785.01
973.84	1821.26
974.01	1837.85
974.18	2097.32
974.34	1866.31
974.51	1857.71
974.68	1776.82
974.85	2109.61
975.01	1887.41
975.18	1798.94
975.35	1901.33
975.51	1780.71
975.68	1662.34
975.85	1918.33
976.01	1824.33
976.18	2058.62
976.35	1773.54
976.51	1743.03
976.68	2077.46
976.85	2031.18
977.01	1816.75
977.18	1865.70
977.35	1974.04
977.51	1739.14
977.68	1660.70
977.85	1715.38
978.01	2050.63
978.18	2007.42
978.35	1863.86
978.51	1853.41
978.68	2070.09
978.85	2112.68
979.01	1810.61
979.18	1860.58
979.34	1887.41
979.51	1915.06
979.68	1778.66
979.84	1842.56
980.01	2216.93
980.18	1931.23
980.34	1767.19
980.51	1876.55
980.67	2009.88
980.84	1992.26
981.01	1814.71
981.17	1847.68
981.34	1699.20
981.51	1952.53
981.67	1738.93
981.84	1919.36
982.00	1949.26
982.17	1874.30
982.34	1660.70
982.50	1599.26
982.67	2070.29
982.83	1826.17
983.00	1719.27
983.17	1615.64
983.33	2027.28
983.50	1709.64
983.66	1710.87
983.83	1600.08
984.00	1837.64
984.16	1902.56
984.33	1610.32
984.49	1623.22
984.66	1758.39
984.83	2002.09
984.99	1645.95
985.16	1572.02
985.32	1969.12
985.49	2010.08
985.65	1750.19
985.82	1590.25
985.99	2085.45
986.15	1894.99
986.32	1707.19
986.48	1663.16
986.65	1825.35
986.81	1986.73
986.98	1636.33
987.14	1699.40
987.31	1896.21
987.48	1705.96
987.64	1569.15
987.81	1611.34
987.97	2160.81
988.14	1781.12
988.30	1667.46
988.47	1527.99
988.63	1941.27
988.80	1740.16
988.96	1692.65
989.13	1725.62
989.30	1826.17
989.46	1982.43
989.63	1597.62
989.79	1578.98
989.96	1885.56
990.12	2078.28
990.29	1653.94
990.45	1682.41
990.62	1876.35
990.78	2043.26
990.95	1751.42
991.11	1649.84
991.28	1839.49
991.44	1930.01
991.61	1564.44
991.77	1692.65
991.94	1919.15
992.10	2023.39
992.27	1712.92
992.43	1669.30
992.60	1944.55
992.76	1834.78
992.93	1804.87
993.09	1585.54
993.26	1995.95
993.42	2130.50
993.59	1649.64
993.75	1576.12
993.92	1779.89
994.08	1785.01
994.25	1734.63
994.41	1615.64
994.58	1956.83
994.74	2044.08
994.91	1610.11
995.07	1715.38
995.24	1850.34
995.40	1865.09
995.56	1793.61
995.73	1738.32
995.89	2098.14
996.06	1847.88
996.22	1623.83
996.39	1604.99
996.55	1859.56
996.72	1937.17
996.88	1571.82
997.05	1624.04
997.21	2115.76
997.37	1951.30
997.54	1705.34
997.70	1677.70
997.87	1921.40
998.03	1841.74
998.20	1577.96
998.36	1550.52
998.52	1952.53
998.69	1969.94
998.85	1575.09
999.02	1646.16
999.18	2011.11
999.35	1971.78
999.51	1639.60
999.67	1662.54
999.84	1754.90
1000.00	1966.87
1000.17	1743.23
1000.33	1624.86
1000.49	1817.37
1000.66	1843.58
1000.82	1641.04
1000.99	1713.74
1001.15	2007.42
1001.31	1837.44
1001.48	1671.55
1001.64	1734.42
1001.81	1864.06
1001.97	2135.42
1002.13	1642.68
1002.30	1644.52
1002.46	2038.55
1002.63	1817.37
1002.79	1756.95
1002.95	1636.53
1003.12	2018.89
1003.28	1919.97
1003.45	1615.03
1003.61	1606.22
1003.77	1918.54
1003.94	1701.04
1004.10	1660.08
1004.26	1720.70
1004.43	1970.97
1004.59	2089.95
1004.75	1636.12
1004.92	1623.63
1005.08	1819.62
1005.25	1919.97
1005.41	1628.34
1005.57	1725.00
1005.74	2022.16
1005.90	1798.94
1006.06	1745.07
1006.23	1653.94
1006.39	1944.96
1006.55	2223.89
1006.72	1772.11
1006.88	1619.74
1007.04	1803.44
1007.21	1812.86
1007.37	1671.55
1007.53	1635.71
1007.70	2067.22
1007.86	1966.66
1008.02	1685.89
1008.19	1611.14
1008.35	1885.97
1008.51	1778.05
1008.68	1667.87
1008.84	1556.66
1009.00	1789.92
1009.17	1984.69
1009.33	1780.30
1009.49	1734.22
1009.65	1787.88
1009.82	1925.71
1009.98	1721.93
1010.14	1571.00
1010.31	1950.49
1010.47	1912.19
1010.63	1726.85
1010.80	1696.13
1010.96	1947.82
1011.12	1868.57
1011.28	1635.10
1011.45	1632.85
1011.61	2200.54
1011.77	1785.01
1011.94	1608.88
1012.10	1601.51
1012.26	1757.98
1012.42	1791.77
1012.59	1693.47
1012.75	1682.41
1012.91	1823.51
1013.07	1990.83
1013.24	1618.30
1013.40	1647.80
1013.56	1890.89
1013.72	1851.98
1013.89	1736.27
1014.05	1717.63
1014.21	2134.19
1014.37	2197.47
1014.54	1696.33
1014.70	1624.45
1014.86	1846.65
1015.02	1767.81
1015.19	1642.88
1015.35	1587.99
1015.51	1842.76
1015.67	1811.84
1015.84	1632.03
1016.00	1628.95
1016.16	2007.42
1016.32	1967.69
1016.49	1644.31
1016.65	1631.62
1016.81	1867.13
1016.97	1936.76
1017.14	1742.00
1017.30	1624.24
1017.46	1825.76
1017.62	1880.04
1017.78	1719.88
1017.95	1619.94
1018.11	1984.89
1018.27	2199.72
1018.43	1745.07
1018.59	1720.50
1018.76	1979.98
1018.92	2214.26
1019.08	1607.45
1019.24	1663.57
1019.40	2045.92
1019.57	1909.32
1019.73	1728.69
1019.89	1671.76
1020.05	1908.50
1020.21	2108.79
1020.38	1628.75
1020.54	1787.67
1020.70	1956.01
1020.86	1962.36
1021.02	1671.96
1021.18	1658.24
1021.35	1813.89
1021.51	1944.75
1021.67	1795.86
1021.83	1654.96
1021.99	1890.28
1022.15	1925.71
1022.32	1751.83
1022.48	1702.27
1022.64	2033.84
1022.80	2083.40
1022.96	1702.68
1023.12	1585.33
1023.29	2012.95
1023.45	1934.51
1023.61	1630.80
1023.77	1809.79
1023.93	1902.36
1024.09	1787.67
1024.25	1636.33
1024.42	1588.81
1024.58	1813.07
1024.74	1911.37
1024.90	1659.67
1025.06	1714.97
1025.22	1815.93
1025.38	2061.49
1025.54	1597.62
1025.71	1733.61
1025.87	1978.95
1026.03	1940.45
1026.19	1621.79
1026.35	1792.18
1026.51	1920.79
1026.67	1889.66
1026.83	1715.58
1026.99	1743.23
1027.16	1939.22
1027.32	1870.82
1027.48	1695.92
1027.64	1626.29
1027.80	1939.22
1027.96	1873.69
1028.12	1676.47
1028.28	1653.12
1028.44	1924.07
1028.60	2044.69
1028.77	1780.50
1028.93	1696.54
1029.09	1817.57
1029.25	1748.56
1029.41	1708.42
1029.57	1760.02
1029.73	1931.85
1029.89	2056.57
1030.05	1788.49
1030.21	1745.89
1030.37	2171.46
1030.53	1979.36
1030.69	1686.09
1030.85	1621.38
1031.02	1748.76
1031.18	1890.28
1031.34	1674.42
1031.50	1725.62
1031.66	1796.27
1031.82	2074.18
1031.98	1693.67
1032.14	1614.00
1032.30	1745.28
1032.46	1948.44
1032.62	1781.12
1032.78	1598.85
1032.94	1793.20
1033.10	1852.59
1033.26	1707.39
1033.42	1759.21
1033.58	2133.78
1033.74	1815.52
1033.90	1647.39
1034.06	1844.20
1034.22	2167.57
1034.38	2001.89
1034.54	1678.11
1034.70	1719.27
1034.86	2110.02
>>>>>End Processed Spectral Data<<<<<
