SpectraSuite Data File
++++++++++++++++++++++++++++++++++++
Date: Thu Mar 30 16:11:05 PDT 2017
User: UCSD _CER
Dark Spectrum Present: No
Reference Spectrum Present: No
Number of Sampled Component Spectra: 1
Spectrometers: USB4C00073
Integration Time (usec): 250000 (USB4C00073)
Spectra Averaged: 10 (USB4C00073)
Boxcar Smoothing: 0 (USB4C00073)
Correct for Electrical Dark: No (USB4C00073)
Strobe/Lamp Enabled: No (USB4C00073)
Correct for Detector Non-linearity: No (USB4C00073)
Correct for Stray Light: No (USB4C00073)
Number of Pixels in Processed Spectrum: 3648
>>>>>Begin Processed Spectral Data<<<<<
345.37	1278.75
345.58	1278.75
345.80	1278.75
346.01	1272.40
346.22	1278.14
346.43	1964.82
346.65	1762.89
346.86	2102.44
347.07	2088.52
347.28	1793.41
347.50	1814.50
347.71	1937.58
347.92	1721.73
348.13	1813.27
348.35	1724.80
348.56	1948.64
348.77	1778.05
348.98	1817.78
349.20	1673.40
349.41	1902.56
349.62	1988.17
349.83	1881.06
350.05	1752.24
350.26	1957.86
350.47	2087.70
350.68	1769.85
350.90	1744.66
351.11	2097.53
351.32	2056.57
351.53	1816.75
351.75	1716.81
351.96	1948.64
352.17	1922.43
352.38	1854.44
352.60	1865.09
352.81	1922.63
353.02	2123.74
353.23	1784.80
353.44	1811.84
353.66	1852.59
353.87	1839.28
354.08	1875.53
354.29	1784.80
354.51	1801.19
354.72	1850.95
354.93	1751.42
355.14	1685.89
355.35	1706.37
355.57	1987.76
355.78	1760.43
355.99	1832.32
356.20	1903.79
356.42	1885.16
356.63	1880.44
356.84	1757.98
357.05	1992.06
357.26	2147.30
357.48	1875.53
357.69	1852.39
357.90	1953.56
358.11	1832.93
358.32	1790.54
358.54	1838.26
358.75	1864.06
358.96	2000.25
359.17	1775.38
359.38	1789.31
359.60	1993.90
359.81	1878.81
360.02	1788.90
360.23	1739.34
360.44	1811.22
360.66	2004.76
360.87	1756.34
361.08	1725.62
361.29	1932.87
361.50	1923.66
361.72	1785.62
361.93	1814.09
362.14	1931.23
362.35	1731.35
362.56	1859.76
362.77	1690.19
362.99	1955.40
363.20	1891.09
363.41	1858.33
363.62	1684.25
363.83	1970.97
364.05	2028.72
364.26	1678.72
364.47	1732.17
364.68	2034.86
364.89	1812.45
365.10	1700.84
365.32	1778.25
365.53	1818.19
365.74	1836.82
365.95	1797.71
366.16	1688.55
366.37	1908.91
366.59	1850.34
366.80	1798.94
367.01	1679.95
367.22	2154.46
367.43	2248.26
367.64	1796.89
367.86	1804.26
368.07	1966.66
368.28	2073.98
368.49	1710.26
368.70	1841.53
368.91	1867.34
369.12	1885.77
369.34	1705.34
369.55	1740.98
369.76	1905.02
369.97	1850.95
370.18	1719.06
370.39	1741.80
370.60	1753.88
370.82	1785.83
371.03	1833.34
371.24	1757.98
371.45	1988.17
371.66	1955.61
371.87	1804.87
372.08	1772.31
372.30	1771.08
372.51	2004.76
372.72	1881.06
372.93	1758.80
373.14	2098.14
373.35	1808.15
373.56	1724.18
373.78	1812.66
373.99	1990.63
374.20	2263.21
374.41	1796.07
374.62	1826.38
374.83	2104.70
375.04	1850.54
375.25	1777.64
375.47	1754.49
375.68	1856.48
375.89	1983.05
376.10	1809.99
376.31	1886.18
376.52	1957.86
376.73	1967.07
376.94	1800.78
377.15	1778.66
377.37	1906.66
377.58	1870.21
377.79	1667.05
378.00	1744.46
378.21	1949.05
378.42	1981.61
378.63	1798.12
378.84	1870.82
379.05	2021.14
379.27	1915.47
379.48	1924.68
379.69	1731.56
379.90	2045.51
380.11	1672.99
380.32	1803.85
380.53	1876.35
380.74	2075.82
380.95	1904.82
381.16	1793.61
381.37	1781.12
381.59	2083.81
381.80	2001.89
382.01	1754.70
382.22	1674.01
382.43	1960.93
382.64	1891.91
382.85	1729.51
383.06	1817.57
383.27	1992.06
383.48	1869.39
383.69	1831.09
383.91	1729.30
384.12	1969.74
384.33	1947.00
384.54	1801.60
384.75	1679.33
384.96	2281.23
385.17	1989.60
385.38	1745.28
385.59	1766.99
385.80	1999.84
386.01	2090.77
386.22	1863.45
386.43	1786.24
386.64	2166.55
386.86	1893.35
387.07	1919.97
387.28	1710.05
387.49	1842.76
387.70	2062.30
387.91	1857.92
388.12	1741.39
388.33	1935.94
388.54	1858.74
388.75	1777.43
388.96	1846.24
389.17	1799.55
389.38	1859.76
389.59	1839.90
389.80	1829.86
390.01	1897.03
390.22	1851.77
390.43	1902.77
390.64	1685.48
390.86	1945.16
391.07	2023.19
391.28	1809.18
391.49	1845.83
391.70	1733.81
391.91	1783.17
392.12	1809.38
392.33	1794.84
392.54	1877.99
392.75	1871.02
392.96	1841.94
393.17	1729.71
393.38	2179.86
393.59	2036.50
393.80	1706.57
394.01	1789.52
394.22	1873.48
394.43	2130.91
394.64	1713.13
394.85	1883.93
395.06	1888.64
395.27	1927.34
395.48	1804.06
395.69	1715.17
395.90	1898.67
396.11	1897.44
396.32	1741.59
396.53	1905.02
396.74	1863.86
396.95	2015.41
397.16	1762.28
397.37	1687.73
397.58	2012.13
397.79	1913.83
398.00	1837.03
398.21	1799.75
398.42	1909.32
398.63	2194.60
398.84	1791.56
399.05	1748.76
399.26	2053.29
399.47	1958.47
399.68	1625.88
399.89	1743.44
400.10	1757.98
400.31	1851.98
400.52	1800.78
400.73	1798.12
400.94	1717.43
401.15	1933.28
401.36	1797.71
401.57	1817.98
401.78	2039.78
401.99	1992.88
402.20	1706.57
402.41	1900.72
402.62	2092.41
402.83	1870.21
403.04	1747.94
403.25	1926.11
403.46	1936.56
403.67	2073.57
403.88	1788.90
404.09	1777.64
404.30	1836.82
404.51	1803.03
404.72	1737.09
404.93	1873.48
405.14	1799.55
405.35	1880.24
405.56	1794.84
405.77	1763.71
405.98	1931.03
406.19	1878.40
406.40	1756.95
406.61	1772.31
406.82	1806.92
407.03	2184.57
407.24	1692.85
407.45	1825.56
407.66	1944.75
407.87	2002.91
408.08	1838.26
408.29	1877.17
408.49	1978.13
408.70	1890.48
408.91	1770.67
409.12	1849.32
409.33	1799.96
409.54	2048.99
409.75	1751.01
409.96	1796.48
410.17	2000.46
410.38	1867.54
410.59	1769.44
410.80	1883.52
411.01	1883.93
411.22	1879.63
411.43	1828.22
411.64	1771.08
411.85	1797.50
412.06	1757.16
412.27	1618.30
412.47	1786.03
412.68	1876.76
412.89	1961.95
413.10	1761.25
413.31	1693.06
413.52	2143.40
413.73	2150.16
413.94	1767.19
414.15	1916.69
414.36	1825.35
414.57	1797.09
414.78	1691.42
414.99	1743.64
415.19	2015.20
415.40	1953.35
415.61	1962.36
415.82	1851.57
416.03	2007.42
416.24	1996.36
416.45	1780.91
416.66	1777.84
416.87	1758.80
417.08	2011.51
417.29	1740.98
417.50	1838.05
417.70	1974.24
417.91	1921.20
418.12	1818.80
418.33	1790.95
418.54	1950.69
418.75	2052.68
418.96	1958.27
419.17	1880.24
419.38	2167.98
419.59	2054.32
419.79	1909.32
420.00	1846.45
420.21	2319.12
420.42	1933.90
420.63	1801.39
420.84	1884.75
421.05	1913.62
421.26	1926.11
421.47	1727.87
421.67	2035.68
421.88	1774.36
422.09	1717.22
422.30	1941.27
422.51	1806.51
422.72	2105.93
422.93	1981.82
423.14	1796.68
423.35	1688.76
423.55	1702.48
423.76	1796.68
423.97	1818.39
424.18	1693.47
424.39	1851.57
424.60	2025.03
424.81	1801.60
425.02	1891.09
425.22	1904.41
425.43	1911.16
425.64	1986.32
425.85	1869.80
426.06	2176.58
426.27	2029.74
426.48	1903.18
426.68	1858.53
426.89	2031.99
427.10	2124.15
427.31	1816.55
427.52	1730.94
427.73	1971.17
427.94	1939.22
428.14	1899.08
428.35	1797.30
428.56	2054.11
428.77	1991.24
428.98	1883.52
429.19	1810.81
429.40	1841.12
429.60	1896.01
429.81	1960.32
430.02	1847.88
430.23	1897.65
430.44	1998.00
430.65	1772.31
430.85	1825.97
431.06	1944.75
431.27	1703.09
431.48	1803.03
431.69	1853.62
431.90	1916.28
432.10	1907.68
432.31	1830.68
432.52	1739.75
432.73	2181.29
432.94	2064.97
433.15	1903.59
433.35	1812.86
433.56	2046.54
433.77	1889.87
433.98	1899.70
434.19	1800.37
434.40	1856.48
434.60	1875.73
434.81	1810.20
435.02	1845.42
435.23	1894.37
435.44	1835.39
435.64	1703.09
435.85	1730.12
436.06	1857.71
436.27	1808.97
436.48	1708.62
436.68	1776.20
436.89	2079.30
437.10	1955.61
437.31	1823.72
437.52	1893.55
437.73	1905.02
437.93	1896.83
438.14	1855.25
438.35	1672.17
438.56	1823.72
438.77	1865.49
438.97	1924.68
439.18	1752.65
439.39	2023.19
439.60	1756.95
439.80	1690.39
440.01	1805.69
440.22	1826.79
440.43	1954.58
440.64	1725.62
440.84	1814.30
441.05	1745.69
441.26	2238.63
441.47	1839.90
441.68	1775.18
441.88	1855.87
442.09	1861.19
442.30	1930.21
442.51	1862.22
442.71	1824.74
442.92	1937.99
443.13	1740.98
443.34	1739.34
443.55	1772.11
443.75	1973.42
443.96	1748.15
444.17	1747.12
444.38	2016.63
444.58	1782.55
444.79	1856.89
445.00	1831.50
445.21	1869.59
445.41	1857.71
445.62	1607.04
445.83	1884.13
446.04	1894.37
446.24	1736.27
446.45	1626.09
446.66	1787.67
446.87	1956.63
447.07	1849.52
447.28	1978.34
447.49	1816.75
447.70	1991.44
447.90	2001.89
448.11	1805.69
448.32	1875.53
448.53	2075.21
448.73	2058.82
448.94	1773.34
449.15	1926.93
449.36	1913.21
449.56	1926.32
449.77	1783.99
449.98	1710.26
450.19	1842.76
450.39	1870.00
450.60	1885.36
450.81	1853.82
451.02	1897.85
451.22	2081.35
451.43	1758.80
451.64	1768.63
451.84	1856.48
452.05	2041.21
452.26	1845.83
452.47	1810.61
452.67	1831.09
452.88	2064.15
453.09	1750.81
453.30	1714.76
453.50	1982.02
453.71	2075.62
453.92	1766.37
454.12	1876.14
454.33	1811.22
454.54	1843.99
454.75	1731.56
454.95	1738.11
455.16	1886.59
455.37	1949.67
455.57	1824.13
455.78	1800.37
455.99	1870.61
456.19	1906.66
456.40	1714.15
456.61	1826.38
456.82	1882.49
457.02	2004.35
457.23	1836.41
457.44	1959.91
457.64	1815.11
457.85	1949.46
458.06	1789.11
458.26	1873.48
458.47	1854.44
458.68	1968.51
458.89	1706.37
459.09	1896.21
459.30	2154.46
459.51	1891.30
459.71	1706.78
459.92	1788.90
460.13	1972.81
460.33	2163.47
460.54	1780.91
460.75	1793.41
460.95	1752.24
461.16	1955.40
461.37	1773.34
461.57	1833.14
461.78	1895.19
461.99	1740.57
462.19	1999.02
462.40	1738.32
462.61	2169.41
462.81	2016.23
463.02	1729.51
463.23	1775.18
463.43	1986.73
463.64	1844.20
463.85	2647.41
464.05	1751.42
464.26	2306.83
464.47	2039.78
464.67	1940.25
464.88	1852.80
465.09	1786.85
465.29	1921.40
465.50	1919.15
465.71	1804.47
465.91	1819.01
466.12	1870.82
466.33	1853.00
466.53	1796.89
466.74	2104.70
466.94	1864.68
467.15	1823.10
467.36	2006.60
467.56	1790.95
467.77	1928.16
467.98	1846.65
468.18	1760.02
468.39	1827.61
468.60	2138.08
468.80	1837.23
469.01	1762.89
469.21	1946.39
469.42	2003.94
469.63	1806.10
469.83	1734.22
470.04	1972.40
470.25	2060.05
470.45	1877.78
470.66	1758.18
470.86	1953.35
471.07	1853.21
471.28	1891.09
471.48	1941.68
471.69	1917.10
471.90	2335.71
472.10	1814.50
472.31	1820.23
472.51	1789.72
472.72	1788.49
472.93	1741.59
473.13	1935.54
473.34	1908.91
473.54	1891.09
473.75	1841.94
473.96	1979.16
474.16	1859.15
474.37	1948.64
474.57	1829.25
474.78	1748.15
474.99	1941.68
475.19	1934.72
475.40	1731.97
475.60	1713.74
475.81	2054.11
476.02	1846.86
476.22	1812.86
476.43	1948.64
476.63	1847.88
476.84	2035.07
477.05	1665.20
477.25	1779.28
477.46	2268.13
477.66	1906.04
477.87	1709.23
478.08	1778.66
478.28	2018.68
478.49	1873.89
478.69	1762.07
478.90	1808.77
479.10	2001.48
479.31	2091.59
479.52	1877.37
479.72	1909.12
479.93	1958.88
480.13	1814.71
480.34	1756.13
480.54	1881.26
480.75	1789.72
480.96	2056.16
481.16	1771.70
481.37	1891.50
481.57	1996.16
481.78	1984.28
481.98	1988.58
482.19	1850.95
482.40	2116.17
482.60	1985.51
482.81	1899.90
483.01	1798.94
483.22	1966.46
483.42	1972.19
483.63	1897.65
483.83	1870.41
484.04	1811.02
484.24	2015.20
484.45	1889.25
484.66	1725.00
484.86	1968.51
485.07	1807.54
485.27	1851.16
485.48	1772.52
485.68	2060.26
485.89	1790.33
486.09	1896.62
486.30	1775.18
486.50	1914.24
486.71	1883.72
486.91	1865.29
487.12	1889.05
487.33	2090.57
487.53	2082.37
487.74	1961.13
487.94	1812.86
488.15	1858.33
488.35	1944.75
488.56	1809.99
488.76	1811.84
488.97	1887.82
489.17	1948.64
489.38	1805.90
489.58	1806.51
489.79	1954.99
489.99	1937.17
490.20	1830.68
490.40	1917.10
490.61	1942.09
490.81	1827.81
491.02	1843.79
491.22	1900.92
491.43	1989.60
491.63	1897.24
491.84	1941.68
492.04	1720.70
492.25	1964.21
492.45	1857.51
492.66	1797.91
492.86	1711.69
493.07	1840.92
493.27	2147.91
493.48	1683.43
493.68	1819.21
493.89	1887.82
494.09	1990.42
494.30	1773.95
494.50	2050.84
494.71	1956.42
494.91	1703.30
495.12	1791.15
495.32	1872.46
495.53	1892.32
495.73	1673.60
495.94	1804.87
496.14	1670.94
496.35	2105.72
496.55	1833.55
496.76	1794.23
496.96	1867.75
497.17	1871.43
497.37	1962.16
497.58	1784.60
497.78	1759.61
497.98	1828.02
498.19	1860.58
498.39	1867.54
498.60	1887.61
498.80	1699.40
499.01	1978.13
499.21	1747.74
499.42	1847.68
499.62	1865.70
499.83	2148.32
500.03	1699.61
500.24	1873.28
500.44	2035.27
500.64	2027.90
500.85	1831.50
501.05	1913.83
501.26	1713.74
501.46	2035.68
501.67	1799.35
501.87	1736.68
502.08	1793.61
502.28	1832.73
502.48	1878.40
502.69	1933.69
502.89	1737.50
503.10	1801.80
503.30	1847.88
503.51	1852.80
503.71	1746.71
503.92	1993.70
504.12	1864.06
504.32	1820.03
504.53	1965.23
504.73	2007.01
504.94	1931.64
505.14	1979.36
505.35	1993.90
505.55	1933.69
505.75	1857.30
505.96	1955.81
506.16	2145.86
506.37	1829.86
506.57	1761.05
506.78	1884.95
506.98	2009.06
507.18	1738.73
507.39	1751.83
507.59	1808.15
507.80	1779.28
508.00	1893.55
508.20	1978.95
508.41	1849.93
508.61	2042.03
508.82	2000.25
509.02	1943.32
509.22	1732.99
509.43	1767.60
509.63	1809.79
509.84	1824.33
510.04	1704.73
510.24	2067.63
510.45	1981.41
510.65	1726.64
510.86	1855.66
511.06	1744.66
511.26	1979.57
511.47	1937.58
511.67	1749.78
511.88	1951.30
512.08	2008.44
512.28	1725.62
512.49	1913.62
512.69	1913.21
512.90	1934.51
513.10	1790.54
513.30	1841.53
513.51	1948.23
513.71	2101.22
513.91	1889.66
514.12	1857.92
514.32	1984.07
514.53	1814.09
514.73	1892.53
514.93	1804.06
515.14	1894.37
515.34	2032.20
515.54	1866.72
515.75	1886.38
515.95	1988.17
516.15	2044.28
516.36	1903.59
516.56	1939.63
516.77	1653.33
516.97	1953.56
517.17	1803.03
517.38	1905.43
517.58	2105.11
517.78	1848.50
517.99	1900.51
518.19	1860.37
518.39	2057.59
518.60	1875.53
518.80	1797.30
519.00	1948.85
519.21	1889.66
519.41	2110.84
519.61	1800.16
519.82	1916.69
520.02	1899.90
520.22	1902.97
520.43	1853.00
520.63	1868.16
520.83	1806.92
521.04	1719.88
521.24	1905.63
521.44	1845.22
521.65	1813.07
521.85	1983.05
522.05	1814.09
522.26	1828.02
522.46	2158.15
522.66	2078.69
522.87	1806.92
523.07	1994.31
523.27	1837.03
523.48	2090.98
523.68	1887.41
523.88	1862.22
524.09	2048.99
524.29	1915.87
524.49	1725.41
524.70	1953.56
524.90	2073.98
525.10	1993.29
525.31	1762.07
525.51	1763.51
525.71	1986.53
525.91	1957.86
526.12	1791.56
526.32	1731.76
526.52	1842.56
526.73	1818.80
526.93	1891.30
527.13	1732.38
527.34	1882.90
527.54	1877.37
527.74	1804.87
527.94	1743.44
528.15	1760.43
528.35	1912.60
528.55	1934.51
528.76	1893.14
528.96	1696.33
529.16	2009.26
529.36	1968.92
529.57	1762.28
529.77	2022.57
529.97	1793.61
530.18	1911.98
530.38	1847.47
530.58	1948.64
530.78	1911.16
530.99	1815.52
531.19	1935.33
531.39	1825.97
531.60	1903.59
531.80	1815.11
532.00	1967.89
532.20	1904.00
532.41	1800.37
532.61	1789.31
532.81	1837.44
533.01	1857.10
533.22	1957.45
533.42	1948.23
533.62	1682.61
533.82	2076.64
534.03	1877.78
534.23	1905.23
534.43	1754.09
534.63	1832.32
534.84	1924.07
535.04	1848.70
535.24	1858.94
535.44	2214.06
535.65	1828.63
535.85	1793.82
536.05	1780.91
536.25	1890.48
536.46	1785.42
536.66	1997.59
536.86	1873.28
537.06	1974.65
537.27	2045.92
537.47	1944.75
537.67	1800.37
537.87	2054.32
538.08	1854.64
538.28	1769.45
538.48	1760.84
538.68	1885.77
538.88	1955.20
539.09	1751.42
539.29	1803.65
539.49	2007.42
539.69	1940.25
539.90	1883.31
540.10	1771.29
540.30	2045.72
540.50	1824.54
540.70	1731.97
540.91	1865.09
541.11	1995.75
541.31	2095.28
541.51	1905.02
541.72	1921.40
541.92	1958.06
542.12	1817.57
542.32	1835.80
542.52	1812.25
542.73	1796.68
542.93	1977.11
543.13	1837.03
543.33	1901.95
543.53	1978.54
543.74	1962.77
543.94	1817.16
544.14	1948.85
544.34	2048.99
544.54	1905.84
544.75	1923.86
544.95	2058.82
545.15	1985.30
545.35	2092.20
545.55	1969.94
545.75	1816.14
545.96	2187.85
546.16	1759.00
546.36	1846.04
546.56	1860.58
546.76	2035.27
546.97	2116.37
547.17	1840.51
547.37	1918.13
547.57	1808.97
547.77	1972.81
547.97	1886.59
548.18	1913.62
548.38	1917.31
548.58	2065.17
548.78	1806.72
548.98	1937.79
549.18	2050.43
549.39	2135.62
549.59	1956.83
549.79	1902.36
549.99	2123.13
550.19	2020.12
550.39	1976.09
550.60	1871.84
550.80	1939.63
551.00	1981.82
551.20	1821.46
551.40	1802.62
551.60	1953.56
551.80	1920.18
552.01	1967.69
552.21	1854.23
552.41	1925.09
552.61	2116.99
552.81	1930.21
553.01	1755.52
553.21	1940.86
553.42	1755.93
553.62	1799.96
553.82	1803.85
554.02	2113.30
554.22	1989.40
554.42	1759.00
554.62	1938.40
554.83	2084.63
555.03	2080.74
555.23	1879.22
555.43	2126.82
555.63	1974.65
555.83	1963.39
556.03	1883.31
556.23	1765.76
556.44	1935.33
556.64	2049.20
556.84	1653.73
557.04	1840.51
557.24	1929.60
557.44	1929.19
557.64	1868.57
557.84	1769.85
558.04	1844.81
558.25	1983.66
558.45	1788.49
558.65	1876.35
558.85	1905.02
559.05	1685.27
559.25	1845.02
559.45	1944.55
559.65	2174.53
559.85	2563.44
560.05	1914.44
560.26	1935.33
560.46	1937.79
560.66	1858.12
560.86	1839.90
561.06	1800.98
561.26	2099.78
561.46	1973.22
561.66	1858.33
561.86	1964.00
562.06	1814.91
562.26	1894.17
562.47	1916.90
562.67	1774.36
562.87	1963.39
563.07	1734.22
563.27	1890.07
563.47	1886.38
563.67	1865.09
563.87	1987.35
564.07	1817.57
564.27	1873.69
564.47	1919.15
564.67	1941.47
564.87	1796.27
565.08	1942.91
565.28	1855.05
565.48	1937.17
565.68	1939.02
565.88	1929.39
566.08	2128.86
566.28	1921.40
566.48	1733.61
566.68	1835.18
566.88	1853.00
567.08	2019.50
567.28	1849.52
567.48	1888.43
567.68	1951.71
567.88	1746.71
568.08	1912.60
568.28	2002.30
568.48	1886.18
568.68	2063.53
568.89	1888.02
569.09	1713.95
569.29	2017.45
569.49	2001.28
569.69	1803.85
569.89	1761.46
570.09	1691.21
570.29	1812.25
570.49	1725.41
570.69	1774.77
570.89	2002.30
571.09	2127.23
571.29	1718.04
571.49	2020.32
571.69	1940.45
571.89	1940.45
572.09	1848.29
572.29	1829.04
572.49	1997.18
572.69	1981.82
572.89	1880.24
573.09	1610.73
573.29	1893.14
573.49	1893.76
573.69	1860.17
573.89	1969.74
574.09	1848.29
574.29	2039.37
574.49	1834.78
574.69	1806.10
574.89	1766.37
575.09	1756.34
575.29	1793.61
575.49	1877.78
575.69	1920.59
575.89	1750.40
576.09	1904.00
576.29	1901.13
576.49	1757.57
576.69	1860.99
576.89	1817.16
577.09	1846.86
577.29	1722.55
577.49	2102.65
577.69	1809.18
577.89	1907.27
578.09	1897.03
578.29	1707.19
578.49	1851.98
578.69	1802.01
578.89	2018.07
579.09	1898.67
579.29	1774.56
579.49	1953.56
579.69	1851.16
579.89	2127.02
580.09	1720.91
580.29	1687.53
580.49	1828.22
580.69	1768.63
580.89	1837.85
581.09	1824.74
581.29	1847.47
581.49	1878.60
581.69	1766.99
581.89	1802.01
582.09	1806.10
582.28	1761.46
582.48	1973.63
582.68	2012.95
582.88	2066.81
583.08	1867.54
583.28	1835.59
583.48	1875.73
583.68	1805.28
583.88	1891.30
584.08	1901.13
584.28	1845.02
584.48	2141.97
584.68	1922.63
584.88	1837.03
585.08	2019.91
585.28	2010.90
585.48	2039.37
585.68	1930.01
585.87	1962.57
586.07	1959.29
586.27	1898.88
586.47	1944.75
586.67	1887.41
586.87	1873.89
587.07	1838.05
587.27	1764.73
587.47	1870.21
587.67	2123.13
587.87	2207.10
588.07	1937.58
588.27	1870.61
588.46	2036.50
588.66	2070.09
588.86	1889.25
589.06	1958.27
589.26	2005.99
589.46	2008.44
589.66	1788.70
589.86	1797.50
590.06	1876.76
590.26	1945.98
590.46	1809.38
590.66	1939.43
590.85	1848.29
591.05	1933.49
591.25	1780.09
591.45	1836.21
591.65	1951.92
591.85	1934.10
592.05	1857.10
592.25	1966.66
592.45	2035.68
592.64	1889.46
592.84	1907.68
593.04	1786.03
593.24	2222.05
593.44	1849.52
593.64	1920.79
593.84	1945.78
594.04	1877.17
594.24	2104.70
594.43	1796.07
594.63	1901.54
594.83	2008.44
595.03	1985.10
595.23	1783.78
595.43	1739.14
595.63	1797.71
595.83	2020.73
596.02	1661.31
596.22	1843.99
596.42	1948.85
596.62	1863.24
596.82	1805.08
597.02	1948.64
597.22	2073.16
597.41	1901.54
597.61	1816.14
597.81	1933.69
598.01	1972.40
598.21	1851.36
598.41	1812.45
598.61	1773.54
598.80	1882.90
599.00	1933.28
599.20	2003.32
599.40	1834.37
599.60	1874.10
599.80	1995.75
599.99	2007.21
600.19	1873.89
600.39	1899.08
600.59	1950.08
600.79	1898.06
600.99	1904.20
601.19	2099.78
601.38	2133.16
601.58	1902.77
601.78	1678.11
601.98	1949.05
602.18	2042.85
602.37	2201.77
602.57	2033.84
602.77	2139.10
602.97	2089.54
603.17	2198.08
603.37	2071.32
603.56	2157.54
603.76	2096.51
603.96	2036.91
604.16	2063.12
604.36	2150.16
604.56	2080.74
604.75	1851.77
604.95	1913.62
605.15	2089.75
605.35	2045.72
605.55	1878.81
605.74	1811.63
605.94	2039.57
606.14	1930.21
606.34	1915.87
606.54	1887.00
606.73	1848.29
606.93	1952.74
607.13	1807.74
607.33	1887.00
607.53	2082.37
607.72	2022.57
607.92	1954.58
608.12	1997.38
608.32	1891.30
608.51	1971.58
608.71	1814.91
608.91	1931.85
609.11	1971.78
609.31	1885.77
609.50	1925.30
609.70	2068.86
609.90	2029.13
610.10	2037.93
610.29	1864.06
610.49	1813.27
610.69	1978.34
610.89	1942.50
611.09	1910.55
611.28	2022.98
611.48	2018.07
611.68	1887.00
611.88	1811.22
612.07	1780.30
612.27	1974.45
612.47	1825.76
612.67	1943.52
612.86	2010.70
613.06	1881.88
613.26	1708.83
613.46	1839.69
613.65	1912.19
613.85	2255.02
614.05	2012.54
614.25	1959.50
614.44	1860.17
614.64	1913.21
614.84	1841.74
615.04	1816.75
615.23	1842.35
615.43	1972.60
615.63	1990.01
615.83	1790.13
616.02	1726.03
616.22	1978.13
616.42	1767.19
616.62	1797.71
616.81	1849.32
617.01	1957.24
617.21	1898.88
617.41	1796.68
617.60	1868.36
617.80	1974.86
618.00	1953.56
618.19	1911.37
618.39	1951.92
618.59	1969.94
618.79	1906.45
618.98	1699.81
619.18	1877.99
619.38	2176.79
619.57	1896.83
619.77	1857.30
619.97	1842.97
620.17	1809.99
620.36	1774.97
620.56	1973.22
620.76	1759.41
620.95	1754.09
621.15	1847.06
621.35	1751.83
621.54	1861.40
621.74	1909.32
621.94	1797.91
622.14	1760.43
622.33	1745.07
622.53	1877.99
622.73	1842.15
622.92	1705.96
623.12	1868.98
623.32	2110.02
623.51	1978.34
623.71	1727.87
623.91	1999.64
624.10	1791.56
624.30	1900.72
624.50	1777.84
624.69	1732.58
624.89	2370.52
625.09	1805.08
625.29	1652.71
625.48	1733.61
625.68	1917.10
625.88	2025.24
626.07	1909.73
626.27	1787.06
626.47	1820.85
626.66	1708.83
626.86	1843.38
627.06	1843.99
627.25	1904.41
627.45	2080.12
627.64	1842.15
627.84	2047.15
628.04	1805.08
628.23	2172.08
628.43	1791.56
628.63	1790.95
628.82	1842.97
629.02	2099.37
629.22	1952.94
629.41	2022.57
629.61	1879.63
629.81	2140.95
630.00	1797.30
630.20	1760.23
630.40	1918.13
630.59	1954.79
630.79	1864.06
630.98	1876.55
631.18	1881.47
631.38	1880.24
631.57	2006.80
631.77	1740.36
631.97	1890.68
632.16	1916.08
632.36	1882.29
632.56	1914.65
632.75	1930.82
632.95	2030.77
633.14	1766.17
633.34	2008.24
633.54	1662.75
633.73	1830.27
633.93	1833.34
634.12	1714.35
634.32	2228.80
634.52	1872.05
634.71	1748.97
634.91	1917.31
635.11	1756.75
635.30	1790.33
635.50	1876.96
635.69	1801.39
635.89	2126.61
636.09	2006.39
636.28	1760.64
636.48	1786.65
636.67	1957.45
636.87	1958.06
637.07	1925.71
637.26	1813.48
637.46	1919.15
637.65	2002.50
637.85	1891.91
638.04	1787.26
638.24	1800.78
638.44	1933.08
638.63	1856.28
638.83	1822.69
639.02	1928.16
639.22	1967.48
639.42	1868.57
639.61	1855.66
639.81	1908.30
640.00	1885.36
640.20	1953.15
640.39	1916.08
640.59	2126.00
640.79	2024.62
640.98	1926.11
641.18	1887.82
641.37	1862.42
641.57	1853.00
641.76	1893.14
641.96	1685.89
642.15	1916.69
642.35	1831.70
642.55	1872.87
642.74	1746.92
642.94	1991.85
643.13	2036.70
643.33	1833.34
643.52	1797.30
643.72	1825.15
643.91	1869.18
644.11	1804.87
644.31	1760.02
644.50	1807.13
644.70	2021.75
644.89	1858.94
645.09	1927.55
645.28	1912.80
645.48	1918.74
645.67	1788.49
645.87	1684.86
646.06	1861.19
646.26	1917.10
646.45	1670.12
646.65	1659.88
646.84	2114.53
647.04	1837.85
647.24	1749.78
647.43	1874.92
647.63	1904.82
647.82	2068.24
648.02	1738.73
648.21	1794.84
648.41	2026.47
648.60	1816.96
648.80	1992.06
648.99	1874.92
649.19	1794.43
649.38	1682.61
649.58	1875.53
649.77	1896.42
649.97	2013.97
650.16	1951.10
650.36	1666.02
650.55	1948.85
650.75	1916.49
650.94	2074.18
651.14	1873.28
651.33	1888.23
651.53	2100.60
651.72	1792.79
651.92	1843.79
652.11	1695.51
652.31	1949.26
652.50	1919.36
652.70	1881.47
652.89	1753.68
653.09	2074.80
653.28	1847.68
653.48	1676.67
653.67	1684.86
653.87	2279.80
654.06	1891.91
654.25	2031.79
654.45	1783.37
654.64	1831.09
654.84	1843.17
655.03	1660.70
655.23	1973.63
655.42	1948.85
655.62	2105.31
655.81	1874.10
656.01	1756.34
656.20	1991.65
656.40	2058.41
656.59	1867.75
656.79	2010.70
656.98	1902.15
657.17	1992.47
657.37	1878.40
657.56	1777.02
657.76	1927.75
657.95	2014.18
658.15	1537.82
658.34	1860.17
658.54	1897.65
658.73	1728.69
658.92	1793.20
659.12	1880.85
659.31	1977.93
659.51	1771.08
659.70	1900.11
659.90	1844.40
660.09	2003.73
660.29	1874.30
660.48	1763.51
660.67	1991.65
660.87	1822.90
661.06	1944.55
661.26	1945.78
661.45	1917.51
661.65	1907.27
661.84	1824.13
662.03	1830.68
662.23	1840.51
662.42	2131.12
662.62	1750.81
662.81	1763.51
663.00	1820.23
663.20	1899.29
663.39	1910.55
663.59	1918.54
663.78	1839.49
663.97	1823.92
664.17	1986.12
664.36	1715.79
664.56	1764.53
664.75	1976.29
664.94	1951.30
665.14	1843.38
665.33	1836.21
665.53	1873.89
665.72	1850.95
665.91	1967.28
666.11	1847.27
666.30	1892.73
666.50	1837.85
666.69	1895.60
666.88	1839.69
667.08	1894.99
667.27	1846.45
667.47	1853.82
667.66	1840.92
667.85	1969.74
668.05	1868.36
668.24	1778.46
668.43	1976.09
668.63	1823.10
668.82	2010.90
669.02	1908.50
669.21	1848.70
669.40	1736.27
669.60	2097.94
669.79	1723.16
669.98	2295.16
670.18	1742.82
670.37	1747.33
670.56	1818.60
670.76	1886.79
670.95	1856.28
671.15	1991.04
671.34	1914.03
671.53	1890.28
671.73	1823.31
671.92	1783.17
672.11	1736.06
672.31	1818.80
672.50	1921.61
672.69	1729.30
672.89	1620.97
673.08	1819.83
673.27	1952.33
673.47	1882.29
673.66	1910.75
673.85	1768.22
674.05	1902.15
674.24	1917.72
674.43	1776.61
674.63	2026.06
674.82	2229.42
675.01	1732.79
675.21	2021.35
675.40	1910.75
675.59	1873.69
675.79	2109.61
675.98	1866.31
676.17	2013.56
676.37	1953.35
676.56	1870.41
676.75	1906.66
676.95	1876.14
677.14	1856.89
677.33	2029.54
677.52	1748.97
677.72	1796.89
677.91	1906.45
678.10	1744.66
678.30	1780.91
678.49	1728.28
678.68	2172.89
678.88	1667.66
679.07	1993.29
679.26	1803.85
679.45	2097.32
679.65	2029.95
679.84	1670.53
680.03	1682.61
680.23	1834.78
680.42	2217.75
680.61	1731.56
680.81	1835.80
681.00	1880.44
681.19	1959.50
681.38	1975.27
681.58	1941.47
681.77	1804.26
681.96	1964.00
682.15	1820.44
682.35	1905.23
682.54	1928.98
682.73	1744.66
682.93	1790.13
683.12	1768.22
683.31	1966.87
683.50	2220.82
683.70	1772.72
683.89	1859.15
684.08	1761.05
684.27	1991.65
684.47	1699.61
684.66	1859.97
684.85	2115.14
685.04	2030.97
685.24	1764.12
685.43	1864.27
685.62	1650.87
685.81	1907.27
686.01	1880.24
686.20	1815.73
686.39	1773.75
686.58	2177.40
686.78	1920.79
686.97	1965.44
687.16	2033.84
687.35	1937.38
687.55	1827.81
687.74	1869.80
687.93	1742.82
688.12	1889.25
688.32	1869.59
688.51	1712.92
688.70	1930.01
688.89	1757.36
689.08	1724.39
689.28	1792.18
689.47	1893.76
689.66	1883.31
689.85	1934.31
690.05	1798.12
690.24	1799.96
690.43	1909.53
690.62	1873.89
690.81	1785.42
691.01	1884.54
691.20	1849.32
691.39	1775.18
691.58	1906.86
691.77	2108.59
691.97	1872.46
692.16	1897.85
692.35	1843.99
692.54	1804.47
692.73	1937.79
692.93	1895.60
693.12	1913.83
693.31	1937.99
693.50	1931.03
693.69	1946.59
693.89	1830.88
694.08	2078.28
694.27	2046.54
694.46	1764.33
694.65	1865.70
694.85	1939.84
695.04	1938.40
695.23	1821.87
695.42	2063.53
695.61	2098.35
695.80	2215.70
696.00	2316.25
696.19	2335.09
696.38	2067.63
696.57	2144.22
696.76	2095.48
696.95	2017.04
697.15	2171.87
697.34	2162.25
697.53	1917.10
697.72	1962.77
697.91	1895.40
698.10	2096.71
698.30	1847.88
698.49	1879.83
698.68	1950.08
698.87	1822.69
699.06	1754.70
699.25	1859.15
699.45	1982.64
699.64	1889.25
699.83	1949.87
700.02	1769.45
700.21	1939.63
700.40	1815.52
700.59	1833.14
700.79	1839.28
700.98	1963.80
701.17	1798.12
701.36	1790.33
701.55	1783.99
701.74	2008.24
701.93	1741.39
702.12	1878.40
702.32	1826.58
702.51	2058.62
702.70	2008.85
702.89	1916.28
703.08	1874.30
703.27	2073.36
703.46	1928.37
703.65	1838.87
703.85	1761.87
704.04	1816.34
704.23	2028.31
704.42	1789.52
704.61	1805.49
704.80	2090.98
704.99	1782.76
705.18	1926.32
705.37	1818.19
705.57	1981.20
705.76	2141.97
705.95	1976.70
706.14	2286.97
706.33	2355.57
706.52	2525.96
706.71	2164.09
706.90	2011.92
707.09	2103.06
707.28	2045.10
707.47	1880.44
707.67	2037.11
707.86	1880.04
708.05	2089.13
708.24	1917.92
708.43	1897.24
708.62	1856.28
708.81	1805.49
709.00	1764.33
709.19	1780.09
709.38	1990.63
709.57	1774.16
709.76	1898.06
709.96	1839.90
710.15	2049.61
710.34	1863.86
710.53	1963.39
710.72	1866.31
710.91	2030.15
711.10	1940.86
711.29	1942.91
711.48	1810.40
711.67	1752.86
711.86	1952.12
712.05	1756.34
712.24	1771.90
712.43	1958.88
712.62	2050.22
712.81	1868.98
713.00	1995.34
713.19	1745.69
713.39	1939.02
713.58	1736.68
713.77	1858.12
713.96	1944.14
714.15	1851.57
714.34	1820.23
714.53	1757.57
714.72	2112.89
714.91	1764.94
715.10	1868.98
715.29	1747.33
715.48	2222.05
715.67	1956.83
715.86	1887.20
716.05	1833.14
716.24	1830.88
716.43	1809.38
716.62	1747.12
716.81	1701.86
717.00	1867.75
717.19	2092.61
717.38	1906.04
717.57	1854.03
717.76	1679.95
717.95	1996.97
718.14	1872.66
718.33	1825.97
718.52	1684.04
718.71	1697.56
718.90	1725.41
719.09	1821.05
719.28	1889.05
719.47	2006.39
719.66	1948.03
719.85	1930.01
720.04	1846.04
720.23	1883.52
720.42	1792.18
720.61	1929.19
720.80	1720.50
720.99	1912.80
721.18	1824.54
721.37	1759.82
721.56	1841.94
721.75	1968.92
721.94	1779.68
722.13	1834.98
722.32	1835.59
722.51	1970.15
722.70	1860.99
722.89	1898.06
723.08	1855.87
723.27	2011.72
723.46	1890.68
723.65	1829.66
723.84	1815.52
724.03	2065.99
724.22	1735.65
724.41	1893.96
724.60	1860.78
724.79	1964.00
724.98	1920.99
725.16	1845.83
725.35	1947.21
725.54	1766.99
725.73	1857.71
725.92	1848.70
726.11	1841.74
726.30	1983.87
726.49	1775.38
726.68	1884.95
726.87	1962.16
727.06	2088.52
727.25	1854.03
727.44	1953.56
727.63	1875.12
727.82	1884.34
728.01	1888.64
728.20	1947.21
728.38	2059.44
728.57	1875.53
728.76	1870.00
728.95	1963.59
729.14	1703.91
729.33	1741.39
729.52	1661.93
729.71	1762.69
729.90	1770.47
730.09	1797.91
730.28	1824.54
730.47	1798.32
730.66	2027.28
730.84	1902.56
731.03	1851.16
731.22	1910.35
731.41	1901.95
731.60	1931.64
731.79	1693.67
731.98	1775.38
732.17	1928.16
732.36	1945.16
732.55	1812.66
732.73	1749.78
732.92	2037.73
733.11	1932.26
733.30	1786.44
733.49	1706.16
733.68	1918.33
733.87	1899.49
734.06	1770.47
734.25	1780.30
734.43	1794.23
734.62	1954.79
734.81	1882.90
735.00	1865.70
735.19	1870.00
735.38	1942.29
735.57	1728.90
735.76	1924.89
735.94	1917.72
736.13	2185.80
736.32	2007.21
736.51	1964.82
736.70	2215.29
736.89	2240.89
737.08	2113.09
737.27	2221.64
737.45	2447.53
737.64	2381.79
737.83	2516.95
738.02	2479.89
738.21	2543.99
738.40	2503.85
738.59	2197.06
738.77	2233.31
738.96	2076.23
739.15	2114.94
739.34	2146.07
739.53	2036.70
739.72	2156.51
739.90	2106.34
740.09	1869.80
740.28	1942.91
740.47	2013.97
740.66	1969.53
740.85	1791.97
741.03	1874.51
741.22	1758.18
741.41	1834.78
741.60	1721.93
741.79	1890.89
741.98	2050.63
742.16	2100.19
742.35	1908.09
742.54	1827.81
742.73	2147.70
742.92	1833.96
743.10	1713.95
743.29	1819.62
743.48	2192.96
743.67	1821.26
743.86	1679.74
744.05	1737.29
744.23	1758.18
744.42	1761.25
744.61	1831.29
744.80	1714.97
744.99	1802.83
745.17	1665.41
745.36	1696.54
745.55	1898.67
745.74	1862.01
745.93	1755.93
746.11	1786.85
746.30	1770.67
746.49	1994.52
746.68	1755.93
746.86	1831.29
747.05	1814.91
747.24	1958.47
747.43	1951.51
747.62	1743.23
747.80	1813.27
747.99	2025.24
748.18	1957.24
748.37	1892.12
748.56	1900.52
748.74	1990.63
748.93	1899.90
749.12	2070.29
749.31	2473.54
749.49	2777.46
749.68	3085.06
749.87	3329.59
750.06	3273.88
750.24	3243.98
750.43	3193.60
750.62	3213.06
750.81	3253.61
750.99	3438.74
751.18	3430.14
751.37	3018.09
751.56	2912.01
751.74	3094.69
751.93	3084.24
752.12	2436.67
752.31	2331.82
752.49	2278.77
752.68	2438.11
752.87	2153.23
753.06	2057.39
753.24	1988.17
753.43	2141.77
753.62	1880.65
753.81	1872.25
753.99	2125.38
754.18	1949.05
754.37	1763.71
754.55	1893.96
754.74	2103.67
754.93	1681.18
755.12	1798.94
755.30	1777.64
755.49	1990.22
755.68	1875.53
755.86	1898.67
756.05	1752.86
756.24	2058.00
756.43	1744.46
756.61	1751.63
756.80	1893.96
756.99	2017.66
757.17	1868.77
757.36	1733.20
757.55	1847.47
757.74	1907.68
757.92	1886.38
758.11	1723.37
758.30	1645.54
758.48	1826.58
758.67	1724.59
758.86	1828.84
759.04	1700.02
759.23	1801.80
759.42	1849.73
759.60	1754.29
759.79	1837.44
759.98	1802.01
760.16	1777.84
760.35	1775.59
760.54	1716.81
760.73	1869.39
760.91	1689.57
761.10	1875.53
761.29	1920.79
761.47	1860.17
761.66	2126.20
761.85	1868.57
762.03	1931.44
762.22	2142.58
762.41	2668.91
762.59	3219.00
762.78	3484.41
762.97	4140.99
763.15	4177.86
763.34	3902.61
763.52	3302.96
763.71	3260.78
763.90	3217.56
764.08	2910.57
764.27	2903.41
764.46	2918.36
764.64	2566.51
764.83	2500.77
765.02	2447.32
765.20	2332.23
765.39	2292.50
765.58	1954.79
765.76	2022.16
765.95	1996.16
766.13	1923.86
766.32	1863.24
766.51	1896.62
766.69	2435.65
766.88	1895.40
767.07	1752.45
767.25	1682.82
767.44	1989.19
767.62	2044.49
767.81	1794.64
768.00	1839.90
768.18	1853.62
768.37	1758.80
768.56	1695.10
768.74	1771.29
768.93	1708.42
769.11	1942.70
769.30	1865.70
769.49	1783.78
769.67	1852.39
769.86	1806.92
770.04	1843.17
770.23	1812.25
770.42	2020.53
770.60	1866.11
770.79	1755.93
770.97	1802.42
771.16	2057.80
771.35	2073.77
771.53	2139.31
771.72	2232.29
771.90	2423.36
772.09	2627.95
772.27	2451.83
772.46	2193.78
772.65	2351.27
772.83	2266.90
773.02	2195.22
773.20	1998.82
773.39	2168.39
773.58	2140.13
773.76	1914.65
773.95	1936.35
774.13	2037.52
774.32	1926.52
774.50	1809.18
774.69	1902.15
774.87	1857.92
775.06	2168.59
775.25	1791.36
775.43	1840.51
775.62	1922.22
775.80	1940.45
775.99	1890.68
776.17	1758.39
776.36	1835.18
776.54	1954.17
776.73	1758.18
776.92	1812.86
777.10	1908.09
777.29	1871.84
777.47	1733.20
777.66	1762.48
777.84	1833.75
778.03	1821.46
778.21	1716.81
778.40	1841.74
778.58	1934.92
778.77	1985.30
778.95	1690.19
779.14	1778.66
779.32	2086.88
779.51	1972.60
779.70	1829.66
779.88	1705.75
780.07	1835.59
780.25	2236.79
780.44	1823.92
780.62	1969.12
780.81	1965.85
780.99	1900.92
781.18	1793.61
781.36	1817.78
781.55	1863.45
781.73	2071.93
781.92	1721.73
782.10	1732.79
782.29	1940.86
782.47	2076.03
782.66	1841.33
782.84	1710.26
783.03	1772.93
783.21	2009.06
783.40	1830.88
783.58	1797.71
783.77	1806.72
783.95	1851.77
784.14	1764.33
784.32	1838.87
784.51	1999.43
784.69	1790.54
784.88	1684.66
785.06	1833.55
785.24	1689.57
785.43	1979.57
785.61	1908.09
785.80	1740.16
785.98	1922.63
786.17	1866.11
786.35	1753.06
786.54	1890.28
786.72	1970.97
786.91	2006.60
787.09	1817.78
787.28	1729.10
787.46	1869.18
787.65	1969.74
787.83	1727.46
788.01	1863.45
788.20	1740.77
788.38	1861.40
788.57	1783.37
788.75	1809.99
788.94	2114.12
789.12	2043.26
789.31	1832.93
789.49	1935.54
789.67	1795.45
789.86	1908.91
790.04	1778.25
790.23	1661.52
790.41	2119.85
790.60	1840.30
790.78	1834.98
790.96	1811.22
791.15	1966.66
791.33	1854.85
791.52	1835.59
791.70	1732.58
791.89	1889.05
792.07	1956.63
792.25	1859.15
792.44	1710.87
792.62	2010.49
792.81	1781.32
792.99	1863.65
793.17	1763.51
793.36	1751.83
793.54	2094.25
793.73	2071.52
793.91	2011.72
794.10	2310.52
794.28	2466.57
794.46	2268.53
794.65	2309.49
794.83	2107.97
795.01	2161.02
795.20	2253.58
795.38	2079.51
795.57	2144.22
795.75	2093.84
795.93	1959.70
796.12	2002.09
796.30	2041.82
796.49	2031.99
796.67	1826.99
796.85	1995.95
797.04	1926.11
797.22	2008.44
797.40	1731.97
797.59	1879.63
797.77	1887.82
797.96	1772.52
798.14	1770.47
798.32	1777.02
798.51	1959.09
798.69	2080.74
798.87	1831.29
799.06	1804.87
799.24	1696.33
799.42	2032.40
799.61	1985.10
799.79	2035.68
799.98	2316.05
800.16	2123.74
800.34	2286.35
800.53	2488.49
800.71	2487.05
800.89	2887.84
801.08	2748.78
801.26	2753.90
801.44	2509.38
801.63	2296.80
801.81	2321.58
801.99	2280.82
802.18	2189.48
802.36	2218.97
802.54	2190.92
802.73	1983.66
802.91	2061.49
803.09	2063.33
803.28	2027.08
803.46	2022.98
803.64	2164.91
803.83	1816.14
804.01	1781.32
804.19	1768.83
804.38	1992.88
804.56	1940.45
804.74	1840.10
804.92	1880.44
805.11	1740.98
805.29	2026.67
805.47	1796.07
805.66	1704.93
805.84	1746.92
806.02	1968.30
806.21	1787.67
806.39	1951.71
806.57	1961.75
806.76	1957.65
806.94	1849.32
807.12	1771.70
807.30	1773.13
807.49	1876.14
807.67	1874.92
807.85	1936.76
808.04	1944.34
808.22	2119.65
808.40	1737.70
808.58	1761.46
808.77	1912.60
808.95	2053.29
809.13	1894.78
809.31	2245.80
809.50	2486.85
809.68	2661.34
809.86	2559.76
810.05	2676.08
810.23	3127.45
810.41	3412.53
810.59	4949.12
810.78	5732.26
810.96	6433.90
811.14	6992.58
811.32	6590.36
811.51	5710.15
811.69	4931.51
811.87	4963.87
812.05	4457.40
812.24	4255.06
812.42	4178.06
812.60	3947.87
812.78	3349.04
812.97	3104.11
813.15	3221.66
813.33	2897.06
813.51	2698.81
813.70	2327.72
813.88	2217.95
814.06	2182.32
814.24	2084.01
814.42	1872.87
814.61	2002.09
814.79	2155.69
814.97	1744.05
815.15	1845.02
815.34	1932.46
815.52	1984.48
815.70	1730.12
815.88	1836.41
816.06	1739.75
816.25	1791.97
816.43	1742.00
816.61	1944.75
816.79	2026.87
816.98	1677.29
817.16	1784.60
817.34	1754.70
817.52	1871.23
817.70	2045.10
817.89	1822.69
818.07	1735.24
818.25	1879.01
818.43	1888.02
818.61	1818.19
818.80	1768.83
818.98	2095.69
819.16	1900.51
819.34	1722.34
819.52	2034.45
819.70	1784.19
819.89	1862.63
820.07	1710.67
820.25	1680.77
820.43	1913.42
820.61	1983.46
820.80	1847.27
820.98	1726.85
821.16	1706.37
821.34	1717.43
821.52	1827.81
821.70	1904.20
821.89	1847.88
822.07	1838.46
822.25	1821.26
822.43	1767.40
822.61	2037.32
822.79	1884.34
822.98	1817.78
823.16	1662.95
823.34	1871.23
823.52	2033.63
823.70	1945.98
823.88	1669.09
824.06	1961.95
824.25	1841.94
824.43	1960.11
824.61	1747.33
824.79	1859.35
824.97	1899.29
825.15	1966.05
825.33	2067.63
825.52	2141.15
825.70	2049.20
825.88	2079.92
826.06	2175.15
826.24	2189.48
826.42	2203.20
826.60	2083.40
826.78	2083.60
826.97	1985.71
827.15	2115.55
827.33	1871.84
827.51	1999.43
827.69	1867.34
827.87	1984.28
828.05	1973.01
828.23	1815.52
828.41	2029.54
828.60	1981.00
828.78	1736.88
828.96	1875.32
829.14	1800.98
829.32	1854.23
829.50	1808.15
829.68	1803.44
829.86	1828.22
830.04	1952.12
830.22	1873.07
830.41	1732.99
830.59	1845.83
830.77	1970.56
830.95	1769.85
831.13	1766.58
831.31	1781.53
831.49	1993.29
831.67	1972.81
831.85	1941.88
832.03	1810.81
832.21	1952.33
832.39	1691.62
832.57	1752.65
832.76	1976.70
832.94	1828.43
833.12	1655.17
833.30	1833.34
833.48	1991.65
833.66	1912.39
833.84	1771.49
834.02	1819.01
834.20	1996.97
834.38	1964.21
834.56	1685.89
834.74	1743.85
834.92	1743.03
835.10	2081.35
835.28	1887.82
835.46	1848.91
835.64	1862.83
835.82	1800.57
836.01	2047.76
836.19	1940.25
836.37	1814.71
836.55	1748.97
836.73	1759.00
836.91	1712.31
837.09	1939.02
837.27	2045.31
837.45	1698.38
837.63	1737.50
837.81	1716.81
837.99	1868.16
838.17	1804.67
838.35	1731.76
838.53	2159.38
838.71	1962.36
838.89	1817.16
839.07	1740.98
839.25	1875.94
839.43	1983.46
839.61	1819.42
839.79	2145.66
839.97	2258.30
840.15	2402.68
840.33	2357.42
840.51	2633.89
840.69	2406.36
840.87	2336.53
841.05	2321.99
841.23	2209.55
841.41	2443.43
841.59	2879.85
841.77	2962.80
841.95	3026.90
842.13	3399.83
842.31	3122.13
842.49	2798.34
842.67	2764.55
842.85	2760.05
843.03	2444.25
843.21	2409.23
843.39	2520.84
843.57	2408.62
843.75	2353.32
843.93	2205.66
844.11	2132.14
844.29	2106.34
844.47	2034.86
844.65	2164.50
844.83	1949.05
845.01	1944.14
845.19	2045.92
845.36	1894.58
845.54	1971.99
845.72	1910.35
845.90	1985.71
846.08	1737.09
846.26	1836.62
846.44	1945.16
846.62	1949.26
846.80	1879.42
846.98	1794.23
847.16	1848.70
847.34	1925.50
847.52	1721.32
847.70	1747.33
847.88	1867.95
848.06	2025.85
848.24	1901.54
848.41	1692.85
848.59	1985.71
848.77	1940.66
848.95	1801.19
849.13	1790.74
849.31	1956.22
849.49	1909.73
849.67	1730.94
849.85	1728.69
850.03	1916.28
850.21	1906.25
850.39	1793.41
850.57	1916.49
850.74	2032.61
850.92	2058.82
851.10	1954.38
851.28	1947.82
851.46	2098.76
851.64	2382.20
851.82	2090.36
852.00	2144.43
852.18	2282.46
852.36	2139.31
852.53	1963.59
852.71	2046.74
852.89	2042.64
853.07	2062.10
853.25	1864.68
853.43	1785.21
853.61	1941.68
853.79	1949.26
853.97	1828.43
854.14	1792.59
854.32	2061.28
854.50	1979.36
854.68	1813.89
854.86	1839.49
855.04	1795.45
855.22	1952.53
855.40	1725.00
855.57	1767.19
855.75	1939.84
855.93	1934.72
856.11	1673.40
856.29	1759.00
856.47	1789.52
856.65	1918.95
856.82	1765.35
857.00	1694.28
857.18	1833.75
857.36	1812.45
857.54	1850.13
857.72	1928.16
857.89	1958.68
858.07	1884.13
858.25	1984.48
858.43	1711.90
858.61	1829.86
858.79	1891.50
858.97	1766.58
859.14	1894.37
859.32	1860.58
859.50	1820.85
859.68	1860.99
859.86	1758.80
860.03	1876.96
860.21	1910.35
860.39	1770.26
860.57	1885.16
860.75	1914.44
860.93	2111.25
861.10	1970.76
861.28	1788.49
861.46	1920.38
861.64	1930.01
861.82	1762.48
861.99	1903.38
862.17	1990.01
862.35	1994.72
862.53	1845.02
862.71	1837.03
862.88	1900.31
863.06	1965.23
863.24	1777.64
863.42	1766.58
863.60	1842.35
863.77	1932.67
863.95	1660.49
864.13	1858.33
864.31	1822.08
864.49	1969.53
864.66	1694.90
864.84	1805.90
865.02	1882.90
865.20	2203.82
865.37	1885.97
865.55	1804.47
865.73	1744.46
865.91	1972.60
866.09	1907.27
866.26	1889.87
866.44	1969.12
866.62	1860.78
866.80	1727.26
866.97	1863.24
867.15	1841.12
867.33	1909.32
867.51	1921.20
867.68	1851.77
867.86	1813.48
868.04	1807.74
868.22	1672.99
868.39	1769.24
868.57	1911.78
868.75	2056.16
868.93	1709.64
869.10	1772.93
869.28	2088.72
869.46	2020.73
869.64	1843.38
869.81	1824.33
869.99	1885.56
870.17	1888.64
870.35	1753.88
870.52	1772.11
870.70	2008.44
870.88	1791.77
871.05	1731.15
871.23	1627.32
871.41	1824.74
871.59	1862.22
871.76	1819.21
871.94	1768.83
872.12	1873.89
872.29	1736.06
872.47	1780.91
872.65	1745.69
872.83	1891.09
873.00	2025.03
873.18	1809.38
873.36	1764.73
873.53	1968.30
873.71	1700.84
873.89	1760.84
874.06	1850.54
874.24	1917.10
874.42	2012.33
874.60	1973.63
874.77	1859.76
874.95	1809.59
875.13	1992.06
875.30	1759.61
875.48	1819.83
875.66	2032.40
875.83	1795.25
876.01	1796.89
876.19	1913.62
876.36	1760.84
876.54	1908.30
876.72	1733.20
876.89	1872.66
877.07	1967.89
877.25	1662.54
877.42	1859.76
877.60	1827.61
877.78	2094.66
877.95	1795.04
878.13	1764.94
878.31	1897.03
878.48	1981.82
878.66	1937.17
878.84	1780.50
879.01	1841.74
879.19	1938.40
879.37	1946.18
879.54	1790.13
879.72	1711.69
879.90	1692.24
880.07	1956.42
880.25	1580.42
880.42	1929.80
880.60	1900.11
880.78	1966.66
880.95	1799.35
881.13	1820.03
881.31	1872.46
881.48	1811.84
881.66	1764.53
881.83	1873.28
882.01	1778.25
882.19	1725.41
882.36	1879.42
882.54	1804.26
882.72	1931.44
882.89	1901.33
883.07	1746.30
883.24	1805.69
883.42	1989.19
883.60	1900.31
883.77	1717.22
883.95	1785.42
884.12	1958.47
884.30	1891.30
884.48	1935.13
884.65	1839.28
884.83	1913.21
885.00	1888.84
885.18	1742.41
885.36	1781.94
885.53	1922.63
885.71	2031.59
885.88	1727.46
886.06	1793.61
886.23	1922.84
886.41	1820.44
886.59	1784.19
886.76	1758.80
886.94	1948.23
887.11	2250.10
887.29	1821.87
887.47	1726.03
887.64	1998.20
887.82	2029.74
887.99	1675.03
888.17	1854.64
888.34	1828.43
888.52	1733.20
888.69	1868.98
888.87	1740.77
889.05	1819.21
889.22	1832.52
889.40	1796.48
889.57	1960.52
889.75	2075.21
889.92	1838.26
890.10	1734.42
890.27	1810.61
890.45	1799.96
890.62	1665.41
890.80	1743.85
890.98	1700.02
891.15	2057.18
891.33	1967.89
891.50	1765.14
891.68	1713.33
891.85	1969.12
892.03	1938.40
892.20	1782.55
892.38	1749.17
892.55	1999.64
892.73	1951.30
892.90	1740.16
893.08	1792.59
893.25	1775.59
893.43	1804.47
893.60	1919.77
893.78	1668.07
893.95	1908.09
894.13	1848.29
894.30	1755.11
894.48	1826.79
894.65	1991.24
894.83	1905.23
895.00	1654.35
895.18	1671.55
895.35	1984.89
895.53	1949.67
895.70	1709.03
895.88	1927.14
896.05	1917.51
896.23	1704.11
896.40	1764.33
896.58	1845.83
896.75	1936.35
896.93	2048.58
897.10	1790.33
897.28	1691.42
897.45	1888.84
897.63	1970.56
897.80	1927.96
897.98	1809.38
898.15	1911.57
898.33	1793.61
898.50	1847.47
898.67	1826.79
898.85	1852.59
899.02	1923.86
899.20	1959.50
899.37	1821.26
899.55	1882.29
899.72	2038.14
899.90	1751.63
900.07	1768.42
900.25	1917.51
900.42	2007.21
900.59	1783.99
900.77	1900.92
900.94	1924.07
901.12	1904.20
901.29	1758.18
901.47	1929.39
901.64	1920.79
901.82	1889.66
901.99	1615.03
902.16	1728.49
902.34	2003.12
902.51	1912.80
902.69	1816.34
902.86	1843.58
903.03	2323.63
903.21	1845.22
903.38	1825.56
903.56	1766.37
903.73	2002.50
903.91	1811.84
904.08	1711.28
904.25	1652.92
904.43	1760.84
904.60	1952.33
904.78	1798.73
904.95	1712.92
905.12	1828.84
905.30	2056.16
905.47	1886.38
905.65	1929.80
905.82	1827.61
905.99	1939.43
906.17	1825.56
906.34	1740.57
906.52	1765.96
906.69	1916.49
906.86	1905.84
907.04	1839.28
907.21	1950.28
907.38	1971.58
907.56	1755.31
907.73	1771.90
907.91	2048.58
908.08	1987.76
908.25	1743.64
908.43	1752.45
908.60	1935.74
908.77	1897.24
908.95	1785.42
909.12	1719.06
909.30	1932.67
909.47	1697.56
909.64	1818.60
909.82	1933.28
909.99	1846.86
910.16	1867.54
910.34	1750.81
910.51	1791.15
910.68	1881.06
910.86	1873.89
911.03	1700.22
911.20	1806.31
911.38	2062.51
911.55	2444.87
911.72	2494.43
911.90	2413.53
912.07	2677.31
912.24	2793.43
912.42	2337.35
912.59	2128.04
912.76	2258.30
912.94	2113.09
913.11	1986.94
913.28	1905.63
913.46	1834.16
913.63	1999.23
913.80	2119.24
913.98	1854.64
914.15	2046.13
914.32	2056.98
914.49	1917.72
914.67	1787.06
914.84	1917.51
915.01	1964.00
915.19	1881.26
915.36	1805.28
915.53	2005.37
915.71	1937.58
915.88	1895.19
916.05	1774.36
916.22	1989.81
916.40	1893.76
916.57	1748.15
916.74	1875.53
916.92	2032.20
917.09	1757.77
917.26	1735.24
917.43	1704.52
917.61	1816.96
917.78	1702.89
917.95	1633.26
918.13	1722.14
918.30	2154.26
918.47	1870.00
918.64	1760.64
918.82	1739.95
918.99	1851.98
919.16	2056.16
919.33	1792.18
919.51	1760.23
919.68	1842.56
919.85	1993.29
920.02	1700.02
920.20	1807.95
920.37	2076.23
920.54	1965.23
920.71	1749.99
920.89	1786.65
921.06	2088.72
921.23	1745.48
921.40	1725.62
921.58	1884.95
921.75	2301.30
921.92	1847.06
922.09	1899.49
922.27	1934.10
922.44	1943.93
922.61	1991.44
922.78	1850.13
922.96	1797.71
923.13	1849.73
923.30	2003.94
923.47	1677.08
923.64	1777.84
923.82	1920.38
923.99	1889.66
924.16	1859.35
924.33	1728.08
924.50	1866.72
924.68	2065.38
924.85	1720.50
925.02	1783.17
925.19	1968.71
925.36	1891.71
925.54	1850.34
925.71	1813.07
925.88	2237.00
926.05	1824.74
926.22	1737.09
926.40	1837.23
926.57	1904.41
926.74	1933.08
926.91	1788.29
927.08	1961.13
927.26	2003.73
927.43	1887.41
927.60	1736.06
927.77	1823.72
927.94	2061.28
928.11	2017.04
928.29	1684.86
928.46	1828.63
928.63	1763.30
928.80	1818.19
928.97	1889.87
929.14	1730.94
929.32	2115.76
929.49	1872.66
929.66	1749.99
929.83	1712.72
930.00	1795.86
930.17	1913.62
930.35	1679.95
930.52	1754.70
930.69	2062.92
930.86	1761.46
931.03	1852.39
931.20	1641.45
931.37	2000.66
931.55	1874.10
931.72	1855.66
931.89	1694.08
932.06	1755.93
932.23	2061.69
932.40	1903.79
932.57	1892.53
932.74	2015.20
932.92	2013.77
933.09	1915.06
933.26	1565.47
933.43	1806.72
933.60	1903.18
933.77	1803.24
933.94	1881.67
934.11	1856.07
934.29	1889.46
934.46	1709.23
934.63	1859.35
934.80	1714.35
934.97	1857.71
935.14	1786.44
935.31	1673.40
935.48	1742.41
935.65	1909.53
935.82	1875.94
936.00	1712.92
936.17	2033.84
936.34	1825.35
936.51	1895.60
936.68	1699.81
936.85	1916.69
937.02	1901.54
937.19	1868.16
937.36	1769.04
937.53	1915.87
937.70	1973.42
937.87	1812.25
938.05	1899.08
938.22	1876.55
938.39	1736.06
938.56	1769.65
938.73	1728.08
938.90	1849.93
939.07	1780.50
939.24	1804.87
939.41	1646.16
939.58	1897.03
939.75	1916.08
939.92	1768.01
940.09	1935.74
940.26	1829.86
940.43	1953.15
940.60	1754.29
940.77	1789.31
940.95	1918.74
941.12	1937.58
941.29	1756.95
941.46	1816.34
941.63	2008.24
941.80	2042.44
941.97	1725.21
942.14	1683.43
942.31	1981.00
942.48	1848.29
942.65	1885.77
942.82	1834.16
942.99	1952.74
943.16	1893.96
943.33	1734.63
943.50	1757.16
943.67	1966.87
943.84	2017.25
944.01	1793.41
944.18	1739.75
944.35	2041.62
944.52	1776.41
944.69	1842.15
944.86	1692.24
945.03	1971.58
945.20	2171.05
945.37	1648.82
945.54	1807.13
945.71	2036.30
945.88	2086.47
946.05	1730.53
946.22	1720.50
946.39	2032.61
946.56	1845.42
946.73	1695.92
946.90	1723.57
947.07	1785.01
947.24	1840.71
947.41	1649.23
947.58	1903.79
947.75	1956.42
947.92	1887.20
948.09	1557.89
948.26	1650.25
948.43	1913.42
948.60	2099.17
948.77	1733.40
948.94	1769.65
949.11	1953.97
949.27	1934.31
949.44	1738.93
949.61	1771.90
949.78	1893.35
949.95	2021.96
950.12	1730.33
950.29	1698.38
950.46	1833.55
950.63	1998.82
950.80	1744.46
950.97	1823.51
951.14	1983.05
951.31	1814.09
951.48	1756.54
951.65	1712.92
951.82	2101.22
951.99	1911.78
952.15	1682.82
952.32	1782.14
952.49	1793.82
952.66	1815.93
952.83	1746.92
953.00	1709.03
953.17	1877.78
953.34	1971.99
953.51	1817.57
953.68	1789.11
953.85	2002.30
954.02	1997.79
954.18	1806.92
954.35	1803.65
954.52	1752.45
954.69	1907.89
954.86	1635.71
955.03	1807.95
955.20	1950.90
955.37	1855.25
955.54	1765.55
955.71	1754.29
955.87	1913.21
956.04	2096.30
956.21	1783.37
956.38	1736.27
956.55	1880.44
956.72	2193.37
956.89	1802.62
957.06	1737.70
957.23	1772.52
957.39	2044.69
957.56	1760.23
957.73	1710.87
957.90	1605.20
958.07	2093.02
958.24	1822.28
958.41	1771.90
958.57	1961.75
958.74	1883.72
958.91	1722.55
959.08	1757.77
959.25	1959.91
959.42	1857.51
959.59	1825.56
959.75	1784.80
959.92	2003.94
960.09	1998.82
960.26	1753.88
960.43	1838.87
960.60	1896.01
960.76	1855.46
960.93	1673.19
961.10	1841.94
961.27	1992.47
961.44	1844.40
961.61	1691.62
961.77	1725.21
961.94	1882.90
962.11	1995.54
962.28	1768.22
962.45	1693.26
962.62	1834.98
962.78	2001.28
962.95	1712.92
963.12	1793.00
963.29	1939.22
963.46	2237.61
963.62	1833.34
963.79	1750.19
963.96	2170.44
964.13	1841.33
964.30	1857.51
964.46	1785.62
964.63	1756.75
964.80	2212.83
964.97	1603.97
965.14	1848.91
965.30	1909.53
965.47	2003.12
965.64	1912.19
965.81	1866.72
965.98	2075.62
966.14	1899.29
966.31	1787.67
966.48	1749.99
966.65	2025.44
966.81	1915.67
966.98	1782.35
967.15	1802.83
967.32	1854.64
967.49	1791.36
967.65	1632.23
967.82	1610.32
967.99	1844.20
968.16	1686.71
968.32	1926.93
968.49	1764.73
968.66	1878.60
968.83	2058.41
968.99	1809.59
969.16	1697.97
969.33	2026.67
969.50	1918.54
969.66	1882.29
969.83	1981.20
970.00	1968.10
970.17	1931.44
970.33	1768.42
970.50	1719.47
970.67	2064.15
970.84	2046.94
971.00	1711.90
971.17	1721.93
971.34	1962.57
971.50	1893.14
971.67	1896.01
971.84	1812.66
972.01	1746.30
972.17	1653.12
972.34	1753.88
972.51	1886.38
972.67	2001.07
972.84	1923.86
973.01	1730.74
973.18	1761.66
973.34	1997.79
973.51	1774.56
973.68	1772.93
973.84	1832.93
974.01	1844.61
974.18	2088.52
974.34	1839.69
974.51	1867.13
974.68	1778.05
974.85	2140.95
975.01	1912.60
975.18	1796.89
975.35	1849.93
975.51	1774.36
975.68	1667.46
975.85	1912.80
976.01	1785.42
976.18	2069.68
976.35	1783.37
976.51	1772.31
976.68	2084.83
976.85	2051.66
977.01	1815.52
977.18	1884.54
977.35	1953.56
977.51	1744.87
977.68	1638.58
977.85	1678.92
978.01	1966.46
978.18	1957.65
978.35	1783.58
978.51	1818.60
978.68	1988.58
978.85	2063.12
979.01	1770.26
979.18	1803.85
979.34	1863.04
979.51	1877.58
979.68	1724.39
979.84	1804.06
980.01	2193.17
980.18	1868.16
980.34	1737.50
980.51	1882.49
980.67	1966.87
980.84	1974.24
981.01	1816.75
981.17	1850.34
981.34	1670.32
981.51	1937.58
981.67	1718.66
981.84	1892.73
982.00	1936.97
982.17	1848.50
982.34	1683.84
982.50	1563.83
982.67	2087.49
982.83	1821.67
983.00	1697.97
983.17	1615.03
983.33	2028.51
983.50	1706.16
983.66	1704.32
983.83	1614.41
984.00	1833.55
984.16	1865.90
984.33	1602.13
984.49	1596.39
984.66	1754.90
984.83	1964.62
984.99	1652.92
985.16	1582.88
985.32	1932.87
985.49	1954.99
985.65	1732.17
985.82	1610.52
985.99	2049.61
986.15	1886.59
986.32	1682.00
986.48	1660.90
986.65	1820.44
986.81	1975.68
986.98	1635.30
987.14	1690.39
987.31	1893.14
987.48	1706.78
987.64	1549.49
987.81	1569.56
987.97	2143.81
988.14	1767.19
988.30	1636.33
988.47	1516.11
988.63	1901.33
988.80	1758.80
988.96	1678.11
989.13	1696.13
989.30	1817.78
989.46	1953.56
989.63	1598.03
989.79	1584.92
989.96	1854.44
990.12	2071.11
990.29	1633.05
990.45	1677.29
990.62	1875.12
990.78	2014.38
990.95	1737.70
991.11	1638.58
991.28	1828.02
991.44	1908.50
991.61	1542.33
991.77	1678.31
991.94	1881.26
992.10	2017.25
992.27	1702.89
992.43	1672.17
992.60	1916.08
992.76	1841.74
992.93	1798.53
993.09	1607.66
993.26	1970.97
993.42	2059.85
993.59	1656.81
993.75	1574.27
993.92	1770.88
994.08	1787.88
994.25	1718.04
994.41	1595.57
994.58	1962.98
994.74	2057.80
994.91	1617.28
995.07	1732.99
995.24	1841.74
995.40	1871.84
995.56	1796.68
995.73	1738.11
995.89	2056.78
996.06	1840.30
996.22	1634.28
996.39	1579.60
996.55	1853.21
996.72	1878.19
996.88	1552.97
997.05	1633.26
997.21	2096.92
997.37	1926.11
997.54	1705.34
997.70	1667.46
997.87	1906.66
998.03	1856.69
998.20	1582.47
998.36	1578.78
998.52	1948.85
998.69	1979.36
998.85	1560.35
999.02	1668.07
999.18	1971.99
999.35	1974.65
999.51	1673.80
999.67	1670.53
999.84	1708.42
1000.00	1960.73
1000.17	1722.14
1000.33	1610.32
1000.49	1801.80
1000.66	1836.62
1000.82	1625.68
1000.99	1697.36
1001.15	2014.18
1001.31	1815.52
1001.48	1686.91
1001.64	1762.89
1001.81	1847.68
1001.97	2123.95
1002.13	1646.77
1002.30	1662.95
1002.46	2021.75
1002.63	1834.16
1002.79	1709.44
1002.95	1643.90
1003.12	1987.96
1003.28	1927.14
1003.45	1627.73
1003.61	1621.17
1003.77	1887.61
1003.94	1727.26
1004.10	1650.66
1004.26	1709.03
1004.43	1923.45
1004.59	2094.05
1004.75	1626.29
1004.92	1611.14
1005.08	1824.94
1005.25	1896.01
1005.41	1610.73
1005.57	1710.87
1005.74	1999.43
1005.90	1801.80
1006.06	1757.77
1006.23	1627.93
1006.39	1948.03
1006.55	2192.76
1006.72	1803.85
1006.88	1591.68
1007.04	1743.64
1007.21	1830.06
1007.37	1673.19
1007.53	1654.96
1007.70	2027.69
1007.86	1984.07
1008.02	1686.91
1008.19	1614.21
1008.35	1912.60
1008.51	1766.37
1008.68	1657.42
1008.84	1600.08
1009.00	1753.06
1009.17	1998.20
1009.33	1774.56
1009.49	1737.70
1009.65	1796.68
1009.82	1917.92
1009.98	1697.97
1010.14	1548.26
1010.31	1996.56
1010.47	1940.45
1010.63	1721.93
1010.80	1677.49
1010.96	1918.54
1011.12	1862.01
1011.28	1656.40
1011.45	1631.82
1011.61	2177.61
1011.77	1738.11
1011.94	1642.88
1012.10	1591.07
1012.26	1759.21
1012.42	1806.92
1012.59	1708.01
1012.75	1716.61
1012.91	1860.58
1013.07	1964.82
1013.24	1597.83
1013.40	1653.12
1013.56	1899.70
1013.72	1845.02
1013.89	1734.22
1014.05	1708.01
1014.21	2122.31
1014.37	2176.17
1014.54	1695.31
1014.70	1599.87
1014.86	1842.76
1015.02	1726.03
1015.19	1658.65
1015.35	1602.13
1015.51	1840.92
1015.67	1797.50
1015.84	1620.15
1016.00	1640.63
1016.16	2005.17
1016.32	1936.97
1016.49	1633.46
1016.65	1630.80
1016.81	1844.40
1016.97	1928.98
1017.14	1764.53
1017.30	1644.93
1017.46	1797.50
1017.62	1896.62
1017.78	1691.42
1017.95	1619.74
1018.11	1952.94
1018.27	2165.11
1018.43	1779.07
1018.59	1716.20
1018.76	1993.08
1018.92	2192.35
1019.08	1635.51
1019.24	1666.43
1019.40	2049.40
1019.57	1905.23
1019.73	1744.05
1019.89	1666.43
1020.05	1900.92
1020.21	2133.78
1020.38	1603.56
1020.54	1805.69
1020.70	1947.41
1020.86	1936.76
1021.02	1648.41
1021.18	1640.01
1021.35	1805.28
1021.51	1925.91
1021.67	1793.82
1021.83	1648.61
1021.99	1846.24
1022.15	1888.64
1022.32	1728.49
1022.48	1713.95
1022.64	2046.33
1022.80	2030.77
1022.96	1708.01
1023.12	1581.03
1023.29	1996.97
1023.45	1909.53
1023.61	1635.51
1023.77	1805.28
1023.93	1900.52
1024.09	1767.60
1024.25	1616.05
1024.42	1582.26
1024.58	1832.11
1024.74	1891.30
1024.90	1666.02
1025.06	1739.75
1025.22	1802.83
1025.38	2091.59
1025.54	1605.40
1025.71	1722.14
1025.87	1941.88
1026.03	1915.67
1026.19	1629.57
1026.35	1781.73
1026.51	1932.67
1026.67	1863.86
1026.83	1692.24
1026.99	1778.87
1027.16	1936.97
1027.32	1849.32
1027.48	1682.61
1027.64	1634.89
1027.80	1950.90
1027.96	1907.07
1028.12	1657.01
1028.28	1638.38
1028.44	1926.93
1028.60	2053.91
1028.77	1778.66
1028.93	1708.83
1029.09	1833.14
1029.25	1772.11
1029.41	1703.30
1029.57	1735.45
1029.73	1920.99
1029.89	2050.84
1030.05	1770.88
1030.21	1724.59
1030.37	2177.40
1030.53	1965.85
1030.69	1671.96
1030.85	1588.40
1031.02	1741.18
1031.18	1891.91
1031.34	1691.21
1031.50	1725.82
1031.66	1776.82
1031.82	2064.35
1031.98	1730.12
1032.14	1627.32
1032.30	1759.00
1032.46	1943.73
1032.62	1779.07
1032.78	1603.35
1032.94	1781.32
1033.10	1830.27
1033.26	1714.97
1033.42	1735.86
1033.58	2149.96
1033.74	1801.80
1033.90	1660.49
1034.06	1815.52
1034.22	2145.45
1034.38	2010.08
1034.54	1670.53
1034.70	1688.76
1034.86	2080.12
>>>>>End Processed Spectral Data<<<<<
