SpectraSuite Data File
++++++++++++++++++++++++++++++++++++
Date: Thu Mar 30 15:51:41 PDT 2017
User: UCSD _CER
Dark Spectrum Present: No
Reference Spectrum Present: No
Number of Sampled Component Spectra: 1
Spectrometers: USB4C00073
Integration Time (usec): 250000 (USB4C00073)
Spectra Averaged: 10 (USB4C00073)
Boxcar Smoothing: 0 (USB4C00073)
Correct for Electrical Dark: No (USB4C00073)
Strobe/Lamp Enabled: No (USB4C00073)
Correct for Detector Non-linearity: No (USB4C00073)
Correct for Stray Light: No (USB4C00073)
Number of Pixels in Processed Spectrum: 3648
>>>>>Begin Processed Spectral Data<<<<<
345.37	1262.16
345.58	1262.16
345.80	1262.16
346.01	1267.90
346.22	1286.33
346.43	1974.65
346.65	1790.95
346.86	2115.35
347.07	2085.65
347.28	1777.43
347.50	1774.56
347.71	1897.44
347.92	1736.68
348.13	1810.20
348.35	1729.51
348.56	1932.26
348.77	1794.02
348.98	1795.45
349.20	1680.56
349.41	1929.39
349.62	1981.41
349.83	1837.64
350.05	1738.52
350.26	1965.44
350.47	2095.28
350.68	1770.88
350.90	1736.27
351.11	2110.43
351.32	2082.17
351.53	1814.30
351.75	1756.95
351.96	1967.07
352.17	1898.88
352.38	1844.40
352.60	1902.97
352.81	1938.40
353.02	2151.39
353.23	1797.91
353.44	1830.27
353.66	1879.63
353.87	1914.65
354.08	1894.58
354.29	1829.66
354.51	1856.89
354.72	1904.20
354.93	1779.48
355.14	1729.10
355.35	1745.07
355.57	2055.34
355.78	1831.70
355.99	1899.90
356.20	1950.28
356.42	1899.90
356.63	1924.07
356.84	1852.39
357.05	2060.46
357.26	2237.82
357.48	1913.62
357.69	1897.44
357.90	1987.35
358.11	1880.65
358.32	1849.93
358.54	1869.39
358.75	1888.43
358.96	2030.77
359.17	1819.62
359.38	1832.93
359.60	2002.50
359.81	1933.90
360.02	1837.44
360.23	1778.66
360.44	1846.65
360.66	2032.61
360.87	1790.33
361.08	1762.07
361.29	1950.90
361.50	1947.21
361.72	1790.74
361.93	1859.97
362.14	1918.54
362.35	1758.80
362.56	1883.93
362.77	1726.85
362.99	1988.99
363.20	1914.03
363.41	1853.82
363.62	1741.59
363.83	1967.28
364.05	2054.32
364.26	1704.32
364.47	1793.00
364.68	2047.15
364.89	1831.29
365.10	1735.24
365.32	1823.92
365.53	1824.13
365.74	1858.12
365.95	1815.32
366.16	1704.32
366.37	1897.65
366.59	1872.87
366.80	1808.56
367.01	1693.67
367.22	2164.29
367.43	2295.98
367.64	1817.57
367.86	1803.03
368.07	1972.19
368.28	2089.54
368.49	1718.04
368.70	1840.51
368.91	1894.37
369.12	1900.51
369.34	1704.93
369.55	1744.66
369.76	1910.75
369.97	1884.75
370.18	1748.15
370.39	1745.28
370.60	1747.33
370.82	1777.84
371.03	1828.02
371.24	1745.07
371.45	2003.73
371.66	1994.52
371.87	1803.24
372.08	1828.22
372.30	1814.91
372.51	2066.81
372.72	1922.43
372.93	1827.61
373.14	2159.79
373.35	1832.52
373.56	1779.07
373.78	1846.45
373.99	2026.67
374.20	2291.47
374.41	1815.32
374.62	1829.86
374.83	2087.29
375.04	1882.70
375.25	1813.68
375.47	1770.67
375.68	1858.53
375.89	2006.39
376.10	1840.51
376.31	1934.72
376.52	1967.89
376.73	1956.42
376.94	1832.73
377.15	1772.93
377.37	1910.14
377.58	1914.03
377.79	1717.84
378.00	1755.31
378.21	1974.24
378.42	2022.57
378.63	1860.17
378.84	1916.69
379.05	2064.35
379.27	1962.77
379.48	1939.84
379.69	1785.01
379.90	2076.44
380.11	1720.09
380.32	1831.50
380.53	1933.69
380.74	2098.35
380.95	1968.51
381.16	1834.37
381.37	1820.44
381.59	2130.71
381.80	2058.82
382.01	1795.66
382.22	1739.14
382.43	2009.67
382.64	1941.27
382.85	1777.84
383.06	1897.44
383.27	2038.34
383.48	1932.26
383.69	1875.94
383.91	1825.35
384.12	2073.36
384.33	2090.36
384.54	1931.64
384.75	1826.38
384.96	2443.43
385.17	2148.11
385.38	1916.28
385.59	1882.08
385.80	2067.83
386.01	2176.79
386.22	1976.09
386.43	1926.32
386.64	2270.58
386.86	1961.75
387.07	2026.06
387.28	1809.79
387.49	1929.39
387.70	2149.55
387.91	1969.12
388.12	1845.22
388.33	2054.11
388.54	1913.42
388.75	1853.21
388.96	1894.58
389.17	1869.18
389.38	1895.19
389.59	1894.99
389.80	1866.11
390.01	1934.72
390.22	1881.47
390.43	1958.27
390.64	1716.61
390.86	2016.84
391.07	2072.34
391.28	1865.49
391.49	1868.16
391.70	1780.30
391.91	1833.75
392.12	1844.81
392.33	1854.85
392.54	1956.83
392.75	1941.47
392.96	1931.03
393.17	1797.50
393.38	2211.60
393.59	2076.23
393.80	1778.46
394.01	1853.82
394.22	2010.70
394.43	2223.89
394.64	1814.09
394.85	1976.90
395.06	1937.17
395.27	1943.32
395.48	1831.50
395.69	1751.42
395.90	1873.07
396.11	1915.06
396.32	1796.48
396.53	1947.21
396.74	1922.02
396.95	2072.13
397.16	1800.57
397.37	1724.39
397.58	2048.79
397.79	1880.24
398.00	1872.66
398.21	1826.38
398.42	1936.35
398.63	2183.54
398.84	1829.66
399.05	1780.09
399.26	2074.80
399.47	1991.85
399.68	1651.07
399.89	1766.58
400.10	1811.22
400.31	1889.66
400.52	1875.73
400.73	1878.19
400.94	1806.92
401.15	2031.79
401.36	1859.76
401.57	1917.31
401.78	2109.82
401.99	2078.48
402.20	1763.51
402.41	1941.06
402.62	2130.30
402.83	1897.85
403.04	1816.75
403.25	1982.43
403.46	2016.02
403.67	2177.81
403.88	1933.08
404.09	1920.79
404.30	1996.16
404.51	1951.71
404.72	1811.22
404.93	1988.17
405.14	1845.83
405.35	1931.85
405.56	1849.93
405.77	1813.89
405.98	1976.09
406.19	1927.96
406.40	1827.61
406.61	1865.90
406.82	1930.42
407.03	2318.92
407.24	1826.99
407.45	1925.50
407.66	2048.38
407.87	2089.75
408.08	1901.95
408.29	1927.14
408.49	1994.31
408.70	1927.96
408.91	1846.65
409.12	1915.47
409.33	1810.20
409.54	2099.17
409.75	1804.06
409.96	1832.11
410.17	2063.12
410.38	1923.25
410.59	1840.92
410.80	1917.10
411.01	1922.02
411.22	1904.00
411.43	1867.34
411.64	1777.43
411.85	1832.93
412.06	1815.52
412.27	1664.59
412.47	1799.14
412.68	1931.64
412.89	2009.06
413.10	1797.71
413.31	1759.00
413.52	2192.15
413.73	2197.27
413.94	1811.84
414.15	1926.73
414.36	1861.40
414.57	1827.81
414.78	1779.68
414.99	2009.47
415.19	2376.46
415.40	2402.27
415.61	2521.25
415.82	2355.16
416.03	2405.34
416.24	2244.98
416.45	2022.98
416.66	1905.02
416.87	1825.35
417.08	2038.96
417.29	1845.42
417.50	1941.88
417.70	2086.68
417.91	2084.01
418.12	1987.35
418.33	2028.72
418.54	2211.81
418.75	2336.12
418.96	2377.90
419.17	2534.16
419.38	2984.10
419.59	2923.48
419.79	2776.84
420.00	2634.10
420.21	2826.61
420.42	2317.89
420.63	2046.13
420.84	2003.12
421.05	1980.18
421.26	1933.08
421.47	1779.07
421.67	2105.72
421.88	1867.95
422.09	1854.23
422.30	2049.81
422.51	1945.37
422.72	2216.31
422.93	2090.77
423.14	1882.29
423.35	1771.08
423.55	1774.16
423.76	1851.98
423.97	1855.46
424.18	1711.90
424.39	1908.09
424.60	2080.53
424.81	1906.45
425.02	2085.86
425.22	2197.47
425.43	2218.77
425.64	2411.69
425.85	2375.85
426.06	2681.41
426.27	2488.69
426.48	2375.64
426.68	2349.02
426.89	2462.68
427.10	2517.57
427.31	2135.01
427.52	1969.74
427.73	2165.52
427.94	2112.07
428.14	1995.75
428.35	1872.05
428.56	2127.63
428.77	2056.16
428.98	1932.87
429.19	1945.78
429.40	2057.80
429.60	2102.85
429.81	2152.01
430.02	2082.37
430.23	2010.29
430.44	2134.80
430.65	1881.26
430.85	1912.80
431.06	2028.10
431.27	1776.82
431.48	1825.76
431.69	1897.44
431.90	1947.00
432.10	1989.19
432.31	2008.44
432.52	2014.38
432.73	2590.48
432.94	2523.51
433.15	2365.61
433.35	2203.41
433.56	2372.57
433.77	2219.18
433.98	2638.19
434.19	2844.42
434.40	3063.15
434.60	3044.51
434.81	2930.85
435.02	2584.13
435.23	2396.94
435.44	2246.62
435.64	1956.22
435.85	1930.62
436.06	1938.20
436.27	1989.19
436.48	1889.46
436.68	1969.94
436.89	2364.99
437.10	2242.32
437.31	2091.80
437.52	2148.73
437.73	2190.92
437.93	2135.21
438.14	2005.17
438.35	1805.28
438.56	1916.90
438.77	1944.96
438.97	1984.48
439.18	1893.76
439.39	2295.77
439.60	2081.76
439.80	2048.38
440.01	2134.19
440.22	2061.89
440.43	2162.25
440.64	1840.71
440.84	1940.04
441.05	1857.30
441.26	2306.42
441.47	1916.08
441.68	1986.94
441.88	2290.65
442.09	2388.75
442.30	2655.81
442.51	2597.85
442.71	2519.82
442.92	2425.41
443.13	2140.95
443.34	2022.57
443.55	1977.11
443.75	2107.97
443.96	1823.31
444.17	1799.14
444.38	2063.74
444.58	1794.23
444.79	1893.55
445.00	1841.53
445.21	1913.21
445.41	1891.09
445.62	1658.85
445.83	1908.50
446.04	1962.98
446.24	1774.97
446.45	1664.38
446.66	1838.87
446.87	1994.11
447.07	1859.76
447.28	2027.08
447.49	1907.68
447.70	2127.02
447.90	2127.84
448.11	1902.77
448.32	1964.41
448.53	2156.51
448.73	2136.44
448.94	1835.18
449.15	1972.40
449.36	1942.50
449.56	1958.88
449.77	1833.75
449.98	1755.93
450.19	1920.79
450.39	2037.11
450.60	2033.43
450.81	2018.89
451.02	2090.57
451.22	2240.27
451.43	1882.90
451.64	1904.82
451.84	1948.64
452.05	2158.97
452.26	1906.66
452.47	1893.14
452.67	1889.25
452.88	2128.66
453.09	1815.52
453.30	1741.80
453.50	2034.25
453.71	2238.84
453.92	1989.60
454.12	2143.20
454.33	2071.32
454.54	2104.29
454.75	1873.28
454.95	1855.46
455.16	2013.15
455.37	2081.76
455.57	1878.19
455.78	1879.83
455.99	1936.97
456.19	1975.06
456.40	1781.94
456.61	1894.99
456.82	1931.03
457.02	2110.43
457.23	2082.37
457.44	2210.99
457.64	2063.94
457.85	2211.19
458.06	2031.18
458.26	2122.11
458.47	2081.56
458.68	2223.89
458.89	1961.13
459.09	2111.05
459.30	2309.29
459.51	2051.25
459.71	1817.57
459.92	1892.12
460.13	2200.13
460.33	2423.77
460.54	2070.91
460.75	2085.45
460.95	2037.32
461.16	2128.25
461.37	1905.63
461.57	1943.32
461.78	1987.96
461.99	1873.89
462.19	2109.41
462.40	1830.27
462.61	2229.83
462.81	2108.18
463.02	1801.39
463.23	1861.81
463.43	2024.83
463.64	1881.67
463.85	2713.76
464.05	1793.61
464.26	2332.02
464.47	2132.96
464.67	1995.54
464.88	1972.60
465.09	1994.31
465.29	2144.43
465.50	2215.90
465.71	2088.52
465.91	2034.66
466.12	2003.12
466.33	1941.68
466.53	1894.99
466.74	2175.76
466.94	1937.99
467.15	1878.40
467.36	2069.27
467.56	1820.64
467.77	1990.42
467.98	1903.38
468.18	1820.44
468.39	1897.65
468.60	2157.94
468.80	1906.45
469.01	1794.84
469.21	2004.14
469.42	2096.51
469.63	1927.75
469.83	1841.33
470.04	2101.63
470.25	2170.03
470.45	1946.80
470.66	1849.52
470.86	1992.47
471.07	1918.54
471.28	1933.28
471.48	2003.53
471.69	1993.90
471.90	2570.00
472.10	2103.67
472.31	2126.41
472.51	2148.11
472.72	2233.11
472.93	2157.94
473.13	2337.76
473.34	2384.65
473.54	2298.64
473.75	2117.19
473.96	2167.16
474.16	2032.40
474.37	2105.93
474.57	1952.33
474.78	1844.81
474.99	2019.71
475.19	1978.13
475.40	1863.65
475.60	1880.24
475.81	2348.20
476.02	2240.48
476.22	2219.59
476.43	2289.63
476.63	2097.53
476.84	2185.18
477.05	1781.73
477.25	1869.59
477.46	2390.18
477.66	1983.46
477.87	1772.11
478.08	1871.02
478.28	2073.98
478.49	1919.77
478.69	1830.68
478.90	1865.29
479.10	2002.71
479.31	2143.81
479.52	1930.42
479.72	2264.44
479.93	2615.87
480.13	2632.25
480.34	2657.03
480.54	2739.57
480.75	2370.11
480.96	2371.14
481.16	1998.41
481.37	2128.66
481.57	2178.42
481.78	2123.33
481.98	2173.51
482.19	1990.42
482.40	2245.80
482.60	2035.48
482.81	1954.58
483.01	1838.05
483.22	2075.00
483.42	2052.88
483.63	1957.45
483.83	1976.29
484.04	2022.57
484.24	2259.73
484.45	2147.30
484.66	1990.22
484.86	2134.80
485.07	1977.31
485.27	1964.21
485.48	1877.17
485.68	2160.40
485.89	1903.38
486.09	1982.43
486.30	1882.90
486.50	1973.83
486.71	1954.79
486.91	1966.25
487.12	2362.33
487.33	2961.98
487.53	3164.32
487.74	3045.74
487.94	2959.93
488.15	2637.17
488.35	2390.39
488.56	2192.35
488.76	2104.08
488.97	2105.11
489.17	2193.58
489.38	2037.32
489.58	2023.19
489.79	2108.38
489.99	2086.47
490.20	1943.52
490.40	1970.35
490.61	2018.07
490.81	1897.24
491.02	1899.70
491.22	1954.58
491.43	2065.99
491.63	1958.27
491.84	2009.88
492.04	1782.14
492.25	2025.24
492.45	1956.83
492.66	1934.72
492.86	1829.66
493.07	2031.59
493.27	2326.49
493.48	1795.45
493.68	1918.33
493.89	1946.39
494.09	2063.74
494.30	1844.81
494.50	2110.64
494.71	2013.97
494.91	1789.52
495.12	1858.12
495.32	1945.57
495.53	1969.33
495.73	1872.05
495.94	2070.70
496.14	1966.66
496.35	2433.60
496.55	2140.33
496.76	1994.31
496.96	2048.38
497.17	2011.72
497.37	2057.80
497.58	1894.37
497.78	1804.26
497.98	1956.01
498.19	1942.91
498.39	1909.53
498.60	1958.68
498.80	1738.32
499.01	2026.67
499.21	1794.84
499.42	1896.83
499.62	1905.43
499.83	2208.12
500.03	1801.39
500.24	2044.28
500.44	2291.47
500.64	2248.06
500.85	2097.32
501.05	2159.99
501.26	1916.69
501.46	2244.78
501.67	1909.73
501.87	1830.88
502.08	1899.08
502.28	1957.86
502.48	1976.29
502.69	1998.61
502.89	1785.83
503.10	1861.40
503.30	1927.34
503.51	1910.35
503.71	1814.30
503.92	2042.64
504.12	1956.63
504.32	1892.32
504.53	2053.29
504.73	2066.81
504.94	2024.42
505.14	2096.92
505.35	2103.88
505.55	2145.04
505.75	2084.01
505.96	2195.63
506.16	2387.73
506.37	2017.04
506.57	1893.55
506.78	1987.76
506.98	2118.83
507.18	1828.84
507.39	1828.84
507.59	1927.96
507.80	1908.71
508.00	2002.09
508.20	2069.68
508.41	1926.32
508.61	2098.35
508.82	2087.49
509.02	1998.82
509.22	1828.84
509.43	1827.20
509.63	1859.76
509.84	1898.26
510.04	1787.26
510.24	2134.19
510.45	2058.00
510.65	1803.44
510.86	1935.13
511.06	1830.06
511.26	2034.66
511.47	1968.92
511.67	1828.22
511.88	2008.03
512.08	2057.39
512.28	1799.14
512.49	2002.91
512.69	1962.16
512.90	2010.70
513.10	1840.51
513.30	1938.61
513.51	2041.42
513.71	2230.44
513.91	2099.17
514.12	2047.35
514.32	2173.30
514.53	1985.30
514.73	2020.53
514.93	1930.21
515.14	1994.31
515.34	2163.88
515.54	1957.45
515.75	1991.04
515.95	2076.23
516.15	2138.28
516.36	1999.23
516.56	2008.24
516.77	1723.57
516.97	2009.26
517.17	1880.44
517.38	1971.37
517.58	2133.98
517.78	1891.30
517.99	1975.27
518.19	1969.94
518.39	2160.81
518.60	1953.35
518.80	1880.65
519.00	2004.35
519.21	1965.03
519.41	2161.84
519.61	1860.58
519.82	1947.62
520.02	1936.56
520.22	1924.07
520.43	1869.39
520.63	1889.66
520.83	1858.74
521.04	1759.21
521.24	1936.56
521.44	1884.75
521.65	1849.52
521.85	1985.92
522.05	1804.06
522.26	1858.12
522.46	2167.98
522.66	2024.83
522.87	1893.35
523.07	2019.71
523.27	1857.30
523.48	2121.08
523.68	1936.76
523.88	1899.90
524.09	2098.76
524.29	1970.35
524.49	1721.11
524.70	1986.94
524.90	2111.25
525.10	2026.26
525.31	1792.79
525.51	1785.42
525.71	2037.93
525.91	2005.17
526.12	1826.17
526.32	1806.92
526.52	1876.35
526.73	1866.72
526.93	1935.13
527.13	1750.40
527.34	1933.28
527.54	1898.67
527.74	1839.90
527.94	1788.29
528.15	1819.21
528.35	1984.28
528.55	1977.52
528.76	1953.15
528.96	1763.10
529.16	2049.81
529.36	2009.26
529.57	1811.84
529.77	2059.44
529.97	1817.78
530.18	1968.30
530.38	1893.55
530.58	2029.13
530.78	1939.84
530.99	1855.87
531.19	1970.97
531.39	1865.70
531.60	1953.15
531.80	1860.37
532.00	1988.37
532.20	1963.39
532.41	1839.90
532.61	1866.93
532.81	1874.51
533.01	1924.07
533.22	1984.07
533.42	2049.61
533.62	1716.81
533.82	2111.87
534.03	1928.98
534.23	1961.75
534.43	1837.23
534.63	1900.31
534.84	1986.94
535.04	1945.78
535.24	1948.03
535.44	2303.15
535.65	1910.96
535.85	1851.36
536.05	1874.92
536.25	1958.88
536.46	1879.83
536.66	2076.85
536.86	1954.79
537.06	2037.93
537.27	2103.06
537.47	1996.77
537.67	1867.95
537.87	2116.99
538.08	1908.09
538.28	1815.32
538.48	1793.61
538.68	1942.29
538.88	2047.97
539.09	1757.36
539.29	1870.82
539.49	2068.45
539.69	1996.36
539.90	1969.33
540.10	1829.86
540.30	2135.21
540.50	1909.32
540.70	1785.21
540.91	1903.38
541.11	2071.11
541.31	2160.20
541.51	1976.90
541.72	1988.37
541.92	1976.29
542.12	1886.38
542.32	1907.27
542.52	1862.01
542.73	1875.12
542.93	2069.06
543.13	1904.20
543.33	1959.70
543.53	2068.86
543.74	2040.60
543.94	1886.79
544.14	2023.39
544.34	2165.73
544.54	2000.25
544.75	2021.35
544.95	2151.60
545.15	2086.47
545.35	2197.47
545.55	2067.42
545.75	1898.06
545.96	2239.04
546.16	1931.85
546.36	1926.32
546.56	1941.47
546.76	2103.88
546.97	2171.87
547.17	1948.23
547.37	1973.63
547.57	1910.75
547.77	2052.27
547.97	1951.30
548.18	1958.68
548.38	1951.71
548.58	2176.99
548.78	1895.80
548.98	2009.06
549.18	2159.79
549.39	2239.25
549.59	2065.99
549.79	2000.46
549.99	2184.36
550.19	2102.85
550.39	2040.19
550.60	1953.76
550.80	2034.04
551.00	2061.69
551.20	1895.40
551.40	1907.68
551.60	2002.09
551.80	2003.53
552.01	2038.34
552.21	1950.49
552.41	1965.03
552.61	2209.55
552.81	1998.00
553.01	1828.63
553.21	2009.67
553.42	1847.68
553.62	1862.83
553.82	1845.83
554.02	2157.33
554.22	2043.46
554.42	1830.47
554.62	1987.35
554.83	2165.93
555.03	2223.27
555.23	2030.15
555.43	2268.94
555.63	2162.04
555.83	2120.88
556.03	2020.12
556.23	1882.08
556.44	2042.03
556.64	2163.68
556.84	1734.02
557.04	1927.34
557.24	2027.69
557.44	2017.25
557.64	1958.68
557.84	1834.37
558.04	1893.76
558.25	2054.11
558.45	1877.78
558.65	1937.17
558.85	1951.71
559.05	1746.71
559.25	1888.43
559.45	1970.76
559.65	2258.30
559.85	2666.46
560.05	2044.49
560.26	2075.62
560.46	2115.76
560.66	2022.16
560.86	1965.23
561.06	1883.11
561.26	2195.42
561.46	2081.35
561.66	1904.61
561.86	2028.92
562.06	1874.10
562.26	1948.03
562.47	1956.22
562.67	1818.80
562.87	2004.96
563.07	1768.63
563.27	1941.47
563.47	1946.39
563.67	1889.87
563.87	2031.18
564.07	1893.96
564.27	1933.69
564.47	2027.90
564.67	2078.89
564.87	1896.01
565.08	2006.19
565.28	1950.49
565.48	2040.39
565.68	1990.83
565.88	2018.07
566.08	2215.08
566.28	1972.60
566.48	1803.65
566.68	1915.67
566.88	1917.51
567.08	2070.29
567.28	1917.51
567.48	1912.39
567.68	2009.47
567.88	1807.33
568.08	1977.93
568.28	2057.59
568.48	1941.68
568.68	2110.02
568.89	1952.53
569.09	1780.71
569.29	2044.08
569.49	2048.58
569.69	1848.50
569.89	1828.22
570.09	1736.47
570.29	1863.86
570.49	1786.24
570.69	1883.31
570.89	2033.63
571.09	2204.84
571.29	1778.66
571.49	2039.57
571.69	2005.37
571.89	2021.35
572.09	1873.69
572.29	1875.53
572.49	2064.97
572.69	2044.69
572.89	1942.29
573.09	1709.44
573.29	1974.86
573.49	1983.25
573.69	1945.16
573.89	2063.12
574.09	1897.65
574.29	2115.14
574.49	1902.36
574.69	1863.86
574.89	1869.59
575.09	1859.56
575.29	1857.71
575.49	1909.73
575.69	2011.92
575.89	1812.45
576.09	1936.97
576.29	1975.06
576.49	1829.86
576.69	1933.90
576.89	1859.15
577.09	1940.66
577.29	1775.38
577.49	2209.14
577.69	1871.64
577.89	2009.88
578.09	1930.01
578.29	1792.18
578.49	1935.54
578.69	1851.16
578.89	2068.24
579.09	1995.34
579.29	1831.91
579.49	2058.62
579.69	1916.90
579.89	2197.27
580.09	1740.16
580.29	1759.00
580.49	1862.83
580.69	1831.91
580.89	1899.70
581.09	1891.09
581.29	1881.67
581.49	1931.64
581.69	1832.52
581.89	1842.76
582.09	1863.24
582.28	1850.95
582.48	2028.10
582.68	2087.08
582.88	2123.13
583.08	1951.71
583.28	1931.64
583.48	1928.98
583.68	1888.23
583.88	1958.06
584.08	1941.27
584.28	1917.10
584.48	2206.48
584.68	2012.54
584.88	1927.55
585.08	2081.35
585.28	2075.00
585.48	2140.13
585.68	1988.37
585.87	2031.79
586.07	2038.75
586.27	1965.03
586.47	2034.86
586.67	1963.80
586.87	1966.87
587.07	1926.32
587.27	1817.16
587.47	1980.59
587.67	2184.36
587.87	2377.08
588.07	2102.44
588.27	2033.43
588.46	2171.05
588.66	2185.18
588.86	2061.28
589.06	2085.24
589.26	2136.03
589.46	2106.75
589.66	1862.22
589.86	1844.40
590.06	1957.24
590.26	2096.92
590.46	1979.77
590.66	2104.08
590.85	2036.70
591.05	2120.26
591.25	1954.38
591.45	1981.20
591.65	2108.59
591.85	2019.50
592.05	1958.06
592.25	2098.14
592.45	2140.33
592.64	1980.80
592.84	1990.63
593.04	1902.56
593.24	2300.07
593.44	1918.13
593.64	2018.68
593.84	2055.14
594.04	1929.80
594.24	2196.65
594.43	1929.39
594.63	1954.38
594.83	2055.55
595.03	2027.28
595.23	1854.23
595.43	1815.11
595.63	1862.63
595.83	2037.93
596.02	1727.67
596.22	1946.80
596.42	2003.94
596.62	1954.79
596.82	1876.55
597.02	2023.19
597.22	2123.13
597.41	1960.11
597.61	1851.77
597.81	2007.83
598.01	2070.09
598.21	1941.47
598.41	1908.09
598.61	1887.61
598.80	1959.91
599.00	2028.10
599.20	2074.80
599.40	1916.28
599.60	1932.26
599.80	2075.00
599.99	2121.29
600.19	1958.27
600.39	1990.42
600.59	2070.09
600.79	1977.11
600.99	1976.29
601.19	2206.48
601.38	2231.06
601.58	2015.82
601.78	1758.39
601.98	2089.95
602.18	2196.65
602.37	2431.96
602.57	2312.98
602.77	2470.46
602.97	2430.73
603.17	2520.03
603.37	2348.20
603.56	2431.35
603.76	2392.44
603.96	2268.33
604.16	2292.09
604.36	2359.87
604.56	2252.97
604.75	2011.72
604.95	2089.34
605.15	2292.50
605.35	2195.42
605.55	2035.48
605.74	1949.46
605.94	2212.22
606.14	1997.38
606.34	2026.67
606.54	1988.78
606.73	1919.56
606.93	2061.69
607.13	1878.19
607.33	1923.45
607.53	2195.63
607.72	2082.99
607.92	1994.11
608.12	2044.08
608.32	1943.73
608.51	2042.44
608.71	1873.48
608.91	2009.47
609.11	2061.28
609.31	1932.67
609.50	1973.42
609.70	2171.67
609.90	2123.74
610.10	2119.03
610.29	1971.37
610.49	1923.04
610.69	2103.26
610.89	2051.66
611.09	2048.17
611.28	2119.03
611.48	2108.18
611.68	1952.74
611.88	1905.84
612.07	1895.40
612.27	2064.56
612.47	1880.44
612.67	1978.54
612.86	2066.81
613.06	1955.40
613.26	1790.74
613.46	1900.92
613.65	1954.58
613.85	2310.93
614.05	2075.82
614.25	1992.06
614.44	1906.45
614.64	1982.64
614.84	1886.59
615.04	1880.44
615.23	1885.56
615.43	2041.01
615.63	2040.60
615.83	1858.53
616.02	1801.19
616.22	2088.93
616.42	1868.77
616.62	1880.85
616.81	1977.31
617.01	2045.51
617.21	1999.84
617.41	1894.37
617.60	1941.27
617.80	2049.61
618.00	2039.98
618.19	1986.73
618.39	1986.73
618.59	2017.25
618.79	1954.99
618.98	1744.66
619.18	1910.55
619.38	2220.61
619.57	1914.03
619.77	1892.12
619.97	1907.89
620.17	1829.45
620.36	1812.45
620.56	2040.60
620.76	1775.79
620.95	1819.83
621.15	1897.24
621.35	1852.59
621.54	1893.14
621.74	1971.99
621.94	1848.29
622.14	1822.08
622.33	1773.34
622.53	1911.37
622.73	1889.05
622.92	1769.65
623.12	1954.99
623.32	2214.26
623.51	2045.31
623.71	1779.28
623.91	2076.85
624.10	1858.94
624.30	1960.73
624.50	1846.45
624.69	1821.87
624.89	2445.48
625.09	1882.70
625.29	1739.34
625.48	1804.47
625.68	1962.16
625.88	2044.28
626.07	1999.02
626.27	1818.60
626.47	1881.47
626.66	1753.06
626.86	1901.54
627.06	1930.01
627.25	1945.98
627.45	2153.03
627.64	1905.02
627.84	2092.20
628.04	1856.69
628.23	2218.97
628.43	1845.83
628.63	1864.06
628.82	1902.77
629.02	2195.83
629.22	2008.24
629.41	2090.57
629.61	2006.39
629.81	2232.49
630.00	1884.34
630.20	1863.04
630.40	1994.93
630.59	2046.74
630.79	1957.45
630.98	1930.21
631.18	1931.44
631.38	1943.32
631.57	2048.17
631.77	1785.01
631.97	1982.64
632.16	1955.61
632.36	1969.74
632.56	1950.69
632.75	1967.89
632.95	2087.29
633.14	1791.77
633.34	2103.67
633.54	1709.23
633.73	1885.77
633.93	1889.25
634.12	1766.99
634.32	2261.37
634.52	1941.47
634.71	1802.21
634.91	1972.81
635.11	1786.24
635.30	1870.21
635.50	1960.52
635.69	1852.59
635.89	2172.08
636.09	2056.98
636.28	1866.72
636.48	1858.74
636.67	2048.38
636.87	2034.86
637.07	2005.17
637.26	1858.53
637.46	2020.12
637.65	2128.25
637.85	2001.68
638.04	1908.71
638.24	1942.91
638.44	2083.60
638.63	1959.50
638.83	1926.11
639.02	2031.59
639.22	2040.39
639.42	1928.57
639.61	1915.67
639.81	1998.61
640.00	1941.68
640.20	2004.55
640.39	2031.79
640.59	2305.19
640.79	2220.41
640.98	2155.49
641.18	2154.87
641.37	2214.06
641.57	2088.72
641.76	2092.41
641.96	1893.14
642.15	2108.79
642.35	1988.58
642.55	2049.81
642.74	1891.09
642.94	2136.03
643.13	2150.57
643.33	1969.74
643.52	1896.62
643.72	1909.73
643.91	1973.83
644.11	1898.47
644.31	1830.68
644.50	1907.89
644.70	2117.39
644.89	1934.10
645.09	1993.90
645.28	1996.77
645.48	2026.67
645.67	1853.62
645.87	1764.73
646.06	1913.42
646.26	2019.91
646.45	1744.46
646.65	1751.83
646.84	2231.67
647.04	1931.23
647.24	1820.03
647.43	1960.93
647.63	1993.90
647.82	2154.26
648.02	1817.57
648.21	1869.39
648.41	2149.55
648.60	1909.94
648.80	2076.23
648.99	1974.45
649.19	1893.14
649.38	1782.55
649.58	1939.22
649.77	1981.00
649.97	2112.89
650.16	2009.47
650.36	1754.70
650.55	2044.69
650.75	1980.39
650.94	2167.37
651.14	1951.30
651.33	1980.59
651.53	2185.80
651.72	1897.65
651.92	1936.15
652.11	1773.54
652.31	2043.67
652.50	2009.67
652.70	1985.92
652.89	1829.86
653.09	2173.71
653.28	1950.08
653.48	1768.63
653.67	1786.85
653.87	2352.71
654.06	2009.47
654.25	2102.65
654.45	1872.87
654.64	1904.82
654.84	1945.98
655.03	1725.00
655.23	2053.50
655.42	2053.50
655.62	2182.52
655.81	2003.32
656.01	1841.33
656.20	2081.97
656.40	2158.76
656.59	1946.39
656.79	2079.71
656.98	1987.96
657.17	2065.99
657.37	1959.91
657.56	1882.49
657.76	1993.49
657.95	2078.07
658.15	1608.68
658.34	1934.10
658.54	1934.92
658.73	1853.41
658.92	1911.57
659.12	1966.25
659.31	2025.85
659.51	1856.69
659.70	2017.25
659.90	1942.50
660.09	2107.56
660.29	1959.29
660.48	1873.28
660.67	2096.92
660.87	1923.25
661.06	2048.79
661.26	2043.46
661.45	2017.25
661.65	2015.20
661.84	1883.93
662.03	1875.12
662.23	1883.31
662.42	2214.88
662.62	1828.02
662.81	1866.52
663.00	1929.19
663.20	2013.77
663.39	2090.57
663.59	2136.44
663.78	2040.80
663.97	2034.25
664.17	2169.62
664.36	1881.47
664.56	1919.15
664.75	2106.34
664.94	2096.92
665.14	2020.12
665.33	1967.69
665.53	2020.53
665.72	1971.58
665.91	2089.13
666.11	2001.07
666.30	1997.79
666.50	1961.13
666.69	2055.34
666.88	2049.20
667.08	2129.68
667.27	2051.86
667.47	2147.70
667.66	2092.61
667.85	2200.75
668.05	2113.71
668.24	2000.87
668.43	2168.59
668.63	2004.35
668.82	2136.85
669.02	2101.83
669.21	2011.92
669.40	1873.89
669.60	2233.72
669.79	1807.33
669.98	2426.84
670.18	1850.75
670.37	1819.21
670.56	1908.30
670.76	1983.46
670.95	1913.83
671.15	2055.34
671.34	1956.63
671.53	1916.28
671.73	1885.16
671.92	1857.10
672.11	1799.96
672.31	1852.39
672.50	1962.57
672.69	1809.38
672.89	1706.78
673.08	1887.61
673.27	2047.15
673.47	1979.77
673.66	2001.89
673.85	1818.60
674.05	2034.04
674.24	2190.92
674.43	2177.81
674.63	2507.94
674.82	2807.77
675.01	2277.34
675.21	2465.14
675.40	2269.97
675.59	2212.83
675.79	2442.41
675.98	2113.09
676.17	2241.71
676.37	2194.40
676.56	2053.70
676.75	2076.85
676.95	2008.44
677.14	1965.64
677.33	2127.43
677.52	1841.53
677.72	1889.25
677.91	1988.58
678.10	1778.66
678.30	1806.51
678.49	1778.25
678.68	2210.78
678.88	1730.33
679.07	2041.01
679.26	1884.54
679.45	2159.17
679.65	2085.04
679.84	1733.40
680.03	1746.71
680.23	1888.23
680.42	2278.57
680.61	1800.16
680.81	1814.91
681.00	1931.64
681.19	1984.48
681.38	2001.68
681.58	1989.81
681.77	1894.99
681.96	2052.06
682.15	1879.42
682.35	1942.50
682.54	2000.66
682.73	1812.25
682.93	1829.25
683.12	1827.61
683.31	2020.12
683.50	2265.67
683.70	1855.05
683.89	1920.79
684.08	1840.30
684.27	2061.69
684.47	1765.96
684.66	1955.40
684.85	2206.48
685.04	2083.40
685.24	1856.89
685.43	1954.79
685.62	1749.78
685.81	2035.89
686.01	2120.47
686.20	2112.68
686.39	2126.61
686.58	2645.98
686.78	2411.69
686.97	2384.45
687.16	2372.98
687.35	2240.27
687.55	2137.67
687.74	2158.15
687.93	2014.59
688.12	2121.90
688.32	2074.39
688.51	1916.49
688.70	2068.45
688.89	1864.06
689.08	1840.10
689.28	1879.42
689.47	1965.64
689.66	1968.30
689.85	2024.01
690.05	1872.87
690.24	1887.20
690.43	1958.06
690.62	1989.40
690.81	1873.89
691.01	1936.76
691.20	1914.85
691.39	1837.44
691.58	1969.12
691.77	2178.01
691.97	1986.12
692.16	1973.22
692.35	1909.32
692.54	1911.37
692.73	2075.21
692.93	2022.98
693.12	2122.72
693.31	2162.45
693.50	2129.48
693.69	2169.41
693.89	1993.29
694.08	2215.08
694.27	2219.59
694.46	1923.04
694.65	2007.62
694.85	2086.47
695.04	2141.77
695.23	2335.50
695.42	3743.28
695.61	5212.08
695.80	6084.92
696.00	6984.60
696.19	7444.98
696.38	6562.10
696.57	5313.86
696.76	5168.87
696.95	4752.93
697.15	4610.59
697.34	4261.82
697.53	3711.12
697.72	3535.82
697.91	3137.69
698.10	3042.67
698.30	2504.46
698.49	2291.06
698.68	2215.90
698.87	2062.30
699.06	1904.41
699.25	1964.00
699.45	2120.88
699.64	1969.74
699.83	2040.60
700.02	1830.68
700.21	1990.22
700.40	1871.43
700.59	1888.23
700.79	1886.59
700.98	2017.66
701.17	1863.65
701.36	1854.85
701.55	1855.66
701.74	2129.89
701.93	1939.02
702.12	2150.57
702.32	2121.49
702.51	2433.40
702.70	2387.52
702.89	2265.05
703.08	2100.81
703.27	2289.83
703.46	2168.80
703.65	2067.42
703.85	1960.52
704.04	1999.84
704.23	2168.39
704.42	1902.36
704.61	1923.66
704.80	2161.43
704.99	1863.04
705.18	1980.18
705.37	2099.78
705.57	3195.04
705.76	4648.07
705.95	5236.66
706.14	6290.34
706.33	6788.81
706.52	6614.73
706.71	5164.57
706.90	4711.97
707.09	4514.34
707.28	4229.87
707.47	3825.40
707.67	3696.79
707.86	3317.91
708.05	3331.02
708.24	2864.49
708.43	2624.47
708.62	2309.49
708.81	2144.22
709.00	1949.87
709.19	1934.31
709.38	2108.38
709.57	1864.27
709.76	1997.79
709.96	1940.66
710.15	2159.58
710.34	1981.61
710.53	2064.15
710.72	1969.74
710.91	2110.43
711.10	2030.56
711.29	2036.30
711.48	1893.35
711.67	1809.18
711.86	2029.13
712.05	1836.62
712.24	1870.82
712.43	2040.39
712.62	2136.24
712.81	1939.22
713.00	2065.58
713.19	1817.57
713.39	2014.18
713.58	1959.50
713.77	2196.86
713.96	2377.90
714.15	2378.51
714.34	2394.89
714.53	2248.67
714.72	2514.09
714.91	2126.00
715.10	2190.92
715.29	2059.44
715.48	2557.50
715.67	2261.37
715.86	2115.96
716.05	2070.09
716.24	2015.61
716.43	1941.88
716.62	1865.09
716.81	1802.62
717.00	1925.91
717.19	2156.10
717.38	1928.37
717.57	1898.47
717.76	1761.46
717.95	2043.67
718.14	1913.21
718.33	1882.29
718.52	1721.52
718.71	1775.79
718.90	1765.76
719.09	1881.47
719.28	1939.84
719.47	2075.21
719.66	2024.42
719.85	2063.33
720.04	1966.05
720.23	2013.56
720.42	1930.01
720.61	2036.30
720.80	1837.44
720.99	1994.72
721.18	1913.42
721.37	1839.49
721.56	1904.00
721.75	2075.41
721.94	1844.61
722.13	1927.75
722.32	1949.67
722.51	2063.94
722.70	1955.61
722.89	1998.61
723.08	1942.29
723.27	2068.04
723.46	1952.33
723.65	1919.15
723.84	1878.40
724.03	2095.07
724.22	1792.59
724.41	1955.20
724.60	1935.74
724.79	2051.04
724.98	1992.88
725.16	1885.16
725.35	1987.76
725.54	1837.23
725.73	1950.08
725.92	2001.28
726.11	2217.54
726.30	2710.69
726.49	2713.76
726.68	3008.47
726.87	3202.20
727.06	3243.57
727.25	2748.78
727.44	2740.80
727.63	2612.39
727.82	2541.32
728.01	2511.22
728.20	2496.47
728.38	2535.18
728.57	2296.59
728.76	2226.55
728.95	2246.42
729.14	1951.30
729.33	1923.66
729.52	1782.14
729.71	1904.61
729.90	1849.73
730.09	1953.35
730.28	1977.52
730.47	1964.21
730.66	2232.70
730.84	2106.13
731.03	2042.85
731.22	2073.16
731.41	2095.69
731.60	2093.84
731.79	1837.03
731.98	1921.20
732.17	2081.97
732.36	2050.63
732.55	1925.50
732.73	1846.86
732.92	2126.82
733.11	2059.85
733.30	1900.92
733.49	1837.85
733.68	2087.90
733.87	2017.04
734.06	1912.19
734.25	1968.30
734.43	2037.11
734.62	2153.44
734.81	2138.08
735.00	2141.77
735.19	2119.85
735.38	2159.17
735.57	1950.08
735.76	2116.99
735.94	2206.07
736.13	2535.79
736.32	2457.56
736.51	2462.68
736.70	2773.97
736.89	2854.66
737.08	3180.91
737.27	4969.60
737.45	7511.33
737.64	8634.65
737.83	10084.61
738.02	10825.97
738.21	10045.29
738.40	7949.40
738.59	7180.79
738.77	6661.02
738.96	6225.83
739.15	5816.44
739.34	5408.89
739.53	4888.91
739.72	4630.05
739.90	4135.87
740.09	3429.32
740.28	3065.81
740.47	2768.85
740.66	2492.17
740.85	2170.64
741.03	2178.01
741.22	1976.90
741.41	2070.29
741.60	1906.04
741.79	2055.34
741.98	2212.83
742.16	2281.23
742.35	2106.95
742.54	2065.79
742.73	2374.41
742.92	2099.78
743.10	1996.36
743.29	2073.57
743.48	2464.12
743.67	2101.22
743.86	1927.55
744.05	1956.42
744.23	1996.56
744.42	1973.42
744.61	2034.86
744.80	1945.57
744.99	1982.43
745.17	1822.28
745.36	1868.98
745.55	2105.93
745.74	2047.35
745.93	1990.63
746.11	1982.43
746.30	1953.15
746.49	2191.94
746.68	1970.76
746.86	2019.71
747.05	2008.85
747.24	2145.04
747.43	2167.77
747.62	1951.10
747.80	1996.36
747.99	2241.30
748.18	2226.14
748.37	2186.82
748.56	2164.29
748.74	2272.84
748.93	2417.22
749.12	3865.34
749.31	8363.90
749.49	12481.76
749.68	15050.73
749.87	17493.13
750.06	18693.65
750.24	17673.56
750.43	16778.39
750.62	18390.55
750.81	18816.33
750.99	19613.81
751.18	19091.37
751.37	16015.32
751.56	13342.31
751.74	12764.37
751.93	11302.74
752.12	9442.77
752.31	8169.76
752.49	7009.58
752.68	6162.95
752.87	5232.15
753.06	4485.26
753.24	3863.49
753.43	3430.35
753.62	2758.41
753.81	2472.51
753.99	2534.98
754.18	2280.00
754.37	2025.44
754.55	2117.80
754.74	2291.47
754.93	1885.77
755.12	1982.02
755.30	1941.27
755.49	2145.04
755.68	2053.91
755.86	2061.08
756.05	1886.18
756.24	2186.82
756.43	1872.87
756.61	1897.65
756.80	2058.41
756.99	2177.40
757.17	2020.12
757.36	1887.00
757.55	1966.66
757.74	2083.81
757.92	2047.76
758.11	1863.04
758.30	1818.19
758.48	1999.23
758.67	1928.78
758.86	2050.63
759.04	1932.46
759.23	2045.10
759.42	2105.52
759.60	1985.51
759.79	2029.74
759.98	2021.35
760.16	1942.70
760.35	1945.57
760.54	1886.79
760.73	2027.49
760.91	1875.73
761.10	2017.45
761.29	2034.25
761.47	2029.54
761.66	2307.04
761.85	2089.75
762.03	2510.20
762.22	4885.43
762.41	12797.55
762.59	21885.41
762.78	26342.20
762.97	31855.74
763.15	34205.99
763.34	31075.47
763.52	22697.23
763.71	20840.95
763.90	18882.48
764.08	17639.36
764.27	16141.88
764.46	14741.89
764.64	12880.29
764.83	11398.58
765.02	9995.73
765.20	8419.81
765.39	6813.18
765.58	5097.19
765.76	4095.12
765.95	3346.18
766.13	2810.63
766.32	2445.89
766.51	2303.15
766.69	2383.02
766.88	2206.28
767.07	1955.81
767.25	1856.28
767.44	2156.31
767.62	2180.47
767.81	1950.49
768.00	1999.23
768.18	2016.63
768.37	1935.74
768.56	1814.09
768.74	1898.06
768.93	1833.96
769.11	2030.97
769.30	1940.86
769.49	1888.23
769.67	1911.57
769.86	1915.06
770.04	1910.96
770.23	1910.35
770.42	2103.67
770.60	1972.81
770.79	1863.45
770.97	2071.93
771.16	3037.14
771.35	5070.57
771.53	6999.96
771.72	8261.10
771.90	9645.93
772.09	10256.02
772.27	8990.99
772.46	6869.30
772.65	6725.53
772.83	6195.11
773.02	5884.02
773.20	5356.26
773.39	5186.07
773.58	4702.55
773.76	4088.56
773.95	3845.68
774.13	3560.80
774.32	3089.98
774.50	2653.76
774.69	2500.98
774.87	2231.67
775.06	2422.95
775.25	1986.53
775.43	2002.09
775.62	2020.32
775.80	2075.82
775.99	2012.13
776.17	1910.35
776.36	1972.19
776.54	2113.71
776.73	1926.32
776.92	2015.41
777.10	2068.86
777.29	2026.67
777.47	1891.09
777.66	1905.63
777.84	1980.80
778.03	1974.04
778.21	1832.11
778.40	1959.91
778.58	2012.33
778.77	2078.69
778.95	1807.33
779.14	1846.24
779.32	2179.45
779.51	2049.81
779.70	1892.73
779.88	1793.00
780.07	1885.36
780.25	2256.86
780.44	1874.71
780.62	2047.76
780.81	2005.17
780.99	1993.90
781.18	1862.42
781.36	1884.34
781.55	1894.37
781.73	2138.08
781.92	1778.66
782.10	1797.71
782.29	1996.97
782.47	2131.53
782.66	1942.70
782.84	1797.50
783.03	1883.72
783.21	2136.24
783.40	1910.75
783.58	1894.58
783.77	1893.14
783.95	1942.70
784.14	1851.77
784.32	1910.55
784.51	2120.67
784.69	1863.24
784.88	1788.29
785.06	1932.46
785.24	1803.65
785.43	2058.82
785.61	2001.68
785.80	1858.53
785.98	2029.74
786.17	1956.01
786.35	1853.82
786.54	1993.90
786.72	2055.96
786.91	2107.56
787.09	1917.51
787.28	1816.14
787.46	2006.80
787.65	2097.12
787.83	1856.89
788.01	1972.60
788.20	1883.72
788.38	2027.28
788.57	1919.36
788.75	1975.68
788.94	2287.38
789.12	2158.97
789.31	1992.88
789.49	2065.38
789.67	1925.71
789.86	2019.09
790.04	1887.41
790.23	1801.39
790.41	2272.84
790.60	1999.84
790.78	1969.53
790.96	1972.19
791.15	2071.73
791.33	1972.19
791.52	1942.29
791.70	1885.36
791.89	2036.70
792.07	2115.35
792.25	1980.80
792.44	1825.15
792.62	2128.66
792.81	1952.53
792.99	2024.42
793.17	1964.41
793.36	2038.75
793.54	2868.18
793.73	4351.73
793.91	6205.55
794.10	7542.26
794.28	8834.73
794.46	9161.38
794.65	8770.02
794.83	6889.37
795.01	6263.71
795.20	6135.71
795.38	5650.96
795.57	5334.55
795.75	5076.91
795.93	4604.04
796.12	4279.64
796.30	3969.99
796.49	3718.91
796.67	3234.36
796.85	3103.49
797.04	2786.47
797.22	2611.16
797.40	2253.58
797.59	2304.78
797.77	2223.07
797.96	2111.05
798.14	2078.48
798.32	2071.11
798.51	2217.34
798.69	2351.68
798.87	2048.58
799.06	2048.79
799.24	1994.52
799.42	2800.80
799.61	3844.86
799.79	4810.88
799.98	5646.45
800.16	6331.70
800.34	8043.40
800.53	10106.73
800.71	10837.65
800.89	12420.93
801.08	12886.02
801.26	12811.89
801.44	10619.13
801.63	8641.81
801.81	8420.22
801.99	7656.74
802.18	7108.70
802.36	6661.22
802.54	6091.48
802.73	5249.35
802.91	4815.59
803.09	4330.43
803.28	3947.66
803.46	3570.02
803.64	3316.28
803.83	2678.74
804.01	2402.06
804.19	2238.43
804.38	2373.60
804.56	2264.03
804.74	2136.24
804.92	2144.63
805.11	1992.67
805.29	2226.55
805.47	2001.28
805.66	1923.66
805.84	1899.90
806.02	2196.65
806.21	2034.66
806.39	2170.85
806.57	2203.00
806.76	2182.52
806.94	2075.41
807.12	2066.20
807.30	2107.97
807.49	2235.36
807.67	2224.71
807.85	2269.56
808.04	2275.50
808.22	2434.83
808.40	1953.35
808.58	1951.30
808.77	2142.18
808.95	2437.49
809.13	3107.18
809.31	5981.09
809.50	9254.36
809.68	10914.24
809.86	12523.94
810.05	13773.20
810.23	15746.63
810.41	23628.03
810.59	40775.67
810.78	51099.89
810.96	59180.56
811.14	64067.63
811.32	63447.71
811.51	51757.50
811.69	40773.83
811.87	40129.95
812.05	34925.85
812.24	32764.22
812.42	29785.04
812.60	26391.76
812.78	22447.17
812.97	18966.03
813.15	16458.50
813.33	14050.91
813.51	11822.51
813.70	9215.04
813.88	7184.07
814.06	5583.38
814.24	4304.63
814.42	3332.05
814.61	2932.69
814.79	2859.58
814.97	2281.23
815.15	2264.85
815.34	2299.46
815.52	2281.44
815.70	2009.88
815.88	2013.97
816.06	1985.71
816.25	1960.11
816.43	1906.66
816.61	2069.68
816.79	2183.54
816.98	1827.20
817.16	1907.27
817.34	1868.16
817.52	2011.51
817.70	2155.90
817.89	1912.80
818.07	1838.87
818.25	1932.87
818.43	1965.44
818.61	1872.87
818.80	1850.75
818.98	2166.14
819.16	1942.29
819.34	1809.99
819.52	2115.55
819.70	1860.78
819.89	1923.86
820.07	1775.38
820.25	1761.25
820.43	1988.37
820.61	2047.35
820.80	1909.12
820.98	1812.45
821.16	1749.17
821.34	1792.38
821.52	1899.29
821.70	1928.16
821.89	1927.96
822.07	1919.56
822.25	1895.80
822.43	1841.74
822.61	2104.90
822.79	1957.45
822.98	1886.18
823.16	1745.07
823.34	1990.22
823.52	2075.21
823.70	1993.29
823.88	1738.11
824.06	2011.72
824.25	1901.95
824.43	2001.07
824.61	1802.42
824.79	1919.97
824.97	2003.94
825.15	2182.73
825.33	2947.64
825.52	4265.30
825.70	4968.99
825.88	5492.86
826.06	6109.91
826.24	6251.42
826.42	5536.48
826.60	4567.38
826.78	4538.50
826.97	4109.86
827.15	4171.71
827.33	3662.38
827.51	3661.36
827.69	3308.29
827.87	3165.95
828.05	2972.63
828.23	2656.42
828.41	2758.41
828.60	2602.56
828.78	2167.57
828.96	2259.11
829.14	2059.23
829.32	2027.28
829.50	1965.44
829.68	1919.15
829.86	1937.79
830.04	2042.85
830.22	1971.99
830.41	1840.71
830.59	1904.41
830.77	2036.30
830.95	1864.88
831.13	1851.98
831.31	1843.38
831.49	2044.90
831.67	2026.06
831.85	2008.24
832.03	1900.31
832.21	2017.45
832.39	1791.15
832.57	1765.14
832.76	2012.33
832.94	1913.42
833.12	1738.32
833.30	1898.47
833.48	2068.45
833.66	1949.87
833.84	1818.60
834.02	1906.86
834.20	2054.11
834.38	2021.14
834.56	1723.98
834.74	1788.70
834.92	1798.12
835.10	2143.81
835.28	1927.14
835.46	1894.37
835.64	1913.42
835.82	1838.87
836.01	2115.14
836.19	2037.32
836.37	1845.02
836.55	1831.70
836.73	1824.33
836.91	1807.95
837.09	2035.48
837.27	2107.56
837.45	1773.13
837.63	1844.61
837.81	1811.02
837.99	1961.13
838.17	1919.97
838.35	1843.58
838.53	2274.27
838.71	2028.72
838.89	1891.50
839.07	1889.25
839.25	2015.61
839.43	2207.10
839.61	2558.94
839.79	4617.56
839.97	6940.57
840.15	8300.21
840.33	9480.66
840.51	10283.06
840.69	9867.32
840.87	7971.31
841.05	7006.51
841.23	7620.90
841.41	9971.56
841.59	14417.70
841.77	16458.30
841.95	17812.82
842.13	19220.19
842.31	18495.62
842.49	14676.97
842.67	12087.32
842.85	11860.20
843.03	10213.63
843.21	9646.55
843.39	8820.40
843.57	7794.36
843.75	6992.58
843.93	5931.94
844.11	5197.34
844.29	4743.71
844.47	4316.09
844.65	4063.37
844.83	3504.28
845.01	3134.21
845.19	2892.76
845.36	2435.24
845.54	2318.92
845.72	2174.33
845.90	2167.57
846.08	1889.87
846.26	1962.98
846.44	2032.61
846.62	2023.60
846.80	1943.11
846.98	1836.62
847.16	1910.14
847.34	1973.63
847.52	1814.50
847.70	1811.22
847.88	1901.95
848.06	2127.43
848.24	1936.35
848.41	1765.14
848.59	2036.50
848.77	1947.41
848.95	1846.45
849.13	1833.75
849.31	2017.04
849.49	1955.81
849.67	1762.89
849.85	1771.70
850.03	1973.42
850.21	1953.35
850.39	1811.43
850.57	1947.82
850.74	2150.16
850.92	2297.62
851.10	2803.67
851.28	3769.29
851.46	4494.47
851.64	5245.46
851.82	5196.11
852.00	5241.57
852.18	4684.93
852.36	4066.86
852.53	3811.07
852.71	3637.81
852.89	3569.61
853.07	3381.20
853.25	3059.26
853.43	2841.97
853.61	2835.62
853.79	2690.62
853.97	2411.07
854.14	2329.56
854.32	2533.75
854.50	2331.61
854.68	2092.61
854.86	2031.79
855.04	1970.15
855.22	2070.91
855.40	1795.66
855.57	1849.11
855.75	1995.13
855.93	1971.37
856.11	1727.26
856.29	1789.92
856.47	1831.09
856.65	1931.03
856.82	1804.26
857.00	1706.16
857.18	1870.82
857.36	1821.26
857.54	1892.73
857.72	1976.90
857.89	1978.75
858.07	1916.90
858.25	1991.85
858.43	1743.03
858.61	1868.16
858.79	1899.90
858.97	1806.72
859.14	1925.71
859.32	1892.53
859.50	1874.71
859.68	1895.60
859.86	1806.51
860.03	1932.67
860.21	2004.14
860.39	1852.80
860.57	1937.58
860.75	1962.77
860.93	2162.86
861.10	2028.10
861.28	1833.14
861.46	1964.41
861.64	1972.40
861.82	1871.64
861.99	1944.55
862.17	2043.05
862.35	2044.49
862.53	1900.72
862.71	1891.50
862.88	1943.32
863.06	2011.31
863.24	1852.80
863.42	1809.79
863.60	1879.83
863.77	1958.47
863.95	1687.12
864.13	1881.47
864.31	1862.42
864.49	1978.13
864.66	1754.09
864.84	1837.23
865.02	1913.21
865.20	2268.13
865.37	1925.09
865.55	1856.07
865.73	1862.83
865.91	2269.56
866.09	2334.07
866.26	2339.60
866.44	2533.54
866.62	2427.05
866.80	2256.45
866.97	2225.53
867.15	2222.25
867.33	2231.06
867.51	2217.95
867.68	2115.55
867.86	2065.17
868.04	2017.04
868.22	1868.36
868.39	1933.90
868.57	2026.67
868.75	2133.57
868.93	1784.60
869.10	1835.80
869.28	2179.04
869.46	2101.42
869.64	1892.32
869.81	1870.41
869.99	1964.62
870.17	1929.60
870.35	1791.56
870.52	1797.91
870.70	2021.14
870.88	1819.62
871.05	1761.87
871.23	1663.16
871.41	1880.04
871.59	1870.82
871.76	1848.50
871.94	1791.97
872.12	1890.89
872.29	1718.66
872.47	1807.54
872.65	1756.95
872.83	1916.49
873.00	2068.04
873.18	1827.61
873.36	1808.56
873.53	1961.34
873.71	1728.69
873.89	1787.26
874.06	1870.00
874.24	1937.79
874.42	2061.69
874.60	1957.86
874.77	1904.61
874.95	1791.97
875.13	2011.11
875.30	1784.40
875.48	1833.55
875.66	2077.87
875.83	1823.72
876.01	1849.52
876.19	1946.18
876.36	1741.39
876.54	1938.40
876.72	1770.67
876.89	1889.25
877.07	1976.90
877.25	1693.67
877.42	1909.12
877.60	1855.25
877.78	2112.89
877.95	1809.38
878.13	1796.48
878.31	1909.53
878.48	1996.36
878.66	1966.46
878.84	1813.89
879.01	1862.22
879.19	1941.27
879.37	1980.39
879.54	1819.83
879.72	1709.44
879.90	1696.13
880.07	2005.17
880.25	1618.92
880.42	1947.62
880.60	1910.75
880.78	1974.04
880.95	1825.97
881.13	1819.01
881.31	1879.83
881.48	1801.39
881.66	1806.10
881.83	1911.37
882.01	1798.73
882.19	1738.93
882.36	1885.16
882.54	1830.27
882.72	1964.21
882.89	1903.79
883.07	1762.69
883.24	1823.72
883.42	1980.59
883.60	1913.83
883.77	1768.63
883.95	1824.94
884.12	2007.01
884.30	1917.51
884.48	1945.16
884.65	1838.46
884.83	1904.82
885.00	1917.51
885.18	1754.29
885.36	1844.81
885.53	1954.79
885.71	2048.58
885.88	1740.16
886.06	1832.11
886.23	1949.05
886.41	1857.30
886.59	1818.80
886.76	1770.67
886.94	1968.30
887.11	2234.54
887.29	1845.22
887.47	1716.61
887.64	2014.59
887.82	2068.65
887.99	1694.08
888.17	1889.25
888.34	1843.58
888.52	1757.57
888.69	1874.51
888.87	1754.90
889.05	1839.28
889.22	1840.10
889.40	1817.78
889.57	1974.24
889.75	2093.23
889.92	1828.84
890.10	1743.23
890.27	1816.34
890.45	1794.02
890.62	1693.87
890.80	1743.03
890.98	1729.30
891.15	2061.89
891.33	2000.05
891.50	1766.58
891.68	1729.71
891.85	1941.68
892.03	1990.42
892.20	1801.19
892.38	1740.98
892.55	1967.48
892.73	1973.83
892.90	1738.32
893.08	1808.15
893.25	1810.20
893.43	1816.96
893.60	1931.44
893.78	1642.68
893.95	1927.34
894.13	1865.49
894.30	1776.61
894.48	1849.73
894.65	1966.05
894.83	1896.83
895.00	1672.17
895.18	1668.68
895.35	2009.26
895.53	1974.04
895.70	1720.50
895.88	1922.22
896.05	1928.78
896.23	1708.83
896.40	1796.48
896.58	1874.51
896.75	1996.77
896.93	2055.55
897.10	1780.50
897.28	1703.71
897.45	1916.28
897.63	1956.42
897.80	1923.66
897.98	1833.34
898.15	1925.50
898.33	1804.06
898.50	1892.53
898.67	1838.67
898.85	1861.40
899.02	1962.77
899.20	1985.30
899.37	1861.60
899.55	1896.62
899.72	2031.18
899.90	1787.88
900.07	1766.37
900.25	1937.99
900.42	2046.94
900.59	1788.70
900.77	1919.97
900.94	1941.06
901.12	1937.38
901.29	1759.41
901.47	1910.55
901.64	1946.80
901.82	1899.08
901.99	1616.46
902.16	1754.49
902.34	2041.42
902.51	1929.80
902.69	1814.09
902.86	1827.81
903.03	2354.14
903.21	1884.95
903.38	1868.16
903.56	1788.90
903.73	2000.25
903.91	1852.80
904.08	1738.32
904.25	1674.62
904.43	1778.87
904.60	2008.44
904.78	1828.84
904.95	1765.14
905.12	1850.75
905.30	2079.51
905.47	1938.81
905.65	1946.80
905.82	1858.94
905.99	1946.80
906.17	1884.75
906.34	1787.06
906.52	1787.06
906.69	1972.81
906.86	1930.82
907.04	1879.01
907.21	2021.75
907.38	2026.87
907.56	1795.04
907.73	1814.50
907.91	2063.33
908.08	2039.98
908.25	1789.11
908.43	1759.21
908.60	1988.99
908.77	1935.74
908.95	1822.08
909.12	1788.29
909.30	2008.65
909.47	1753.06
909.64	1884.13
909.82	1982.02
909.99	1877.37
910.16	1913.21
910.34	1815.93
910.51	1831.09
910.68	1943.11
910.86	1906.45
911.03	1969.94
911.20	2687.34
911.38	4838.53
911.55	7990.56
911.72	9616.24
911.90	10704.32
912.07	11607.07
912.24	11247.85
912.42	8618.47
912.59	6102.33
912.76	5711.99
912.94	4765.62
913.11	4236.02
913.28	3776.86
913.46	3605.65
913.63	3453.08
913.80	3501.82
913.98	3134.21
914.15	3174.35
914.32	3133.19
914.49	2907.50
914.67	2717.24
914.84	2875.96
915.01	2871.25
915.19	2716.43
915.36	2473.74
915.53	2557.09
915.71	2372.16
915.88	2186.82
916.05	1966.25
916.22	2134.39
916.40	2021.96
916.57	1810.40
916.74	1975.68
916.92	2142.38
917.09	1799.96
917.26	1796.07
917.43	1747.94
917.61	1850.75
917.78	1717.63
917.95	1664.38
918.13	1747.33
918.30	2178.42
918.47	1931.44
918.64	1780.50
918.82	1788.29
918.99	1908.30
919.16	2157.13
919.33	1886.79
919.51	1813.68
919.68	1906.45
919.85	2055.96
920.02	1700.22
920.20	1838.46
920.37	2094.87
920.54	2018.48
920.71	1790.13
920.89	1791.36
921.06	2117.80
921.23	1854.03
921.40	1979.16
921.58	2577.57
921.75	3451.24
921.92	3169.23
922.09	3384.88
922.27	3460.45
922.44	3348.02
922.61	2936.38
922.78	2469.03
922.96	2380.76
923.13	2265.05
923.30	2397.97
923.47	2030.15
923.64	2081.35
923.82	2196.24
923.99	2160.81
924.16	2117.60
924.33	1934.92
924.50	2076.44
924.68	2251.33
924.85	1892.32
925.02	1967.89
925.19	2111.46
925.36	2051.04
925.54	2027.90
925.71	1961.95
925.88	2358.44
926.05	1889.05
926.22	1792.59
926.40	1879.22
926.57	1936.35
926.74	1967.69
926.91	1768.22
927.08	1982.23
927.26	2010.70
927.43	1914.03
927.60	1761.46
927.77	1830.47
927.94	2087.08
928.11	2017.25
928.29	1721.73
928.46	1852.80
928.63	1795.25
928.80	1896.01
928.97	1898.67
929.14	1764.94
929.32	2159.99
929.49	1904.61
929.66	1777.02
929.83	1719.68
930.00	1815.73
930.17	1938.81
930.35	1713.54
930.52	1796.89
930.69	2075.82
930.86	1755.93
931.03	1860.99
931.20	1665.41
931.37	2041.21
931.55	1888.84
931.72	1860.17
931.89	1729.10
932.06	1746.10
932.23	2066.20
932.40	1903.18
932.57	1862.83
932.74	2025.44
932.92	2034.66
933.09	1928.98
933.26	1571.41
933.43	1838.87
933.60	1907.07
933.77	1830.68
933.94	1884.13
934.11	1828.43
934.29	1866.93
934.46	1762.07
934.63	1909.73
934.80	1773.95
934.97	1972.19
935.14	1894.99
935.31	1769.45
935.48	1853.00
935.65	1960.93
935.82	1884.13
936.00	1745.89
936.17	2092.00
936.34	1868.36
936.51	1920.79
936.68	1735.45
936.85	1939.43
937.02	1906.66
937.19	1898.67
937.36	1804.06
937.53	1953.97
937.70	1995.13
937.87	1848.09
938.05	1896.42
938.22	1907.68
938.39	1762.07
938.56	1821.67
938.73	1768.63
938.90	1860.78
939.07	1800.78
939.24	1860.78
939.41	1677.08
939.58	1927.34
939.75	1918.13
939.92	1756.13
940.09	1947.21
940.26	1848.09
940.43	1990.63
940.60	1794.23
940.77	1780.71
940.95	1909.32
941.12	1943.93
941.29	1774.77
941.46	1815.32
941.63	2021.96
941.80	2083.19
941.97	1706.78
942.14	1697.15
942.31	1956.22
942.48	1871.23
942.65	1865.90
942.82	1815.11
942.99	1962.57
943.16	1919.56
943.33	1702.68
943.50	1759.61
943.67	1962.77
943.84	2033.43
944.01	1771.08
944.18	1760.02
944.35	2074.18
944.52	1775.59
944.69	1852.59
944.86	1703.09
945.03	1976.49
945.20	2159.17
945.37	1670.73
945.54	1813.68
945.71	2038.55
945.88	2086.47
946.05	1745.07
946.22	1702.27
946.39	2031.59
946.56	1866.72
946.73	1708.42
946.90	1745.69
947.07	1792.79
947.24	1882.29
947.41	1653.73
947.58	1904.82
947.75	1973.42
947.92	1926.93
948.09	1592.30
948.26	1679.54
948.43	1903.18
948.60	2120.47
948.77	1758.18
948.94	1782.35
949.11	1970.56
949.27	1932.46
949.44	1759.00
949.61	1769.24
949.78	1919.15
949.95	2017.86
950.12	1713.33
950.29	1701.86
950.46	1832.52
950.63	2003.94
950.80	1769.45
950.97	1819.01
951.14	2006.19
951.31	1881.88
951.48	1758.80
951.65	1715.79
951.82	2096.10
951.99	1893.35
952.15	1687.32
952.32	1789.72
952.49	1803.24
952.66	1818.39
952.83	1750.19
953.00	1758.59
953.17	1869.59
953.34	1976.49
953.51	1818.39
953.68	1814.09
953.85	2012.54
954.02	2008.24
954.18	1805.08
954.35	1829.45
954.52	1795.45
954.69	1888.02
954.86	1651.28
955.03	1804.87
955.20	1947.41
955.37	1859.76
955.54	1784.40
955.71	1758.18
955.87	1933.69
956.04	2107.16
956.21	1779.68
956.38	1742.41
956.55	1903.38
956.72	2203.82
956.89	1830.06
957.06	1751.01
957.23	1812.25
957.39	2040.60
957.56	1766.37
957.73	1719.06
957.90	1635.30
958.07	2101.63
958.24	1811.84
958.41	1778.25
958.57	1972.60
958.74	1884.95
958.91	1734.83
959.08	1788.90
959.25	1914.03
959.42	1847.88
959.59	1843.58
959.75	1792.18
959.92	2047.97
960.09	2002.91
960.26	1769.24
960.43	1823.31
960.60	1900.72
960.76	1838.46
960.93	1724.59
961.10	1840.10
961.27	2012.95
961.44	1826.58
961.61	1729.92
961.77	1728.90
961.94	1894.37
962.11	1991.85
962.28	1806.31
962.45	1727.26
962.62	1861.81
962.78	2013.56
962.95	1752.86
963.12	1785.21
963.29	1937.99
963.46	2235.36
963.62	1850.34
963.79	1795.04
963.96	2203.61
964.13	1853.41
964.30	1853.41
964.46	1789.52
964.63	1820.85
964.80	2371.96
964.97	1928.16
965.14	2292.50
965.30	2479.89
965.47	2575.94
965.64	2556.89
965.81	2455.92
965.98	2547.26
966.14	2253.79
966.31	2080.12
966.48	2031.18
966.65	2284.10
966.81	2151.19
966.98	1978.54
967.15	1993.29
967.32	2036.70
967.49	1957.86
967.65	1812.25
967.82	1776.82
967.99	1980.39
968.16	1855.46
968.32	2027.90
968.49	1872.05
968.66	1955.61
968.83	2147.50
968.99	1923.25
969.16	1824.94
969.33	2126.20
969.50	2018.48
969.66	1937.58
969.83	2029.13
970.00	2003.32
970.17	1920.18
970.33	1802.62
970.50	1708.62
970.67	2091.18
970.84	2076.44
971.00	1730.12
971.17	1689.57
971.34	1950.69
971.50	1892.53
971.67	1889.46
971.84	1824.74
972.01	1729.30
972.17	1645.95
972.34	1738.32
972.51	1870.61
972.67	2009.06
972.84	1913.62
973.01	1740.16
973.18	1748.97
973.34	1976.90
973.51	1778.05
973.68	1777.43
973.84	1808.77
974.01	1833.14
974.18	2083.40
974.34	1875.73
974.51	1871.43
974.68	1779.28
974.85	2107.56
975.01	1875.32
975.18	1779.07
975.35	1882.08
975.51	1790.54
975.68	1630.39
975.85	1924.89
976.01	1802.01
976.18	2075.00
976.35	1781.73
976.51	1721.11
976.68	2099.17
976.85	2015.82
977.01	1815.11
977.18	1858.12
977.35	1995.54
977.51	1757.98
977.68	1651.69
977.85	1726.44
978.01	2036.70
978.18	2013.97
978.35	1873.89
978.51	1845.02
978.68	2051.45
978.85	2149.34
979.01	1819.01
979.18	1875.32
979.34	1883.31
979.51	1926.11
979.68	1760.64
979.84	1846.65
980.01	2205.05
980.18	1913.62
980.34	1754.09
980.51	1873.89
980.67	2021.14
980.84	1988.78
981.01	1831.70
981.17	1898.26
981.34	1701.45
981.51	1999.43
981.67	1743.64
981.84	1918.74
982.00	1949.87
982.17	1871.23
982.34	1671.35
982.50	1591.68
982.67	2069.88
982.83	1826.17
983.00	1703.09
983.17	1591.89
983.33	2032.20
983.50	1691.62
983.66	1690.80
983.83	1613.80
984.00	1828.02
984.16	1869.18
984.33	1608.88
984.49	1594.14
984.66	1771.70
984.83	1984.07
984.99	1641.24
985.16	1616.26
985.32	1942.70
985.49	1973.01
985.65	1754.49
985.82	1607.25
985.99	2090.77
986.15	1895.80
986.32	1695.72
986.48	1652.71
986.65	1818.19
986.81	1981.20
986.98	1610.73
987.14	1695.92
987.31	1905.23
987.48	1700.84
987.64	1532.29
987.81	1610.52
987.97	2119.65
988.14	1773.13
988.30	1641.65
988.47	1511.61
988.63	1927.96
988.80	1730.12
988.96	1671.76
989.13	1728.49
989.30	1833.34
989.46	1993.08
989.63	1580.83
989.79	1580.62
989.96	1857.30
990.12	2052.88
990.29	1656.40
990.45	1685.89
990.62	1886.79
990.78	2021.55
990.95	1743.44
991.11	1658.65
991.28	1827.20
991.44	1888.02
991.61	1568.13
991.77	1721.11
991.94	1877.37
992.10	2007.83
992.27	1691.01
992.43	1656.19
992.60	1946.59
992.76	1831.50
992.93	1786.85
993.09	1606.02
993.26	1995.75
993.42	2082.37
993.59	1644.93
993.75	1587.59
993.92	1779.28
994.08	1788.70
994.25	1718.86
994.41	1614.41
994.58	1942.29
994.74	2045.10
994.91	1602.33
995.07	1729.10
995.24	1832.52
995.40	1874.92
995.56	1769.04
995.73	1731.97
995.89	2076.44
996.06	1846.04
996.22	1634.07
996.39	1559.12
996.55	1858.53
996.72	1936.76
996.88	1588.81
997.05	1649.84
997.21	2122.51
997.37	1937.38
997.54	1691.83
997.70	1681.79
997.87	1910.96
998.03	1848.91
998.20	1548.06
998.36	1566.08
998.52	1953.76
998.69	1982.02
998.85	1571.61
999.02	1670.12
999.18	1978.54
999.35	1986.12
999.51	1661.93
999.67	1652.71
999.84	1747.74
1000.00	1963.39
1000.17	1746.10
1000.33	1614.62
1000.49	1812.45
1000.66	1868.36
1000.82	1632.03
1000.99	1725.41
1001.15	2007.83
1001.31	1839.28
1001.48	1660.49
1001.64	1719.27
1001.81	1835.39
1001.97	2140.54
1002.13	1641.86
1002.30	1653.12
1002.46	2033.22
1002.63	1843.17
1002.79	1725.82
1002.95	1637.76
1003.12	2013.15
1003.28	1918.95
1003.45	1615.64
1003.61	1600.49
1003.77	1899.08
1003.94	1712.72
1004.10	1655.37
1004.26	1714.56
1004.43	1910.75
1004.59	2081.97
1004.75	1639.81
1004.92	1618.92
1005.08	1788.90
1005.25	1896.83
1005.41	1642.47
1005.57	1710.46
1005.74	1998.20
1005.90	1825.97
1006.06	1769.65
1006.23	1650.87
1006.39	1959.29
1006.55	2220.61
1006.72	1781.73
1006.88	1610.32
1007.04	1760.43
1007.21	1838.87
1007.37	1681.59
1007.53	1666.64
1007.70	2066.40
1007.86	1979.57
1008.02	1712.92
1008.19	1611.14
1008.35	1900.72
1008.51	1765.55
1008.68	1662.13
1008.84	1592.30
1009.00	1776.00
1009.17	1995.75
1009.33	1752.65
1009.49	1728.08
1009.65	1756.34
1009.82	1933.90
1009.98	1714.56
1010.14	1566.70
1010.31	1950.69
1010.47	1941.47
1010.63	1723.78
1010.80	1719.68
1010.96	1941.06
1011.12	1871.64
1011.28	1659.06
1011.45	1634.48
1011.61	2222.05
1011.77	1756.75
1011.94	1617.28
1012.10	1600.69
1012.26	1750.19
1012.42	1776.41
1012.59	1683.23
1012.75	1682.61
1012.91	1857.10
1013.07	1968.71
1013.24	1582.06
1013.40	1650.25
1013.56	1875.12
1013.72	1842.15
1013.89	1703.91
1014.05	1706.78
1014.21	2099.78
1014.37	2164.91
1014.54	1700.63
1014.70	1623.83
1014.86	1857.30
1015.02	1770.06
1015.19	1655.99
1015.35	1572.64
1015.51	1854.03
1015.67	1833.75
1015.84	1663.16
1016.00	1655.37
1016.16	2004.35
1016.32	1974.04
1016.49	1632.85
1016.65	1617.69
1016.81	1845.83
1016.97	1946.59
1017.14	1762.89
1017.30	1639.81
1017.46	1831.29
1017.62	1900.52
1017.78	1714.15
1017.95	1617.90
1018.11	1970.35
1018.27	2172.49
1018.43	1759.00
1018.59	1710.67
1018.76	1977.11
1018.92	2223.68
1019.08	1647.39
1019.24	1671.96
1019.40	2054.32
1019.57	1909.94
1019.73	1765.14
1019.89	1653.12
1020.05	1892.53
1020.21	2138.49
1020.38	1634.69
1020.54	1785.01
1020.70	1957.65
1020.86	1963.80
1021.02	1652.71
1021.18	1632.03
1021.35	1804.47
1021.51	1933.49
1021.67	1786.44
1021.83	1669.91
1021.99	1886.38
1022.15	1910.55
1022.32	1736.27
1022.48	1719.47
1022.64	2020.73
1022.80	2071.52
1022.96	1707.19
1023.12	1605.61
1023.29	2007.83
1023.45	1908.30
1023.61	1618.10
1023.77	1784.60
1023.93	1907.89
1024.09	1774.56
1024.25	1627.11
1024.42	1628.75
1024.58	1813.89
1024.74	1909.12
1024.90	1650.05
1025.06	1712.10
1025.22	1814.50
1025.38	2062.10
1025.54	1611.55
1025.71	1733.81
1025.87	1951.92
1026.03	1934.31
1026.19	1616.05
1026.35	1783.78
1026.51	1937.79
1026.67	1882.49
1026.83	1682.00
1026.99	1756.34
1027.16	1933.08
1027.32	1853.82
1027.48	1680.97
1027.64	1630.59
1027.80	1953.35
1027.96	1893.35
1028.12	1645.95
1028.28	1633.87
1028.44	1900.11
1028.60	2047.56
1028.77	1776.61
1028.93	1702.68
1029.09	1796.89
1029.25	1733.81
1029.41	1701.66
1029.57	1717.43
1029.73	1889.05
1029.89	2080.94
1030.05	1767.60
1030.21	1752.86
1030.37	2136.85
1030.53	1952.33
1030.69	1687.73
1030.85	1607.25
1031.02	1745.28
1031.18	1860.17
1031.34	1683.23
1031.50	1742.00
1031.66	1785.83
1031.82	2050.43
1031.98	1701.66
1032.14	1617.90
1032.30	1776.61
1032.46	1979.77
1032.62	1764.53
1032.78	1609.50
1032.94	1818.39
1033.10	1835.18
1033.26	1718.66
1033.42	1733.81
1033.58	2149.75
1033.74	1841.53
1033.90	1659.47
1034.06	1823.92
1034.22	2150.98
1034.38	2002.30
1034.54	1703.91
1034.70	1700.02
1034.86	2093.64
>>>>>End Processed Spectral Data<<<<<
