SpectraSuite Data File
++++++++++++++++++++++++++++++++++++
Date: Thu Mar 30 16:03:36 PDT 2017
User: UCSD _CER
Dark Spectrum Present: No
Reference Spectrum Present: No
Number of Sampled Component Spectra: 1
Spectrometers: USB4C00073
Integration Time (usec): 250000 (USB4C00073)
Spectra Averaged: 10 (USB4C00073)
Boxcar Smoothing: 0 (USB4C00073)
Correct for Electrical Dark: No (USB4C00073)
Strobe/Lamp Enabled: No (USB4C00073)
Correct for Detector Non-linearity: No (USB4C00073)
Correct for Stray Light: No (USB4C00073)
Number of Pixels in Processed Spectrum: 3648
>>>>>Begin Processed Spectral Data<<<<<
345.37	1283.67
345.58	1283.67
345.80	1283.67
346.01	1265.64
346.22	1273.22
346.43	1970.15
346.65	1757.77
346.86	2138.49
347.07	2094.25
347.28	1798.73
347.50	1816.14
347.71	1937.38
347.92	1712.72
348.13	1809.99
348.35	1706.98
348.56	1906.66
348.77	1772.11
348.98	1809.18
349.20	1656.60
349.41	1902.77
349.62	2004.76
349.83	1859.76
350.05	1723.37
350.26	1966.87
350.47	2079.92
350.68	1779.68
350.90	1724.80
351.11	2104.29
351.32	2072.13
351.53	1829.86
351.75	1722.34
351.96	1929.19
352.17	1896.62
352.38	1858.74
352.60	1849.32
352.81	1913.62
353.02	2129.89
353.23	1779.48
353.44	1797.30
353.66	1827.40
353.87	1900.31
354.08	1874.71
354.29	1816.96
354.51	1842.15
354.72	1888.23
354.93	1794.84
355.14	1719.27
355.35	1737.70
355.57	2020.12
355.78	1812.25
355.99	1844.40
356.20	1900.11
356.42	1914.85
356.63	1885.97
356.84	1814.30
357.05	2013.97
357.26	2183.54
357.48	1894.58
357.69	1837.64
357.90	1948.23
358.11	1848.09
358.32	1808.56
358.54	1838.87
358.75	1856.07
358.96	1984.69
359.17	1793.00
359.38	1812.86
359.60	1980.80
359.81	1898.67
360.02	1819.01
360.23	1746.30
360.44	1832.11
360.66	2038.75
360.87	1769.04
361.08	1731.35
361.29	1960.93
361.50	1926.32
361.72	1762.07
361.93	1854.44
362.14	1911.16
362.35	1740.98
362.56	1917.10
362.77	1725.82
362.99	2002.50
363.20	1952.12
363.41	1867.13
363.62	1709.64
363.83	1984.28
364.05	2002.91
364.26	1681.18
364.47	1753.88
364.68	2060.05
364.89	1826.38
365.10	1717.84
365.32	1816.96
365.53	1797.91
365.74	1860.78
365.95	1813.48
366.16	1677.49
366.37	1897.24
366.59	1885.97
366.80	1798.32
367.01	1703.91
367.22	2158.15
367.43	2259.52
367.64	1830.27
367.86	1788.70
368.07	1967.48
368.28	2067.83
368.49	1709.23
368.70	1837.85
368.91	1870.00
369.12	1889.25
369.34	1704.93
369.55	1711.28
369.76	1894.78
369.97	1853.82
370.18	1742.21
370.39	1721.73
370.60	1751.42
370.82	1793.20
371.03	1798.94
371.24	1754.70
371.45	1994.72
371.66	1968.92
371.87	1796.27
372.08	1766.37
372.30	1777.64
372.51	1999.02
372.72	1891.71
372.93	1759.41
373.14	2103.06
373.35	1774.16
373.56	1757.57
373.78	1820.44
373.99	2027.49
374.20	2266.90
374.41	1811.63
374.62	1806.31
374.83	2076.23
375.04	1862.63
375.25	1811.63
375.47	1766.37
375.68	1861.40
375.89	1997.18
376.10	1814.09
376.31	1900.92
376.52	1976.49
376.73	1953.76
376.94	1791.56
377.15	1764.12
377.37	1922.02
377.58	1841.74
377.79	1667.66
378.00	1729.10
378.21	1908.91
378.42	1970.56
378.63	1824.33
378.84	1857.51
379.05	2022.98
379.27	1921.40
379.48	1924.68
379.69	1729.92
379.90	2029.13
380.11	1668.48
380.32	1795.66
380.53	1902.97
380.74	2069.06
380.95	1924.27
381.16	1801.80
381.37	1771.90
381.59	2099.58
381.80	2017.45
382.01	1768.83
382.22	1678.92
382.43	1937.99
382.64	1925.91
382.85	1739.34
383.06	1841.33
383.27	1956.42
383.48	1898.47
383.69	1842.15
383.91	1736.68
384.12	1972.81
384.33	1958.68
384.54	1815.11
384.75	1693.06
384.96	2273.86
385.17	1988.99
385.38	1757.57
385.59	1782.76
385.80	1982.02
386.01	2093.84
386.22	1870.00
386.43	1800.37
386.64	2174.12
386.86	1873.69
387.07	1929.19
387.28	1722.55
387.49	1832.11
387.70	2060.87
387.91	1868.57
388.12	1730.33
388.33	1952.33
388.54	1868.36
388.75	1776.61
388.96	1856.28
389.17	1834.37
389.38	1891.09
389.59	1855.66
389.80	1798.32
390.01	1886.79
390.22	1857.71
390.43	1882.70
390.64	1678.72
390.86	1943.93
391.07	2056.16
391.28	1800.98
391.49	1833.55
391.70	1747.12
391.91	1816.96
392.12	1798.73
392.33	1811.84
392.54	1890.07
392.75	1854.44
392.96	1872.25
393.17	1768.22
393.38	2198.49
393.59	2043.67
393.80	1721.73
394.01	1838.87
394.22	1925.71
394.43	2196.86
394.64	1802.21
394.85	1954.99
395.06	1934.10
395.27	1952.33
395.48	1828.43
395.69	1745.89
395.90	1871.64
396.11	1889.66
396.32	1757.16
396.53	1920.18
396.74	1867.13
396.95	2041.21
397.16	1753.27
397.37	1704.11
397.58	2014.59
397.79	1887.82
398.00	1853.62
398.21	1797.71
398.42	1932.05
398.63	2160.81
398.84	1805.28
399.05	1769.04
399.26	2086.88
399.47	1960.32
399.68	1651.69
399.89	1739.34
400.10	1761.46
400.31	1840.30
400.52	1806.10
400.73	1760.23
400.94	1721.73
401.15	1950.90
401.36	1800.16
401.57	1847.06
401.78	2026.87
401.99	2034.66
402.20	1707.80
402.41	1909.53
402.62	2093.84
402.83	1863.86
403.04	1761.25
403.25	1951.71
403.46	1974.45
403.67	2116.37
403.88	1850.13
404.09	1852.80
404.30	1895.80
404.51	1879.01
404.72	1770.26
404.93	1920.79
405.14	1824.33
405.35	1901.74
405.56	1821.26
405.77	1767.19
405.98	1932.46
406.19	1881.06
406.40	1737.70
406.61	1768.83
406.82	1800.98
407.03	2171.46
407.24	1714.35
407.45	1822.08
407.66	1926.52
407.87	2007.42
408.08	1858.12
408.29	1889.25
408.49	1983.87
408.70	1878.81
408.91	1817.98
409.12	1876.35
409.33	1768.01
409.54	2074.80
409.75	1768.42
409.96	1772.72
410.17	2021.35
410.38	1888.23
410.59	1795.86
410.80	1868.98
411.01	1887.00
411.22	1857.51
411.43	1878.60
411.64	1762.89
411.85	1807.74
412.06	1814.71
412.27	1614.21
412.47	1758.39
412.68	1894.37
412.89	1948.44
413.10	1770.88
413.31	1715.58
413.52	2142.79
413.73	2156.51
413.94	1731.76
414.15	1922.22
414.36	1826.17
414.57	1810.61
414.78	1727.26
414.99	1939.63
415.19	2321.37
415.40	2354.34
415.61	2439.34
415.82	2281.44
416.03	2338.99
416.24	2201.57
416.45	1968.51
416.66	1868.98
416.87	1775.79
417.08	1976.09
417.29	1792.79
417.50	1876.76
417.70	2054.32
417.91	2028.51
418.12	1954.79
418.33	1971.58
418.54	2127.84
418.75	2268.74
418.96	2220.00
419.17	2294.13
419.38	2687.96
419.59	2629.80
419.79	2503.64
420.00	2417.63
420.21	2653.55
420.42	2181.29
420.63	1989.81
420.84	1983.87
421.05	1940.66
421.26	1912.39
421.47	1756.54
421.67	2053.50
421.88	1795.25
422.09	1755.11
422.30	1933.90
422.51	1837.44
422.72	2118.01
422.93	1983.87
423.14	1806.92
423.35	1705.75
423.55	1701.86
423.76	1790.33
423.97	1824.33
424.18	1695.92
424.39	1887.61
424.60	2050.02
424.81	1841.33
425.02	1964.00
425.22	1994.52
425.43	2010.90
425.64	2148.73
425.85	2077.46
426.06	2407.39
426.27	2228.60
426.48	2191.33
426.68	2169.21
426.89	2288.20
427.10	2365.20
427.31	1985.51
427.52	1839.69
427.73	2049.61
427.94	1991.65
428.14	1884.75
428.35	1798.53
428.56	2076.64
428.77	2033.63
428.98	1890.28
429.19	1946.80
429.40	2001.48
429.60	2037.52
429.81	2090.36
430.02	2024.42
430.23	1989.60
430.44	2067.63
430.65	1831.09
430.85	1874.51
431.06	1980.59
431.27	1731.15
431.48	1810.20
431.69	1829.25
431.90	1891.91
432.10	1906.45
432.31	1874.71
432.52	1828.22
432.73	2330.59
432.94	2284.10
433.15	2125.79
433.35	2010.49
433.56	2218.36
433.77	2034.66
433.98	2012.33
434.19	1888.84
434.40	1979.36
434.60	1926.93
434.81	1820.03
435.02	1869.18
435.23	1909.32
435.44	1836.82
435.64	1688.55
435.85	1749.58
436.06	1889.46
436.27	1852.59
436.48	1711.49
436.68	1765.35
436.89	2104.70
437.10	1981.61
437.31	1820.64
437.52	1908.50
437.73	1907.27
437.93	1906.66
438.14	1880.04
438.35	1686.09
438.56	1845.63
438.77	1863.24
438.97	1947.82
439.18	1727.46
439.39	2042.85
439.60	1739.75
439.80	1692.03
440.01	1838.46
440.22	1824.33
440.43	1976.09
440.64	1728.90
440.84	1802.62
441.05	1754.90
441.26	2259.52
441.47	1852.39
441.68	1769.65
441.88	1865.29
442.09	1881.47
442.30	1958.68
442.51	1858.94
442.71	1859.35
442.92	1926.93
443.13	1742.62
443.34	1736.47
443.55	1780.71
443.75	1969.12
443.96	1759.82
444.17	1733.40
444.38	2031.58
444.58	1804.06
444.79	1870.41
445.00	1840.92
445.21	1850.75
445.41	1878.81
445.62	1633.26
445.83	1878.81
446.04	1909.53
446.24	1742.41
446.45	1637.35
446.66	1792.59
446.87	1926.93
447.07	1858.94
447.28	1976.29
447.49	1831.29
447.70	1995.54
447.90	1997.79
448.11	1801.19
448.32	1887.61
448.53	2087.08
448.73	2094.46
448.94	1789.11
449.15	1928.37
449.36	1925.71
449.56	1951.71
449.77	1782.96
449.98	1713.54
450.19	1883.31
450.39	1912.19
450.60	1934.31
450.81	1910.96
451.02	1960.32
451.22	2157.74
451.43	1807.13
451.64	1832.32
451.84	1915.87
452.05	2070.91
452.26	1874.92
452.47	1834.78
452.67	1866.93
452.88	2093.43
453.09	1773.13
453.30	1703.50
453.50	1999.84
453.71	2111.66
453.92	1796.48
454.12	1917.92
454.33	1824.13
454.54	1878.19
454.75	1759.00
454.95	1739.34
455.16	1918.54
455.37	2008.65
455.57	1844.61
455.78	1834.16
455.99	1885.36
456.19	1910.14
456.40	1728.28
456.61	1826.38
456.82	1913.42
457.02	1984.28
457.23	1857.92
457.44	1985.51
457.64	1818.80
457.85	1962.16
458.06	1819.21
458.26	1878.81
458.47	1895.80
458.68	2009.88
458.89	1748.15
459.09	1955.61
459.30	2189.89
459.51	1964.21
459.71	1735.65
459.92	1763.30
460.13	2008.24
460.33	2175.56
460.54	1762.48
460.75	1805.08
460.95	1764.12
461.16	1955.61
461.37	1790.33
461.57	1842.97
461.78	1927.34
461.99	1768.01
462.19	2028.31
462.40	1793.00
462.61	2205.25
462.81	2059.85
463.02	1782.14
463.23	1823.51
463.43	2011.31
463.64	1853.82
463.85	2706.80
464.05	1811.63
464.26	2322.60
464.47	2067.22
464.67	2004.76
464.88	1878.19
465.09	1785.21
465.29	1933.69
465.50	1923.86
465.71	1827.20
465.91	1839.08
466.12	1876.55
466.33	1873.28
466.53	1796.89
466.74	2079.30
466.94	1850.75
467.15	1838.87
467.36	2001.28
467.56	1801.39
467.77	1914.24
467.98	1836.00
468.18	1798.32
468.39	1847.88
468.60	2143.61
468.80	1838.05
469.01	1774.97
469.21	1953.15
469.42	2037.32
469.63	1838.67
469.83	1791.56
470.04	2046.54
470.25	2141.36
470.45	1908.09
470.66	1797.91
470.86	1951.30
471.07	1868.57
471.28	1894.58
471.48	1952.12
471.69	1944.34
471.90	2376.67
472.10	1805.08
472.31	1816.75
472.51	1801.80
472.72	1818.39
472.93	1743.85
473.13	1918.74
473.34	1930.42
473.54	1873.07
473.75	1823.31
473.96	1988.37
474.16	1900.11
474.37	1975.68
474.57	1909.53
474.78	1817.57
474.99	1989.19
475.19	1991.85
475.40	1809.59
475.60	1746.51
475.81	2074.39
476.02	1871.43
476.22	1898.26
476.43	1985.51
476.63	1933.69
476.84	2099.37
477.05	1706.57
477.25	1823.10
477.46	2309.08
477.66	1909.32
477.87	1700.43
478.08	1820.44
478.28	2012.95
478.49	1873.89
478.69	1791.36
478.90	1832.32
479.10	1968.10
479.31	2086.88
479.52	1867.34
479.72	1968.92
479.93	1969.53
480.13	1861.40
480.34	1769.04
480.54	1891.50
480.75	1790.74
480.96	2054.52
481.16	1765.96
481.37	1940.04
481.57	2033.84
481.78	1926.93
481.98	2019.30
482.19	1885.16
482.40	2126.20
482.60	1997.59
482.81	1949.46
483.01	1811.84
483.22	2068.24
483.42	2083.60
483.63	1930.01
483.83	1898.06
484.04	1847.06
484.24	1997.79
484.45	1906.45
484.66	1725.62
484.86	1939.43
485.07	1850.13
485.27	1864.47
485.48	1805.28
485.68	2057.18
485.89	1837.44
486.09	1883.72
486.30	1835.59
486.50	1928.37
486.71	1940.86
486.91	1914.65
487.12	1962.98
487.33	2218.56
487.53	2210.37
487.74	1968.10
487.94	1946.18
488.15	2044.69
488.35	2116.78
488.56	1976.90
488.76	1935.94
488.97	2016.84
489.17	2058.21
489.38	1909.94
489.58	1873.07
489.79	1997.18
489.99	1994.11
490.20	1885.56
490.40	1940.86
490.61	1983.25
490.81	1832.93
491.02	1860.37
491.22	1935.74
491.43	2021.96
491.63	1912.80
491.84	1982.23
492.04	1754.90
492.25	2001.28
492.45	1890.68
492.66	1785.83
492.86	1720.91
493.07	1901.74
493.27	2170.85
493.48	1712.10
493.68	1843.99
493.89	1887.82
494.09	2020.32
494.30	1783.58
494.50	2072.13
494.71	2008.65
494.91	1775.18
495.12	1888.23
495.32	1991.04
495.53	1965.64
495.73	1755.72
495.94	1843.17
496.14	1729.71
496.35	2115.55
496.55	1859.15
496.76	1815.73
496.96	1891.30
497.17	1905.84
497.37	1961.95
497.58	1815.11
497.78	1765.35
497.98	1898.06
498.19	1930.21
498.39	1898.67
498.60	1930.82
498.80	1743.44
499.01	2037.11
499.21	1776.61
499.42	1871.23
499.62	1862.01
499.83	2191.53
500.03	1750.40
500.24	1928.98
500.44	2092.20
500.64	2047.97
500.85	1795.45
501.05	1925.09
501.26	1731.35
501.46	2095.28
501.67	1792.79
501.87	1756.54
502.08	1812.66
502.28	1859.56
502.48	1899.49
502.69	1959.70
502.89	1746.71
503.10	1856.48
503.30	1904.41
503.51	1916.49
503.71	1795.04
503.92	2038.55
504.12	1946.18
504.32	1879.42
504.53	2060.67
504.73	2115.14
504.94	2042.44
505.14	2130.30
505.35	2125.79
505.55	2097.94
505.75	2021.96
505.96	2103.88
506.16	2280.62
506.37	1926.73
506.57	1839.69
506.78	1947.82
506.98	2083.60
507.18	1794.43
507.39	1772.52
507.59	1893.55
507.80	1882.90
508.00	1963.59
508.20	2028.10
508.41	1907.07
508.61	2089.75
508.82	2041.42
509.02	1972.19
509.22	1774.16
509.43	1783.17
509.63	1820.64
509.84	1872.46
510.04	1754.29
510.24	2106.13
510.45	1994.72
510.65	1780.91
510.86	1863.45
511.06	1797.09
511.26	2054.73
511.47	1981.82
511.67	1853.21
511.88	1998.82
512.08	2064.35
512.28	1774.77
512.49	1935.94
512.69	1939.02
512.90	1933.49
513.10	1809.99
513.30	1903.59
513.51	1968.10
513.71	2128.04
513.91	1921.20
514.12	1915.47
514.32	2050.43
514.53	1893.55
514.73	2000.05
514.93	1931.03
515.14	2054.32
515.34	2223.27
515.54	2058.82
515.75	2159.38
515.95	2255.84
516.15	2328.95
516.36	2100.60
516.56	2073.16
516.77	1756.34
516.97	2042.23
517.17	1898.67
517.38	2000.66
517.58	2175.56
517.78	1983.46
517.99	2109.41
518.19	2164.09
518.39	2404.72
518.60	2216.11
518.80	2076.23
519.00	2127.43
519.21	2027.08
519.41	2222.87
519.61	1884.54
519.82	1972.40
520.02	1981.41
520.22	1965.64
520.43	1925.09
520.63	1917.92
520.83	1906.45
521.04	1812.45
521.24	2077.46
521.44	2080.53
521.65	2132.75
521.85	2309.70
522.05	2092.00
522.26	1997.59
522.46	2299.66
522.66	2167.16
522.87	1902.77
523.07	2051.66
523.27	1938.40
523.48	2146.89
523.68	1958.27
523.88	1957.04
524.09	2112.68
524.29	2025.24
524.49	1841.94
524.70	2149.55
524.90	2257.48
525.10	2190.10
525.31	1880.24
525.51	1851.98
525.71	2076.64
525.91	2012.33
526.12	1824.94
526.32	1759.00
526.52	1882.90
526.73	1838.46
526.93	1910.75
527.13	1759.41
527.34	1943.52
527.54	1911.78
527.74	1860.78
527.94	1818.19
528.15	1833.34
528.35	1943.11
528.55	1957.65
528.76	1948.03
528.96	1744.46
529.16	2032.20
529.36	1972.81
529.57	1773.13
529.77	2047.56
529.97	1776.61
530.18	1936.76
530.38	1877.78
530.58	1995.95
530.78	1947.41
530.99	1842.15
531.19	1967.28
531.39	1850.54
531.60	1933.28
531.80	1865.90
532.00	2006.80
532.20	1941.06
532.41	1863.86
532.61	1840.10
532.81	1863.04
533.01	1892.94
533.22	1959.91
533.42	1993.70
533.62	1705.14
533.82	2069.06
534.03	1907.89
534.23	1945.16
534.43	1810.81
534.63	1874.30
534.84	1938.81
535.04	1892.94
535.24	1871.64
535.44	2220.82
535.65	1846.65
535.85	1817.37
536.05	1812.45
536.25	1877.78
536.46	1840.30
536.66	2042.64
536.86	1936.35
537.06	2041.01
537.27	2112.68
537.47	1980.18
537.67	1863.86
537.87	2083.81
538.08	1889.05
538.28	1814.71
538.48	1806.92
538.68	1918.13
538.88	2027.08
539.09	1773.34
539.29	1878.19
539.49	2037.52
539.69	1983.87
539.90	1943.52
540.10	1803.85
540.30	2120.47
540.50	1916.08
540.70	1800.57
540.91	1911.78
541.11	2089.13
541.31	2217.75
541.51	2028.72
541.72	2082.58
541.92	2120.47
542.12	1946.80
542.32	1934.92
542.52	1884.95
542.73	1883.11
542.93	2022.57
543.13	1892.12
543.33	1995.13
543.53	2090.98
543.74	2105.93
543.94	1952.12
544.14	2119.44
544.34	2235.97
544.54	2133.37
544.75	2191.33
544.95	2333.66
545.15	2268.74
545.35	2297.62
545.55	2135.62
545.75	1956.83
545.96	2282.05
546.16	1908.09
546.36	1941.47
546.56	1959.09
546.76	2101.01
546.97	2166.96
547.17	1914.85
547.37	1987.76
547.57	1888.23
547.77	2032.40
547.97	1920.38
548.18	1956.01
548.38	1957.04
548.58	2303.56
548.78	2270.17
548.98	2513.06
549.18	2765.99
549.39	2912.01
549.59	2617.71
549.79	2441.38
549.99	2541.12
550.19	2388.96
550.39	2272.02
550.60	2113.71
550.80	2134.19
551.00	2112.48
551.20	1958.68
551.40	1905.23
551.60	2024.42
551.80	1985.71
552.01	2067.83
552.21	1965.23
552.41	2008.65
552.61	2198.08
552.81	1968.92
553.01	1827.81
553.21	1979.36
553.42	1820.85
553.62	1842.35
553.82	1820.64
554.02	2118.42
554.22	2016.63
554.42	1801.19
554.62	1952.74
554.83	2232.49
555.03	2403.70
555.23	2281.03
555.43	2573.07
555.63	2506.30
555.83	2418.24
556.03	2242.12
556.23	2058.82
556.44	2226.55
556.64	2353.53
556.84	1925.09
557.04	2119.85
557.24	2160.61
557.44	2081.15
557.64	2038.75
557.84	1904.61
558.04	1933.49
558.25	2068.45
558.45	1889.66
558.65	1972.60
558.85	2003.12
559.05	1804.67
559.25	1961.34
559.45	2080.12
559.65	2414.56
559.85	2858.76
560.05	2254.61
560.26	2327.72
560.46	2332.43
560.66	2210.78
560.86	2098.76
561.06	2015.41
561.26	2265.87
561.46	2125.18
561.66	1978.34
561.86	2073.57
562.06	1923.25
562.26	1983.05
562.47	1986.73
562.67	1822.08
562.87	2031.99
563.07	1773.13
563.27	1968.30
563.47	1962.16
563.67	1930.62
563.87	2072.95
564.07	1942.70
564.27	2012.13
564.47	2111.25
564.67	2175.15
564.87	2020.12
565.08	2131.53
565.28	2002.30
565.48	2115.96
565.68	2068.86
565.88	2031.58
566.08	2216.72
566.28	1932.87
566.48	1786.03
566.68	1888.23
566.88	1878.19
567.08	2051.25
567.28	1943.32
567.48	1929.60
567.68	2047.56
567.88	1843.99
568.08	2033.43
568.28	2120.06
568.48	1976.49
568.68	2150.78
568.89	1991.24
569.09	1780.50
569.29	2049.40
569.49	2044.49
569.69	1855.66
569.89	1811.84
570.09	1743.03
570.29	1833.55
570.49	1771.49
570.69	1834.78
570.89	2030.15
571.09	2196.24
571.29	1744.66
571.49	2014.79
571.69	1933.69
571.89	1976.70
572.09	1847.88
572.29	1836.82
572.49	1988.78
572.69	2001.07
572.89	1904.41
573.09	1727.05
573.29	1985.30
573.49	2039.78
573.69	2006.80
573.89	2097.53
574.09	1924.89
574.29	2138.08
574.49	1884.54
574.69	1863.24
574.89	1809.59
575.09	1802.21
575.29	1799.75
575.49	1889.87
575.69	1938.40
575.89	1768.22
576.09	1911.57
576.29	1930.21
576.49	1823.51
576.69	1933.28
576.89	1849.93
577.09	1936.97
577.29	1777.02
577.49	2199.72
577.69	1843.58
577.89	1971.37
578.09	1937.99
578.29	1729.10
578.49	1886.38
578.69	1806.72
578.89	2044.69
579.09	1937.17
579.29	1815.32
579.49	2032.20
579.69	1909.32
579.89	2152.62
580.09	1744.87
580.29	1754.49
580.49	1880.44
580.69	1790.13
580.89	1876.96
581.09	1866.52
581.29	1828.22
581.49	1905.84
581.69	1767.40
581.89	1798.12
582.09	1807.33
582.28	1822.90
582.48	1974.24
582.68	2080.94
582.88	2150.98
583.08	1939.22
583.28	1931.64
583.48	1926.73
583.68	1881.67
583.88	1967.89
584.08	1940.25
584.28	1885.16
584.48	2148.11
584.68	1964.62
584.88	1866.11
585.08	2019.09
585.28	2027.08
585.48	2093.23
585.68	1988.99
585.87	1992.67
586.07	2013.15
586.27	1924.89
586.47	2001.07
586.67	1903.59
586.87	1906.04
587.07	1880.24
587.27	1815.73
587.47	1958.47
587.67	2174.94
587.87	2469.44
588.07	2240.48
588.27	2195.01
588.46	2426.84
588.66	2435.03
588.86	2201.57
589.06	2179.86
589.26	2197.27
589.46	2126.41
589.66	1909.94
589.86	1880.85
590.06	1973.42
590.26	2102.85
590.46	1980.18
590.66	2126.20
590.85	2071.73
591.05	2161.63
591.25	1946.59
591.45	1973.01
591.65	2103.88
591.85	2084.63
592.05	2029.54
592.25	2161.84
592.45	2226.55
592.64	2073.98
592.84	2079.51
593.04	1915.87
593.24	2353.94
593.44	1993.90
593.64	2056.78
593.84	2101.01
594.04	1996.36
594.24	2204.43
594.43	1905.84
594.63	1943.73
594.83	2055.75
595.03	2034.04
595.23	1821.05
595.43	1780.09
595.63	1841.53
595.83	2045.72
596.02	1723.78
596.22	1912.39
596.42	2002.09
596.62	1917.51
596.82	1895.40
597.02	2003.32
597.22	2098.55
597.41	1953.35
597.61	1865.90
597.81	2051.04
598.01	2062.30
598.21	1937.58
598.41	1931.85
598.61	1880.85
598.80	2005.37
599.00	2038.96
599.20	2101.01
599.40	1913.01
599.60	1968.51
599.80	2095.48
599.99	2136.65
600.19	1957.65
600.39	1968.71
600.59	2052.88
600.79	1972.81
600.99	1988.17
601.19	2161.02
601.38	2235.15
601.58	2014.38
601.78	1765.55
601.98	2185.39
602.18	2608.29
602.37	3068.47
602.57	3153.87
602.77	3430.35
602.97	3506.33
603.17	3386.73
603.37	3187.46
603.56	3246.85
603.76	3147.32
603.96	3029.15
604.16	2928.60
604.36	2808.79
604.56	2641.47
604.75	2294.54
604.95	2317.28
605.15	2406.36
605.35	2324.24
605.55	2099.37
605.74	2015.41
605.94	2222.66
606.14	2036.70
606.34	2033.22
606.54	1947.00
606.73	1892.32
606.93	2026.26
607.13	1858.53
607.33	1941.27
607.53	2090.57
607.72	2049.40
607.92	2011.31
608.12	2027.08
608.32	1944.55
608.51	2062.10
608.71	1872.66
608.91	2007.01
609.11	2103.88
609.31	2016.43
609.50	2126.20
609.70	2300.28
609.90	2256.45
610.10	2267.51
610.29	2101.01
610.49	1983.46
610.69	2145.86
610.89	2060.87
611.09	2035.48
611.28	2131.73
611.48	2121.90
611.68	1947.82
611.88	1898.06
612.07	1873.48
612.27	2054.32
612.47	1888.23
612.67	1975.88
612.86	2027.69
613.06	1900.11
613.26	1744.05
613.46	1921.40
613.65	1977.52
613.85	2386.29
614.05	2137.87
614.25	2148.73
614.44	2020.94
614.64	2050.63
614.84	1968.92
615.04	1926.52
615.23	1962.36
615.43	2073.36
615.63	2097.73
615.83	1900.72
616.02	1866.31
616.22	2177.81
616.42	2018.89
616.62	2046.13
616.81	2113.30
617.01	2202.80
617.21	2142.58
617.41	1971.37
617.60	2029.13
617.80	2097.32
618.00	2095.69
618.19	1993.49
618.39	2019.71
618.59	2025.03
618.79	1921.20
618.98	1735.86
619.18	1860.37
619.38	2173.30
619.57	1895.80
619.77	1881.67
619.97	1859.97
620.17	1880.24
620.36	1868.16
620.56	2125.18
620.76	1945.57
620.95	1970.56
621.15	2046.13
621.35	1939.43
621.54	1984.48
621.74	2047.35
621.94	1908.91
622.14	1848.50
622.33	1803.65
622.53	1948.23
622.73	1880.04
622.92	1756.13
623.12	1920.38
623.32	2141.36
623.51	1996.36
623.71	1749.17
623.91	2011.51
624.10	1793.82
624.30	1925.91
624.50	1769.65
624.69	1763.92
624.89	2406.16
625.09	1849.32
625.29	1677.29
625.48	1755.93
625.68	1924.89
625.88	2058.00
626.07	1918.54
626.27	1777.84
626.47	1828.63
626.66	1725.00
626.86	1850.34
627.06	1871.84
627.25	1908.09
627.45	2109.20
627.64	1867.75
627.84	2056.57
628.04	1792.59
628.23	2160.40
628.43	1777.43
628.63	1854.03
628.82	1908.91
629.02	2199.93
629.22	2084.63
629.41	2160.20
629.61	2054.93
629.81	2274.47
630.00	1971.99
630.20	1916.90
630.40	2128.66
630.59	2169.21
630.79	1996.56
630.98	1973.22
631.18	1984.48
631.38	1967.07
631.57	2048.99
631.77	1784.80
631.97	1940.04
632.16	1985.10
632.36	1909.12
632.56	1897.03
632.75	1917.51
632.95	2011.92
633.14	1747.74
633.34	2032.20
633.54	1679.95
633.73	1850.95
633.93	1855.46
634.12	1700.02
634.32	2233.11
634.52	1890.07
634.71	1745.07
634.91	1927.96
635.11	1764.94
635.30	1834.37
635.50	1920.99
635.69	1789.11
635.89	2167.98
636.09	2066.61
636.28	1828.84
636.48	1846.86
636.67	2022.78
636.87	2036.70
637.07	1979.36
637.26	1881.88
637.46	1975.06
637.65	2067.83
637.85	1959.91
638.04	1869.39
638.24	1910.96
638.44	2004.96
638.63	1905.02
638.83	1877.37
639.02	1984.28
639.22	2006.60
639.42	1878.81
639.61	1863.45
639.81	1931.64
640.00	1868.98
640.20	1961.34
640.39	1970.97
640.59	2305.40
640.79	2250.92
640.98	2195.22
641.18	2200.54
641.37	2236.59
641.57	2105.31
641.76	2097.53
641.96	1878.81
642.15	2055.55
642.35	1976.70
642.55	2021.75
642.74	1847.27
642.94	2043.87
643.13	2107.36
643.33	1885.36
643.52	1818.39
643.72	1817.16
643.91	1905.23
644.11	1821.87
644.31	1795.45
644.50	1814.30
644.70	2046.13
644.89	1891.09
645.09	1932.26
645.28	1910.14
645.48	1971.37
645.67	1808.36
645.87	1712.92
646.06	1879.83
646.26	1945.78
646.45	1664.18
646.65	1664.79
646.84	2154.87
647.04	1855.25
647.24	1764.33
647.43	1903.38
647.63	1897.03
647.82	2061.49
648.02	1758.39
648.21	1828.22
648.41	2044.69
648.60	1846.04
648.80	1999.23
648.99	1873.69
649.19	1813.68
649.38	1711.28
649.58	1908.71
649.77	1922.63
649.97	2023.80
650.16	1961.13
650.36	1656.81
650.55	1998.20
650.75	1919.56
650.94	2071.52
651.14	1879.42
651.33	1920.99
651.53	2104.70
651.72	1822.08
651.92	1856.89
652.11	1682.00
652.31	1961.75
652.50	1913.21
652.70	1924.89
652.89	1774.36
653.09	2137.06
653.28	1890.07
653.48	1725.82
653.67	1740.36
653.87	2291.06
654.06	1911.98
654.25	2066.81
654.45	1812.04
654.64	1869.80
654.84	1868.36
655.03	1642.27
655.23	1957.86
655.42	1966.87
655.62	2103.47
655.81	1872.25
656.01	1764.73
656.20	1982.43
656.40	2070.09
656.59	1884.13
656.79	2008.44
656.98	1917.92
657.17	2015.00
657.37	1878.81
657.56	1818.60
657.76	1918.13
657.95	2020.73
658.15	1568.54
658.34	1871.43
658.54	1878.40
658.73	1774.97
658.92	1845.42
659.12	1906.86
659.31	2008.44
659.51	1804.47
659.70	1982.43
659.90	1890.07
660.09	2075.62
660.29	1931.44
660.48	1824.33
660.67	2036.09
660.87	1867.75
661.06	1989.40
661.26	1984.07
661.45	1971.78
661.65	1957.24
661.84	1838.67
662.03	1833.96
662.23	1820.85
662.42	2137.87
662.62	1780.09
662.81	1788.08
663.00	1833.34
663.20	1910.35
663.39	1945.16
663.59	1944.34
663.78	1818.19
663.97	1825.35
664.17	1996.16
664.36	1709.44
664.56	1770.06
664.75	1984.48
664.94	1957.24
665.14	1910.96
665.33	1871.02
665.53	1932.46
665.72	1932.26
665.91	2036.30
666.11	1923.66
666.30	1964.00
666.50	1891.50
666.69	1902.56
666.88	1859.35
667.08	1942.70
667.27	1876.96
667.47	1898.06
667.66	1828.84
667.85	2006.19
668.05	1896.01
668.24	1819.83
668.43	2008.85
668.63	1806.72
668.82	2053.91
669.02	1949.67
669.21	1868.57
669.40	1793.82
669.60	2121.90
669.79	1754.70
669.98	2335.91
670.18	1786.65
670.37	1753.68
670.56	1843.38
670.76	1896.62
670.95	1901.13
671.15	2011.72
671.34	1940.04
671.53	1905.43
671.73	1875.53
671.92	1848.91
672.11	1758.18
672.31	1856.48
672.50	1959.09
672.69	1766.37
672.89	1651.48
673.08	1824.33
673.27	1976.29
673.47	1918.54
673.66	1930.62
673.85	1788.90
674.05	1959.70
674.24	2130.71
674.43	2106.54
674.63	2397.15
674.82	2725.03
675.01	2197.68
675.21	2431.14
675.40	2271.20
675.59	2173.10
675.79	2390.39
675.98	2124.56
676.17	2226.96
676.37	2146.68
676.56	2005.58
676.75	2024.62
676.95	1987.55
677.14	1909.32
677.33	2080.53
677.52	1808.36
677.72	1877.99
677.91	1946.18
678.10	1740.36
678.30	1785.83
678.49	1752.65
678.68	2171.87
678.88	1705.34
679.07	1993.29
679.26	1822.28
679.45	2112.07
679.65	2046.13
679.84	1696.74
680.03	1723.57
680.23	1844.61
680.42	2223.68
680.61	1772.31
680.81	1845.63
681.00	1872.46
681.19	1960.52
681.38	1984.07
681.58	1949.26
681.77	1864.27
681.96	2013.36
682.15	1863.86
682.35	1948.23
682.54	1986.12
682.73	1795.25
682.93	1803.03
683.12	1804.26
683.31	1976.29
683.50	2252.56
683.70	1808.15
683.89	1875.12
684.08	1778.25
684.27	2028.92
684.47	1721.73
684.66	1869.59
684.85	2172.28
685.04	2027.69
685.24	1820.85
685.43	1876.55
685.62	1686.50
685.81	1946.59
686.01	1999.43
686.20	1974.65
686.39	1989.40
686.58	2451.01
686.78	2243.34
686.97	2231.26
687.16	2250.10
687.35	2164.91
687.55	2031.79
687.74	2078.28
687.93	1948.23
688.12	2079.51
688.32	2043.26
688.51	1853.82
688.70	2025.44
688.89	1858.53
689.08	1795.25
689.28	1847.47
689.47	1958.68
689.66	1928.78
689.85	1986.94
690.05	1818.80
690.24	1821.46
690.43	1944.34
690.62	1924.27
690.81	1800.37
691.01	1897.85
691.20	1830.06
691.39	1778.66
691.58	1911.98
691.77	2112.89
691.97	1914.03
692.16	1946.59
692.35	1856.69
692.54	1840.71
692.73	2037.52
692.93	1998.20
693.12	2008.24
693.31	2088.31
693.50	2047.76
693.69	2055.55
693.89	1926.52
694.08	2154.87
694.27	2150.78
694.46	1871.64
694.65	1973.01
694.85	2021.75
695.04	2043.05
695.23	1913.01
695.42	2260.14
695.61	2466.16
695.80	2707.82
696.00	2881.90
696.19	2946.41
696.38	2623.65
696.57	2517.98
696.76	2493.20
696.95	2341.03
697.15	2498.93
697.34	2439.54
697.53	2147.09
697.72	2127.84
697.91	2068.65
698.10	2196.86
698.30	1940.25
698.49	1945.16
698.68	2004.55
698.87	1899.08
699.06	1802.62
699.25	1856.89
699.45	2042.64
699.64	1937.79
699.83	2009.06
700.02	1783.78
700.21	1941.27
700.40	1846.86
700.59	1877.37
700.79	1849.52
700.98	1979.98
701.17	1789.72
701.36	1808.77
701.55	1835.39
701.74	2065.79
701.93	1952.74
702.12	2169.21
702.32	2178.01
702.51	2443.02
702.70	2442.41
702.89	2288.20
703.08	2101.22
703.27	2339.39
703.46	2205.87
703.65	2061.49
703.85	1934.72
704.04	1980.80
704.23	2156.10
704.42	1881.47
704.61	1909.32
704.80	2137.87
704.99	1863.45
705.18	1945.98
705.37	1893.55
705.57	2154.67
705.76	2530.88
705.95	2502.82
706.14	2928.80
706.33	3063.15
706.52	3223.09
706.71	2669.94
706.90	2492.58
707.09	2534.77
707.28	2419.88
707.47	2192.96
707.67	2335.30
707.86	2132.55
708.05	2295.36
708.24	2089.54
708.43	2043.26
708.62	1954.38
708.81	1840.30
709.00	1806.31
709.19	1820.23
709.38	2049.40
709.57	1808.36
709.76	1941.68
709.96	1883.31
710.15	2123.33
710.34	1985.92
710.53	2056.78
710.72	1909.94
710.91	2097.53
711.10	2004.35
711.29	2022.37
711.48	1841.74
711.67	1799.96
711.86	2012.33
712.05	1803.85
712.24	1860.78
712.43	2018.68
712.62	2109.82
712.81	1914.65
713.00	2025.65
713.19	1767.81
713.39	1954.79
713.58	1769.04
713.77	1927.14
713.96	2007.21
714.15	1949.26
714.34	1889.46
714.53	1793.00
714.72	2179.24
714.91	1828.02
715.10	1968.30
715.29	1806.31
715.48	2323.63
715.67	2056.37
715.86	1976.90
716.05	1914.44
716.24	1903.38
716.43	1863.86
716.62	1792.38
716.81	1773.13
717.00	1885.36
717.19	2087.70
717.38	1916.28
717.57	1888.84
717.76	1731.35
717.95	2024.21
718.14	1891.09
718.33	1857.10
718.52	1670.53
718.71	1714.97
718.90	1739.14
719.09	1843.17
719.28	1916.49
719.47	2029.54
719.66	1996.16
719.85	2040.19
720.04	1948.44
720.23	2029.33
720.42	1946.18
720.61	2036.50
720.80	1796.07
720.99	1997.59
721.18	1897.44
721.37	1863.45
721.56	1890.89
721.75	2040.39
721.94	1820.64
722.13	1875.94
722.32	1872.46
722.51	2013.56
722.70	1881.67
722.89	1918.33
723.08	1855.05
723.27	2013.77
723.46	1930.62
723.65	1830.06
723.84	1832.32
724.03	2045.10
724.22	1729.71
724.41	1911.37
724.60	1851.98
724.79	1980.59
724.98	1908.91
725.16	1851.77
725.35	1978.54
725.54	1778.25
725.73	1880.85
725.92	1880.24
726.11	1937.99
726.30	2099.37
726.49	1936.35
726.68	2071.11
726.87	2139.31
727.06	2245.19
727.25	1973.01
727.44	2073.57
727.63	1998.82
727.82	1943.11
728.01	1978.95
728.20	2039.37
728.38	2173.51
728.57	1904.20
728.76	1942.91
728.95	2027.49
729.14	1751.83
729.33	1808.15
729.52	1674.01
729.71	1815.93
729.90	1817.37
730.09	1882.70
730.28	1907.48
730.47	1895.80
730.66	2129.68
730.84	2024.42
731.03	2006.80
731.22	2011.72
731.41	2008.65
731.60	2020.73
731.79	1785.21
731.98	1844.81
732.17	2016.84
732.36	1998.61
732.55	1841.12
732.73	1772.11
732.92	2076.23
733.11	1945.98
733.30	1835.18
733.49	1734.63
733.68	1987.35
733.87	1924.89
734.06	1837.64
734.25	1889.66
734.43	1998.82
734.62	2164.91
734.81	2126.61
735.00	2098.76
735.19	2058.82
735.38	2134.19
735.57	1923.04
735.76	2080.74
735.94	2138.49
736.13	2545.22
736.32	2517.36
736.51	2502.62
736.70	2852.00
736.89	2906.89
737.08	2728.71
737.27	2916.92
737.45	3399.01
737.64	3411.71
737.83	3692.49
738.02	3749.01
738.21	3684.71
738.40	3354.98
738.59	2989.42
738.77	2959.52
738.96	2717.24
739.15	2695.95
739.34	2633.48
739.53	2489.31
739.72	2523.30
739.90	2376.67
740.09	2076.03
740.28	2114.94
740.47	2150.16
740.66	2089.75
740.85	1862.42
741.03	1962.77
741.22	1849.93
741.41	1928.37
741.60	1784.80
741.79	1967.07
741.98	2122.92
742.16	2205.66
742.35	2008.24
742.54	1983.46
742.73	2308.88
742.92	2045.92
743.10	1939.02
743.29	1989.60
743.48	2354.55
743.67	1922.43
743.86	1791.77
744.05	1843.99
744.23	1857.10
744.42	1840.71
744.61	1936.76
744.80	1774.56
744.99	1885.97
745.17	1736.88
745.36	1735.65
745.55	1926.52
745.74	1865.90
745.93	1807.54
746.11	1774.56
746.30	1767.19
746.49	1988.58
746.68	1790.95
746.86	1852.59
747.05	1841.94
747.24	1963.59
747.43	2021.75
747.62	1789.92
747.80	1872.25
747.99	2096.51
748.18	2032.61
748.37	1975.47
748.56	1959.70
748.74	2057.59
748.93	1962.16
749.12	2132.35
749.31	2542.96
749.49	2848.11
749.68	3113.94
749.87	3403.72
750.06	3364.40
750.24	3409.05
750.43	3575.96
750.62	3768.06
750.81	4007.06
750.99	4198.95
751.18	4205.30
751.37	3673.85
751.56	3415.81
751.74	3596.23
751.93	3494.65
752.12	2813.29
752.31	2701.68
752.49	2603.99
752.68	2698.61
752.87	2402.06
753.06	2210.58
753.24	2155.28
753.43	2270.38
753.62	2005.99
753.81	1926.32
753.99	2175.15
754.18	2010.29
754.37	1809.99
754.55	1924.27
754.74	2147.91
754.93	1741.18
755.12	1844.81
755.30	1794.23
755.49	2041.21
755.68	1896.21
755.86	1927.55
756.05	1761.25
756.24	2082.58
756.43	1752.24
756.61	1770.47
756.80	1913.62
756.99	2048.58
757.17	1883.31
757.36	1780.91
757.55	1884.34
757.74	1967.48
757.92	1892.53
758.11	1751.63
758.30	1722.75
758.48	1847.47
758.67	1761.46
758.86	1851.36
759.04	1754.29
759.23	1843.99
759.42	1881.06
759.60	1794.43
759.79	1854.64
759.98	1838.46
760.16	1781.12
760.35	1783.78
760.54	1730.33
760.73	1905.43
760.91	1719.47
761.10	1874.71
761.29	1914.24
761.47	1904.20
761.66	2166.14
761.85	1879.22
762.03	2019.71
762.22	2424.80
762.41	3698.43
762.59	5074.25
762.78	5780.39
762.97	6898.38
763.15	7235.27
763.34	6704.84
763.52	5327.38
763.71	5071.18
763.90	4827.68
764.08	4466.42
764.27	4263.87
764.46	4141.40
764.64	3694.54
764.83	3464.96
765.02	3223.30
765.20	3033.86
765.39	2787.90
765.58	2313.80
765.76	2287.58
765.95	2166.55
766.13	2058.00
766.32	1955.81
766.51	1959.91
766.69	2500.98
766.88	1949.67
767.07	1779.28
767.25	1705.14
767.44	2040.80
767.62	2034.66
767.81	1814.30
768.00	1881.47
768.18	1917.92
768.37	1831.09
768.56	1751.83
768.74	1829.86
768.93	1768.63
769.11	1939.63
769.30	1896.62
769.49	1791.36
769.67	1866.11
769.86	1841.94
770.04	1845.63
770.23	1845.83
770.42	2030.56
770.60	1900.31
770.79	1771.90
770.97	1827.61
771.16	2195.01
771.35	2446.50
771.53	2757.59
771.72	2956.24
771.90	3290.27
772.09	3521.89
772.27	3300.10
772.46	2761.69
772.65	2900.13
772.83	2767.01
773.02	2672.80
773.20	2467.80
773.39	2530.27
773.58	2497.09
773.76	2194.60
773.95	2193.99
774.13	2220.41
774.32	2058.00
774.50	1913.42
774.69	1985.71
774.87	1887.82
775.06	2200.95
775.25	1825.15
775.43	1879.63
775.62	1936.56
775.80	1959.09
775.99	1938.61
776.17	1784.60
776.36	1874.92
776.54	1996.77
776.73	1795.66
776.92	1878.40
777.10	1964.82
777.29	1914.03
777.47	1781.94
777.66	1817.37
777.84	1879.01
778.03	1849.73
778.21	1787.26
778.40	1877.78
778.58	1950.49
778.77	2009.06
778.95	1733.81
779.14	1821.05
779.32	2121.29
779.51	2014.59
779.70	1843.58
779.88	1724.18
780.07	1815.52
780.25	2217.34
780.44	1813.68
780.62	1995.95
780.81	1945.78
780.99	1947.82
781.18	1803.85
781.36	1830.06
781.55	1861.60
781.73	2060.87
781.92	1745.48
782.10	1759.41
782.29	1946.80
782.47	2069.47
782.66	1877.37
782.84	1718.45
783.03	1812.25
783.21	2022.78
783.40	1826.79
783.58	1817.37
783.77	1813.89
783.95	1857.71
784.14	1765.55
784.32	1871.43
784.51	2039.78
784.69	1818.39
784.88	1728.08
785.06	1880.44
785.24	1760.84
785.43	2041.62
785.61	1945.16
785.80	1784.80
785.98	1976.49
786.17	1917.72
786.35	1777.23
786.54	1944.34
786.72	2021.75
786.91	2012.54
787.09	1871.23
787.28	1757.77
787.46	1885.77
787.65	1997.79
787.83	1748.15
788.01	1871.43
788.20	1778.66
788.38	1919.97
788.57	1837.85
788.75	1873.07
788.94	2155.08
789.12	2037.73
789.31	1909.53
789.49	1979.77
789.67	1852.18
789.86	1966.05
790.04	1791.56
790.23	1743.44
790.41	2202.80
790.60	1892.94
790.78	1879.01
790.96	1885.97
791.15	1986.53
791.33	1880.85
791.52	1885.97
791.70	1803.03
791.89	1908.09
792.07	1988.78
792.25	1870.21
792.44	1742.21
792.62	2036.09
792.81	1830.68
792.99	1868.77
793.17	1787.88
793.36	1807.95
793.54	2183.13
793.73	2288.40
793.91	2436.67
794.10	2819.23
794.28	3076.46
794.46	2940.27
794.65	2962.80
794.83	2575.94
795.01	2581.06
795.20	2660.11
795.38	2462.27
795.57	2467.60
795.75	2428.48
795.93	2265.05
796.12	2235.97
796.30	2274.88
796.49	2216.93
796.67	1972.40
796.85	2135.01
797.04	2037.52
797.22	2049.81
797.40	1812.25
797.59	1934.51
797.77	1917.31
797.96	1813.48
798.14	1800.57
798.32	1812.86
798.51	1959.50
798.69	2100.60
798.87	1881.26
799.06	1836.62
799.24	1742.00
799.42	2077.66
799.61	2128.04
799.79	2256.25
799.98	2672.19
800.16	2566.31
800.34	2895.01
800.53	3341.06
800.71	3447.14
800.89	4026.92
801.08	3988.21
801.26	4009.72
801.44	3494.04
801.63	3124.79
801.81	3083.83
801.99	2922.66
802.18	2812.27
802.36	2777.46
802.54	2681.20
802.73	2426.23
802.91	2453.47
803.09	2344.31
803.28	2298.03
803.46	2231.67
803.64	2315.84
803.83	1916.28
804.01	1884.13
804.19	1813.68
804.38	2058.82
804.56	2022.16
804.74	1891.50
804.92	1918.74
805.11	1804.06
805.29	2046.74
805.47	1855.46
805.66	1796.27
805.84	1770.47
806.02	2031.38
806.21	1846.04
806.39	1970.97
806.57	2031.38
806.76	2003.12
806.94	1895.60
807.12	1817.98
807.30	1817.98
807.49	1953.97
807.67	1942.50
807.85	2006.19
808.04	2034.04
808.22	2215.90
808.40	1789.92
808.58	1779.89
808.77	1992.67
808.95	2122.11
809.13	2059.64
809.31	2792.20
809.50	3374.64
809.68	3771.13
809.86	3848.54
810.05	4088.56
810.23	4630.05
810.41	5436.74
810.59	8176.11
810.78	9723.76
810.96	11218.98
811.14	12123.77
811.32	11755.55
811.51	9711.88
811.69	8075.55
811.87	8093.78
812.05	7160.52
812.24	6743.76
812.42	6440.45
812.60	5946.48
812.78	5110.09
812.97	4539.12
813.15	4425.87
813.33	3870.25
813.51	3544.01
813.70	2942.52
813.88	2667.27
814.06	2506.30
814.24	2332.02
814.42	2001.68
814.61	2071.73
814.79	2214.67
814.97	1825.76
815.15	1884.75
815.34	1937.17
815.52	2021.14
815.70	1802.01
815.88	1816.55
816.06	1823.51
816.25	1845.63
816.43	1795.86
816.61	1952.12
816.79	2068.65
816.98	1736.27
817.16	1829.25
817.34	1797.09
817.52	1980.39
817.70	2124.36
817.89	1854.03
818.07	1768.63
818.25	1878.60
818.43	1933.90
818.61	1838.46
818.80	1785.01
818.98	2117.60
819.16	1900.31
819.34	1767.19
819.52	2068.24
819.70	1797.71
819.89	1880.24
820.07	1738.32
820.25	1723.57
820.43	1902.56
820.61	1982.43
820.80	1865.90
820.98	1774.77
821.16	1703.09
821.34	1776.61
821.52	1849.52
821.70	1905.23
821.89	1902.56
822.07	1858.12
822.25	1837.44
822.43	1754.09
822.61	2091.18
822.79	1920.99
822.98	1849.73
823.16	1682.82
823.34	1896.21
823.52	2024.42
823.70	1974.86
823.88	1697.15
824.06	1947.00
824.25	1866.31
824.43	1949.05
824.61	1794.64
824.79	1929.39
824.97	1947.00
825.15	2043.67
825.33	2231.26
825.52	2444.25
825.70	2430.12
825.88	2499.55
826.06	2637.37
826.24	2667.68
826.42	2594.37
826.60	2384.86
826.78	2414.56
826.97	2266.08
827.15	2393.26
827.33	2088.52
827.51	2170.23
827.69	2061.49
827.87	2137.67
828.05	2101.01
828.23	1899.08
828.41	2124.15
828.60	2046.13
828.78	1784.19
828.96	1944.34
829.14	1826.99
829.32	1865.29
829.50	1840.92
829.68	1841.12
829.86	1833.14
830.04	1956.22
830.22	1915.47
830.41	1766.17
830.59	1861.19
830.77	1983.87
830.95	1781.73
831.13	1794.23
831.31	1778.05
831.49	1970.15
831.67	1981.41
831.85	1976.29
832.03	1837.03
832.21	1980.18
832.39	1732.99
832.57	1781.94
832.76	1994.11
832.94	1831.91
833.12	1721.11
833.30	1850.75
833.48	2047.56
833.66	1942.29
833.84	1785.83
834.02	1869.80
834.20	2003.12
834.38	1996.77
834.56	1689.57
834.74	1752.65
834.92	1723.57
835.10	2106.75
835.28	1918.13
835.46	1838.87
835.64	1850.75
835.82	1809.99
836.01	2078.48
836.19	1985.30
836.37	1841.74
836.55	1741.39
836.73	1765.55
836.91	1734.02
837.09	1951.51
837.27	2076.03
837.45	1699.81
837.63	1754.70
837.81	1749.17
837.99	1892.73
838.17	1855.87
838.35	1776.00
838.53	2208.53
838.71	2015.82
838.89	1862.42
839.07	1844.61
839.25	1950.90
839.43	2044.08
839.61	1953.56
839.79	2531.08
839.97	2932.08
840.15	3198.31
840.33	3313.20
840.51	3597.05
840.69	3367.07
840.87	3001.91
841.05	2968.12
841.23	2920.40
841.41	3378.12
841.59	4322.24
841.77	4647.05
841.95	4924.55
842.13	5338.64
842.31	5032.27
842.49	4276.36
842.67	3957.49
842.85	3930.26
843.03	3480.11
843.21	3357.24
843.39	3315.66
843.57	3134.21
843.75	2982.25
843.93	2717.86
844.11	2531.70
844.29	2497.70
844.47	2373.19
844.65	2430.73
844.83	2177.40
845.01	2132.35
845.19	2172.28
845.36	2000.46
845.54	2018.27
845.72	1947.62
845.90	1997.59
846.08	1768.42
846.26	1879.42
846.44	1957.86
846.62	1930.82
846.80	1871.64
846.98	1789.92
847.16	1860.78
847.34	1905.02
847.52	1753.47
847.70	1759.21
847.88	1870.41
848.06	2062.92
848.24	1890.68
848.41	1706.98
848.59	2012.95
848.77	1942.91
848.95	1810.20
849.13	1818.60
849.31	1960.93
849.49	1911.78
849.67	1769.85
849.85	1750.60
850.03	1923.25
850.21	1921.20
850.39	1795.04
850.57	1941.88
850.74	2087.90
850.92	2072.34
851.10	2063.94
851.28	2119.03
851.46	2344.31
851.64	2658.67
851.82	2384.45
852.00	2445.07
852.18	2528.01
852.36	2342.67
852.53	2146.68
852.71	2182.52
852.89	2203.82
853.07	2188.46
853.25	2007.62
853.43	1913.83
853.61	2043.87
853.79	2058.62
853.97	1894.58
854.14	1847.68
854.32	2123.74
854.50	2014.18
854.68	1856.69
854.86	1844.20
855.04	1811.43
855.22	1990.63
855.40	1738.11
855.57	1798.73
855.75	1978.95
855.93	1940.86
856.11	1688.96
856.29	1772.52
856.47	1809.99
856.65	1925.50
856.82	1765.96
857.00	1698.59
857.18	1884.54
857.36	1810.61
857.54	1873.07
857.72	1964.82
857.89	1957.04
858.07	1901.95
858.25	1980.18
858.43	1734.22
858.61	1853.41
858.79	1881.47
858.97	1770.47
859.14	1909.94
859.32	1872.46
859.50	1861.19
859.68	1906.25
859.86	1777.43
860.03	1908.09
860.21	1958.47
860.39	1802.01
860.57	1894.37
860.75	1947.82
860.93	2119.85
861.10	1999.43
861.28	1795.86
861.46	1948.44
861.64	1979.16
861.82	1837.85
861.99	1915.06
862.17	2018.27
862.35	2023.80
862.53	1877.78
862.71	1851.98
862.88	1937.17
863.06	1958.68
863.24	1835.59
863.42	1778.46
863.60	1840.10
863.77	1959.09
863.95	1654.14
864.13	1847.47
864.31	1846.86
864.49	1982.64
864.66	1729.92
864.84	1808.15
865.02	1887.20
865.20	2229.62
865.37	1854.23
865.55	1802.21
865.73	1772.72
865.91	2020.94
866.09	1954.58
866.26	1931.23
866.44	2064.15
866.62	1937.17
866.80	1814.50
866.97	1917.92
867.15	1902.36
867.33	1935.33
867.51	1963.80
867.68	1896.83
867.86	1848.09
868.04	1809.99
868.22	1699.61
868.39	1847.06
868.57	1935.74
868.75	2067.22
868.93	1730.33
869.10	1805.08
869.28	2117.80
869.46	2040.60
869.64	1843.58
869.81	1841.53
869.99	1903.18
870.17	1857.92
870.35	1765.14
870.52	1775.18
870.70	2003.73
870.88	1811.63
871.05	1748.56
871.23	1641.65
871.41	1839.69
871.59	1906.86
871.76	1823.92
871.94	1782.55
872.12	1855.25
872.29	1706.78
872.47	1817.78
872.65	1739.75
872.83	1912.19
873.00	2051.86
873.18	1828.84
873.36	1777.43
873.53	1958.47
873.71	1719.27
873.89	1771.70
874.06	1864.47
874.24	1942.70
874.42	2040.80
874.60	1946.59
874.77	1884.34
874.95	1801.39
875.13	1993.29
875.30	1781.53
875.48	1808.97
875.66	2079.10
875.83	1822.08
876.01	1842.76
876.19	1941.88
876.36	1775.38
876.54	1891.09
876.72	1743.03
876.89	1916.28
877.07	1993.29
877.25	1680.36
877.42	1884.95
877.60	1833.96
877.78	2101.42
877.95	1841.12
878.13	1774.97
878.31	1898.47
878.48	1983.66
878.66	1988.37
878.84	1798.73
879.01	1826.99
879.19	1935.13
879.37	1968.92
879.54	1802.42
879.72	1728.69
879.90	1695.10
880.07	1969.74
880.25	1598.03
880.42	1940.25
880.60	1869.18
880.78	1964.21
880.95	1813.48
881.13	1833.96
881.31	1875.94
881.48	1788.90
881.66	1778.87
881.83	1874.10
882.01	1783.58
882.19	1744.05
882.36	1870.00
882.54	1842.56
882.72	1972.40
882.89	1895.60
883.07	1729.92
883.24	1801.19
883.42	1962.77
883.60	1888.84
883.77	1758.39
883.95	1805.90
884.12	2004.14
884.30	1938.40
884.48	1981.20
884.65	1912.19
884.83	1960.32
885.00	1973.63
885.18	1765.96
885.36	1804.87
885.53	1967.07
885.71	2035.68
885.88	1745.69
886.06	1815.11
886.23	1952.12
886.41	1826.79
886.59	1798.53
886.76	1782.35
886.94	1954.17
887.11	2229.01
887.29	1825.76
887.47	1705.14
887.64	2009.47
887.82	2045.72
887.99	1690.19
888.17	1850.13
888.34	1848.91
888.52	1730.12
888.69	1874.71
888.87	1719.68
889.05	1838.87
889.22	1841.33
889.40	1783.37
889.57	1960.11
889.75	2068.65
889.92	1824.13
890.10	1725.41
890.27	1827.61
890.45	1794.43
890.62	1675.85
890.80	1739.95
890.98	1695.31
891.15	2036.09
891.33	1997.38
891.50	1776.41
891.68	1715.79
891.85	1963.18
892.03	1935.94
892.20	1790.74
892.38	1745.48
892.55	1970.97
892.73	1961.54
892.90	1739.14
893.08	1787.47
893.25	1796.48
893.43	1789.92
893.60	1922.02
893.78	1642.88
893.95	1903.18
894.13	1849.52
894.30	1762.89
894.48	1831.91
894.65	1972.81
894.83	1899.08
895.00	1675.85
895.18	1642.27
895.35	1968.30
895.53	1962.16
895.70	1706.98
895.88	1891.91
896.05	1942.50
896.23	1714.76
896.40	1802.42
896.58	1910.14
896.75	1943.52
896.93	2062.30
897.10	1775.38
897.28	1716.40
897.45	1902.15
897.63	1968.92
897.80	1932.46
897.98	1812.04
898.15	1891.71
898.33	1784.80
898.50	1863.86
898.67	1837.23
898.85	1827.20
899.02	1926.52
899.20	1988.78
899.37	1819.01
899.55	1908.91
899.72	2026.47
899.90	1771.70
900.07	1751.22
900.25	1925.71
900.42	2005.17
900.59	1785.21
900.77	1897.85
900.94	1932.05
901.12	1911.37
901.29	1763.51
901.47	1901.95
901.64	1930.21
901.82	1868.57
901.99	1629.16
902.16	1764.53
902.34	2008.03
902.51	1893.55
902.69	1787.06
902.86	1842.15
903.03	2313.59
903.21	1856.28
903.38	1838.87
903.56	1790.33
903.73	1991.85
903.91	1816.14
904.08	1736.88
904.25	1646.36
904.43	1761.25
904.60	1973.63
904.78	1792.59
904.95	1737.70
905.12	1837.03
905.30	2086.06
905.47	1921.20
905.65	1925.71
905.82	1878.19
905.99	1963.59
906.17	1881.06
906.34	1781.94
906.52	1817.57
906.69	1987.76
906.86	1950.08
907.04	1901.33
907.21	2028.92
907.38	2025.03
907.56	1788.08
907.73	1780.91
907.91	2068.04
908.08	2016.02
908.25	1764.94
908.43	1750.40
908.60	1929.60
908.77	1924.07
908.95	1782.35
909.12	1753.68
909.30	1940.04
909.47	1715.58
909.64	1838.87
909.82	1939.22
909.99	1834.98
910.16	1886.59
910.34	1764.33
910.51	1827.40
910.68	1924.68
910.86	1871.23
911.03	1737.70
911.20	1843.99
911.38	2278.77
911.55	2844.01
911.72	3073.59
911.90	3043.28
912.07	3302.14
912.24	3422.16
912.42	2820.05
912.59	2399.40
912.76	2541.32
912.94	2321.99
913.11	2151.39
913.28	2059.85
913.46	1976.09
913.63	2125.79
913.80	2246.83
913.98	1924.89
914.15	2121.08
914.32	2152.62
914.49	1976.49
914.67	1827.20
914.84	1991.24
915.01	2038.14
915.19	1946.59
915.36	1845.63
915.53	2046.13
915.71	1970.56
915.88	1933.90
916.05	1790.13
916.22	1986.12
916.40	1902.77
916.57	1757.36
916.74	1894.17
916.92	2080.74
917.09	1761.25
917.26	1754.09
917.43	1720.70
917.61	1830.06
917.78	1711.28
917.95	1664.38
918.13	1749.17
918.30	2137.46
918.47	1872.87
918.64	1739.54
918.82	1733.40
918.99	1866.52
919.16	2116.17
919.33	1858.74
919.51	1800.16
919.68	1892.73
919.85	2065.99
920.02	1729.71
920.20	1842.35
920.37	2104.08
920.54	1990.42
920.71	1753.88
920.89	1792.79
921.06	2111.66
921.23	1773.13
921.40	1729.51
921.58	1984.69
921.75	2438.93
921.92	1981.61
922.09	2060.05
922.27	2094.05
922.44	2085.04
922.61	2058.62
922.78	1921.81
922.96	1874.51
923.13	1896.83
923.30	2034.25
923.47	1742.82
923.64	1814.71
923.82	1970.35
923.99	1940.66
924.16	1902.15
924.33	1759.00
924.50	1888.64
924.68	2094.05
924.85	1734.83
925.02	1791.56
925.19	1982.64
925.36	1919.15
925.54	1842.15
925.71	1836.62
925.88	2244.16
926.05	1857.30
926.22	1744.25
926.40	1846.65
926.57	1902.77
926.74	1930.62
926.91	1767.60
927.08	1948.44
927.26	2002.30
927.43	1886.79
927.60	1753.06
927.77	1839.69
927.94	2084.63
928.11	2039.98
928.29	1687.32
928.46	1841.94
928.63	1798.53
928.80	1843.79
928.97	1905.63
929.14	1757.36
929.32	2130.50
929.49	1896.42
929.66	1750.40
929.83	1689.37
930.00	1813.68
930.17	1933.28
930.35	1706.16
930.52	1767.60
930.69	2060.67
930.86	1754.70
931.03	1854.23
931.20	1624.45
931.37	2008.85
931.55	1880.24
931.72	1891.91
931.89	1690.39
932.06	1748.76
932.23	2061.49
932.40	1899.70
932.57	1892.32
932.74	2029.95
932.92	2027.08
933.09	1956.63
933.26	1568.95
933.43	1829.45
933.60	1914.44
933.77	1830.27
933.94	1875.73
934.11	1841.53
934.29	1907.89
934.46	1695.31
934.63	1830.27
934.80	1732.58
934.97	1863.24
935.14	1807.33
935.31	1682.82
935.48	1778.05
935.65	1926.73
935.82	1876.76
936.00	1702.68
936.17	2085.45
936.34	1858.53
936.51	1913.21
936.68	1697.77
936.85	1919.36
937.02	1864.06
937.19	1884.75
937.36	1794.64
937.53	1911.57
937.70	1989.60
937.87	1830.88
938.05	1874.30
938.22	1885.36
938.39	1759.61
938.56	1820.23
938.73	1748.15
938.90	1846.65
939.07	1784.60
939.24	1838.46
939.41	1663.57
939.58	1919.15
939.75	1934.92
939.92	1776.20
940.09	1922.63
940.26	1853.21
940.43	1992.26
940.60	1771.29
940.77	1780.50
940.95	1905.84
941.12	1964.62
941.29	1800.37
941.46	1833.96
941.63	2007.21
941.80	2044.90
941.97	1700.02
942.14	1697.56
942.31	1935.13
942.48	1871.84
942.65	1863.04
942.82	1820.03
942.99	1949.46
943.16	1895.19
943.33	1733.20
943.50	1768.63
943.67	1947.21
943.84	2006.60
944.01	1789.52
944.18	1729.51
944.35	2024.42
944.52	1763.10
944.69	1846.86
944.86	1690.60
945.03	1959.50
945.20	2182.73
945.37	1645.54
945.54	1816.34
945.71	2064.97
945.88	2070.50
946.05	1738.73
946.22	1738.52
946.39	2056.98
946.56	1856.28
946.73	1703.71
946.90	1739.14
947.07	1795.86
947.24	1847.27
947.41	1676.67
947.58	1886.38
947.75	1943.73
947.92	1909.32
948.09	1593.52
948.26	1667.46
948.43	1898.47
948.60	2115.14
948.77	1742.62
948.94	1764.33
949.11	1956.42
949.27	1932.46
949.44	1732.99
949.61	1728.08
949.78	1937.99
949.95	2016.63
950.12	1719.88
950.29	1685.48
950.46	1811.84
950.63	1990.63
950.80	1769.24
950.97	1788.49
951.14	1993.08
951.31	1852.80
951.48	1773.75
951.65	1702.07
951.82	2119.85
951.99	1920.79
952.15	1685.07
952.32	1775.79
952.49	1806.72
952.66	1802.83
952.83	1744.05
953.00	1719.47
953.17	1862.83
953.34	1982.84
953.51	1830.47
953.68	1791.36
953.85	2020.53
954.02	2010.29
954.18	1786.65
954.35	1796.48
954.52	1772.31
954.69	1872.87
954.86	1638.17
955.03	1792.18
955.20	1938.20
955.37	1845.83
955.54	1774.16
955.71	1764.53
955.87	1908.91
956.04	2115.55
956.21	1785.21
956.38	1739.34
956.55	1884.95
956.72	2196.45
956.89	1808.56
957.06	1746.71
957.23	1787.67
957.39	2046.33
957.56	1774.97
957.73	1721.32
957.90	1636.33
958.07	2096.92
958.24	1827.20
958.41	1791.56
958.57	1975.47
958.74	1861.81
958.91	1731.35
959.08	1787.26
959.25	1952.12
959.42	1869.39
959.59	1807.13
959.75	1765.76
959.92	2038.55
960.09	2011.11
960.26	1756.13
960.43	1836.00
960.60	1931.44
960.76	1835.59
960.93	1699.40
961.10	1824.13
961.27	1990.01
961.44	1834.37
961.61	1697.97
961.77	1730.33
961.94	1891.91
962.11	1978.54
962.28	1785.62
962.45	1699.40
962.62	1856.07
962.78	1991.24
962.95	1733.20
963.12	1781.12
963.29	1950.08
963.46	2243.75
963.62	1843.38
963.79	1756.34
963.96	2197.47
964.13	1850.54
964.30	1836.82
964.46	1764.12
964.63	1768.83
964.80	2205.25
964.97	1649.64
965.14	1910.35
965.30	1970.97
965.47	2019.09
965.64	1950.90
965.81	1910.75
965.98	2126.00
966.14	1925.30
966.31	1842.76
966.48	1798.32
966.65	2059.03
966.81	1947.00
966.98	1774.97
967.15	1820.64
967.32	1880.44
967.49	1799.14
967.65	1668.28
967.82	1646.77
967.99	1853.82
968.16	1693.06
968.32	1908.09
968.49	1755.72
968.66	1852.59
968.83	2085.45
968.99	1863.86
969.16	1706.37
969.33	2015.20
969.50	1948.03
969.66	1898.88
969.83	1984.48
970.00	1966.46
970.17	1965.03
970.33	1789.52
970.50	1709.85
970.67	2069.27
970.84	2056.78
971.00	1747.74
971.17	1724.80
971.34	1964.41
971.50	1882.90
971.67	1921.61
971.84	1813.07
972.01	1747.33
972.17	1640.83
972.34	1726.64
972.51	1874.92
972.67	2013.97
972.84	1908.30
973.01	1721.93
973.18	1750.19
973.34	1975.06
973.51	1750.60
973.68	1785.42
973.84	1814.91
974.01	1860.78
974.18	2096.51
974.34	1848.50
974.51	1864.27
974.68	1780.71
974.85	2104.70
975.01	1897.03
975.18	1773.54
975.35	1869.39
975.51	1761.87
975.68	1658.85
975.85	1919.15
976.01	1809.59
976.18	2062.71
976.35	1763.30
976.51	1753.27
976.68	2079.51
976.85	2025.44
977.01	1833.14
977.18	1870.21
977.35	1947.82
977.51	1732.38
977.68	1643.90
977.85	1707.39
978.01	2001.07
978.18	1945.16
978.35	1798.73
978.51	1815.11
978.68	1993.90
978.85	2088.31
979.01	1798.53
979.18	1823.92
979.34	1869.39
979.51	1906.45
979.68	1747.53
979.84	1827.40
980.01	2200.75
980.18	1890.48
980.34	1742.82
980.51	1852.80
980.67	1970.35
980.84	1968.71
981.01	1816.14
981.17	1860.78
981.34	1694.49
981.51	1966.66
981.67	1708.62
981.84	1909.32
982.00	1941.27
982.17	1869.18
982.34	1698.99
982.50	1598.03
982.67	2067.01
982.83	1803.03
983.00	1701.45
983.17	1610.52
983.33	1984.07
983.50	1704.52
983.66	1691.21
983.83	1599.26
984.00	1839.08
984.16	1865.09
984.33	1627.73
984.49	1576.73
984.66	1776.61
984.83	1954.17
984.99	1644.52
985.16	1590.04
985.32	1956.63
985.49	1944.96
985.65	1715.38
985.82	1631.82
985.99	2037.11
986.15	1881.88
986.32	1700.22
986.48	1683.43
986.65	1820.64
986.81	1955.61
986.98	1602.33
987.14	1699.81
987.31	1893.35
987.48	1713.95
987.64	1549.49
987.81	1592.71
987.97	2145.45
988.14	1761.66
988.30	1652.30
988.47	1517.54
988.63	1941.68
988.80	1773.54
988.96	1679.13
989.13	1712.10
989.30	1798.73
989.46	1999.23
989.63	1590.45
989.79	1606.22
989.96	1848.29
990.12	2050.22
990.29	1630.80
990.45	1699.61
990.62	1883.31
990.78	2006.39
990.95	1760.23
991.11	1653.12
991.28	1800.57
991.44	1897.85
991.61	1547.45
991.77	1702.68
991.94	1881.88
992.10	1988.17
992.27	1689.98
992.43	1659.26
992.60	1901.33
992.76	1826.38
992.93	1779.89
993.09	1614.00
993.26	1990.01
993.42	2070.29
993.59	1641.45
993.75	1570.79
993.92	1761.66
994.08	1793.61
994.25	1737.91
994.41	1616.05
994.58	1979.36
994.74	2046.54
994.91	1603.15
995.07	1741.39
995.24	1851.77
995.40	1860.17
995.56	1769.24
995.73	1730.33
995.89	2074.80
996.06	1849.11
996.22	1631.21
996.39	1565.67
996.55	1854.44
996.72	1933.90
996.88	1590.66
997.05	1637.35
997.21	2107.97
997.37	1932.87
997.54	1721.11
997.70	1653.94
997.87	1913.21
998.03	1854.85
998.20	1536.59
998.36	1565.47
998.52	1968.51
998.69	1985.51
998.85	1568.54
999.02	1672.37
999.18	1989.40
999.35	2007.21
999.51	1663.57
999.67	1671.35
999.84	1724.59
1000.00	1970.15
1000.17	1735.86
1000.33	1618.92
1000.49	1839.90
1000.66	1859.15
1000.82	1614.00
1000.99	1707.60
1001.15	1995.95
1001.31	1830.68
1001.48	1683.64
1001.64	1722.55
1001.81	1843.99
1001.97	2139.10
1002.13	1659.06
1002.30	1664.79
1002.46	2046.33
1002.63	1876.14
1002.79	1735.65
1002.95	1643.70
1003.12	2015.00
1003.28	1911.57
1003.45	1643.49
1003.61	1593.73
1003.77	1907.27
1003.94	1721.32
1004.10	1653.33
1004.26	1718.45
1004.43	1952.94
1004.59	2078.69
1004.75	1645.34
1004.92	1614.21
1005.08	1835.80
1005.25	1936.56
1005.41	1654.76
1005.57	1728.28
1005.74	1990.83
1005.90	1838.26
1006.06	1739.34
1006.23	1648.00
1006.39	1942.70
1006.55	2210.17
1006.72	1814.71
1006.88	1602.95
1007.04	1771.29
1007.21	1851.98
1007.37	1665.82
1007.53	1640.01
1007.70	2080.74
1007.86	1969.12
1008.02	1720.70
1008.19	1629.57
1008.35	1900.31
1008.51	1798.53
1008.68	1649.02
1008.84	1558.71
1009.00	1763.51
1009.17	2018.27
1009.33	1759.82
1009.49	1725.62
1009.65	1762.89
1009.82	1910.35
1009.98	1693.47
1010.14	1564.85
1010.31	1950.90
1010.47	1937.99
1010.63	1728.90
1010.80	1702.48
1010.96	1925.71
1011.12	1859.97
1011.28	1648.61
1011.45	1653.53
1011.61	2220.61
1011.77	1764.12
1011.94	1609.09
1012.10	1602.74
1012.26	1785.62
1012.42	1808.77
1012.59	1708.42
1012.75	1693.87
1012.91	1831.50
1013.07	1977.11
1013.24	1589.02
1013.40	1641.45
1013.56	1864.68
1013.72	1854.03
1013.89	1720.91
1014.05	1720.09
1014.21	2115.76
1014.37	2180.47
1014.54	1697.56
1014.70	1610.93
1014.86	1840.92
1015.02	1771.08
1015.19	1645.34
1015.35	1602.95
1015.51	1844.40
1015.67	1813.07
1015.84	1638.58
1016.00	1656.19
1016.16	2016.23
1016.32	2013.56
1016.49	1636.33
1016.65	1620.76
1016.81	1850.75
1016.97	1913.21
1017.14	1733.81
1017.30	1646.98
1017.46	1797.09
1017.62	1919.15
1017.78	1712.51
1017.95	1612.57
1018.11	1969.33
1018.27	2182.73
1018.43	1754.70
1018.59	1723.78
1018.76	1966.25
1018.92	2185.59
1019.08	1622.20
1019.24	1667.46
1019.40	2023.39
1019.57	1913.62
1019.73	1736.88
1019.89	1667.46
1020.05	1911.37
1020.21	2109.61
1020.38	1629.16
1020.54	1789.11
1020.70	1949.46
1020.86	1956.22
1021.02	1660.90
1021.18	1621.99
1021.35	1820.23
1021.51	1931.03
1021.67	1796.68
1021.83	1649.02
1021.99	1876.35
1022.15	1902.77
1022.32	1722.96
1022.48	1672.37
1022.64	2035.68
1022.80	2084.42
1022.96	1728.69
1023.12	1603.35
1023.29	1973.83
1023.45	1922.02
1023.61	1660.70
1023.77	1780.71
1023.93	1921.40
1024.09	1791.97
1024.25	1636.33
1024.42	1597.42
1024.58	1830.88
1024.74	1930.62
1024.90	1671.35
1025.06	1702.89
1025.22	1792.18
1025.38	2046.94
1025.54	1598.23
1025.71	1734.02
1025.87	1954.99
1026.03	1939.22
1026.19	1626.29
1026.35	1773.13
1026.51	1915.67
1026.67	1879.42
1026.83	1695.92
1026.99	1740.98
1027.16	1912.80
1027.32	1860.58
1027.48	1678.52
1027.64	1607.66
1027.80	1965.44
1027.96	1888.64
1028.12	1663.97
1028.28	1621.38
1028.44	1928.16
1028.60	2063.94
1028.77	1795.04
1028.93	1679.95
1029.09	1815.32
1029.25	1756.54
1029.41	1702.89
1029.57	1751.01
1029.73	1883.72
1029.89	2060.05
1030.05	1750.19
1030.21	1737.91
1030.37	2150.98
1030.53	1954.58
1030.69	1686.50
1030.85	1606.22
1031.02	1767.19
1031.18	1874.10
1031.34	1678.11
1031.50	1737.70
1031.66	1799.96
1031.82	2056.78
1031.98	1702.07
1032.14	1639.81
1032.30	1774.77
1032.46	1982.43
1032.62	1781.53
1032.78	1617.49
1032.94	1800.98
1033.10	1834.98
1033.26	1724.39
1033.42	1763.51
1033.58	2135.83
1033.74	1794.43
1033.90	1655.78
1034.06	1826.99
1034.22	2146.27
1034.38	2004.96
1034.54	1690.19
1034.70	1704.32
1034.86	2126.82
>>>>>End Processed Spectral Data<<<<<
