SpectraSuite Data File
++++++++++++++++++++++++++++++++++++
Date: Thu Mar 30 14:14:15 PDT 2017
User: UCSD _CER
Dark Spectrum Present: No
Reference Spectrum Present: No
Number of Sampled Component Spectra: 1
Spectrometers: USB4C00073
Integration Time (usec): 380000 (USB4C00073)
Spectra Averaged: 10 (USB4C00073)
Boxcar Smoothing: 0 (USB4C00073)
Correct for Electrical Dark: No (USB4C00073)
Strobe/Lamp Enabled: No (USB4C00073)
Correct for Detector Non-linearity: No (USB4C00073)
Correct for Stray Light: No (USB4C00073)
Number of Pixels in Processed Spectrum: 3648
>>>>>Begin Processed Spectral Data<<<<<
345.37	1206.46
345.58	1206.46
345.80	1206.46
346.01	1228.58
346.22	1215.26
346.43	1992.47
346.65	1851.98
346.86	2364.79
347.07	2291.88
347.28	1806.72
347.50	1784.80
347.71	2099.99
347.92	1810.81
348.13	1772.93
348.35	1783.37
348.56	2077.05
348.77	1872.46
348.98	1825.56
349.20	1657.22
349.41	2113.50
349.62	2211.81
349.83	1888.84
350.05	1782.35
350.26	2098.76
350.47	2301.51
350.68	1808.15
350.90	1722.14
351.11	2319.32
351.32	2293.72
351.53	1859.15
351.75	1751.42
351.96	2110.02
352.17	2044.28
352.38	1880.04
352.60	1870.00
352.81	2115.14
353.02	2361.51
353.23	1768.42
353.44	1815.93
353.66	1972.60
353.87	2031.99
354.08	1876.14
354.29	1795.25
354.51	1978.75
354.72	2038.75
354.93	1783.58
355.14	1757.77
355.35	1792.38
355.57	2240.07
355.78	1824.74
355.99	1895.80
356.20	2072.34
356.42	2003.73
356.63	1891.50
356.84	1780.50
357.05	2193.37
357.26	2427.25
357.48	1933.49
357.69	1863.45
357.90	2137.46
358.11	2015.41
358.32	1824.74
358.54	1866.52
358.75	1997.79
358.96	2182.32
359.17	1776.41
359.38	1829.25
359.60	2185.18
359.81	2043.67
360.02	1804.67
360.23	1762.89
360.44	1933.69
360.66	2235.56
360.87	1751.83
361.08	1759.41
361.29	2134.39
361.50	2084.63
361.72	1798.94
361.93	1881.67
362.14	2090.16
362.35	1829.25
362.56	1948.44
362.77	1702.07
362.99	2165.32
363.20	2044.69
363.41	1863.04
363.62	1675.85
363.83	2132.35
364.05	2208.32
364.26	1743.44
364.47	1761.87
364.68	2241.30
364.89	1921.81
365.10	1691.83
365.32	1836.62
365.53	1933.08
365.74	1974.65
365.95	1809.18
366.16	1692.24
366.37	2039.57
366.59	2028.10
366.80	1793.41
367.01	1679.95
367.22	2388.75
367.43	2532.52
367.64	1859.56
367.86	1818.60
368.07	2150.57
368.28	2285.94
368.49	1728.90
368.70	1862.63
368.91	2016.63
369.12	2065.17
369.34	1710.46
369.55	1694.08
369.76	2079.71
369.97	1993.29
370.18	1708.42
370.39	1754.09
370.60	1848.50
370.82	1915.47
371.03	1816.14
371.24	1788.49
371.45	2179.04
371.66	2167.98
371.87	1797.30
372.08	1804.26
372.30	1925.50
372.51	2214.88
372.72	1944.96
372.93	1794.64
373.14	2353.73
373.35	1943.93
373.56	1729.71
373.78	1803.85
373.99	2201.36
374.20	2528.01
374.41	1771.49
374.62	1794.02
374.83	2320.55
375.04	2000.87
375.25	1823.10
375.47	1806.92
375.68	1994.93
375.89	2173.71
376.10	1820.23
376.31	1885.36
376.52	2127.84
376.73	2112.89
376.94	1861.81
377.15	1770.26
377.37	2066.61
377.58	2024.42
377.79	1696.33
378.00	1746.30
378.21	2104.29
378.42	2171.26
378.63	1859.15
378.84	1897.44
379.05	2256.04
379.27	2108.79
379.48	1930.82
379.69	1774.77
379.90	2251.74
380.11	1778.66
380.32	1804.67
380.53	1959.29
380.74	2282.05
380.95	2081.97
381.16	1850.34
381.37	1871.02
381.59	2293.11
381.80	2230.24
382.01	1787.88
382.22	1734.02
382.43	2149.96
382.64	2098.35
382.85	1760.43
383.06	1877.58
383.27	2148.32
383.48	2036.50
383.69	1811.84
383.91	1753.47
384.12	2172.49
384.33	2192.35
384.54	1849.93
384.75	1767.60
384.96	2615.87
385.17	2241.50
385.38	1845.22
385.59	1796.07
385.80	2192.56
386.01	2326.49
386.22	1904.00
386.43	1821.05
386.64	2481.32
386.86	2066.61
387.07	1935.54
387.28	1747.94
387.49	1987.76
387.70	2297.62
387.91	1941.88
388.12	1793.82
388.33	2133.78
388.54	1999.02
388.75	1773.75
388.96	1916.08
389.17	1977.93
389.38	2025.65
389.59	1897.44
389.80	1887.82
390.01	2031.38
390.22	1996.36
390.43	1926.32
390.64	1718.86
390.86	2161.02
391.07	2258.91
391.28	1834.98
391.49	1863.65
391.70	1868.16
391.91	1943.32
392.12	1795.45
392.33	1891.50
392.54	2101.01
392.75	2060.05
392.96	1907.68
393.17	1795.25
393.38	2459.61
393.59	2255.84
393.80	1717.02
394.01	1835.39
394.22	2016.63
394.43	2366.22
394.64	1722.96
394.85	1888.64
395.06	2063.53
395.27	2084.42
395.48	1801.60
395.69	1734.02
395.90	2043.46
396.11	2068.65
396.32	1787.67
396.53	1912.19
396.74	2005.58
396.95	2228.19
397.16	1794.23
397.37	1672.17
397.58	2208.32
397.79	2067.63
398.00	1859.56
398.21	1816.34
398.42	2101.63
398.63	2437.90
398.84	1805.69
399.05	1804.26
399.26	2280.00
399.47	2132.35
399.68	1669.50
399.89	1743.23
400.10	1901.13
400.31	1990.42
400.52	1864.27
400.73	1796.89
400.94	1828.63
401.15	2112.07
401.36	1799.75
401.57	1890.48
401.78	2267.72
401.99	2229.21
402.20	1780.71
402.41	1941.27
402.62	2347.59
402.83	2018.48
403.04	1767.60
403.25	1980.18
403.46	2122.92
403.67	2256.45
403.88	1800.16
404.09	1790.13
404.30	1951.10
404.51	1913.01
404.72	1723.98
404.93	1940.45
405.14	1947.21
405.35	2068.86
405.56	1848.29
405.77	1782.55
405.98	2084.01
406.19	2090.57
406.40	1772.31
406.61	1804.06
406.82	1988.58
407.03	2470.67
407.24	1774.16
407.45	1849.11
407.66	2124.97
407.87	2203.00
408.08	1886.38
408.29	1905.23
408.49	2176.58
408.70	2061.49
408.91	1790.54
409.12	1940.66
409.33	1903.38
409.54	2291.27
409.75	1779.48
409.96	1837.03
410.17	2193.17
410.38	2010.29
410.59	1779.48
410.80	1930.42
411.01	2041.42
411.22	2025.44
411.43	1902.36
411.64	1792.38
411.85	1929.19
412.06	1905.63
412.27	1619.33
412.47	1770.67
412.68	2062.71
412.89	2130.91
413.10	1833.96
413.31	1741.39
413.52	2374.21
413.73	2385.27
413.94	1781.32
414.15	1952.33
414.36	1977.11
414.57	1906.04
414.78	1723.37
414.99	1729.30
415.19	2149.96
415.40	2109.61
415.61	1976.49
415.82	1881.67
416.03	2183.13
416.24	2104.90
416.45	1834.16
416.66	1706.98
416.87	1854.23
417.08	2167.57
417.29	1772.72
417.50	1838.87
417.70	2153.03
417.91	2123.74
418.12	1859.35
418.33	1802.01
418.54	2127.43
418.75	2253.99
418.96	1956.01
419.17	1882.49
419.38	2305.40
419.59	2161.63
419.79	1913.42
420.00	1851.77
420.21	2529.24
420.42	2084.83
420.63	1821.05
420.84	1894.17
421.05	2052.06
421.26	2084.63
421.47	1746.30
421.67	2179.86
421.88	1969.53
422.09	1859.15
422.30	2043.05
422.51	1871.64
422.72	2411.28
422.93	2198.29
423.14	1874.71
423.35	1729.30
423.55	1805.08
423.76	1962.77
423.97	1846.04
424.18	1717.63
424.39	2018.89
424.60	2190.10
424.81	1833.14
425.02	1912.80
425.22	2026.67
425.43	1994.52
425.64	2005.99
425.85	1871.43
426.06	2417.42
426.27	2225.32
426.48	1949.87
426.68	1919.15
426.89	2217.34
427.10	2417.01
427.31	1861.81
427.52	1777.43
427.73	2180.68
427.94	2135.42
428.14	1975.68
428.35	1864.47
428.56	2309.29
428.77	2239.86
428.98	1864.68
429.19	1865.49
429.40	1995.13
429.60	2030.36
429.81	1969.94
430.02	1892.94
430.23	2032.40
430.44	2221.02
430.65	1783.99
430.85	1847.06
431.06	2174.94
431.27	1813.89
431.48	1839.49
431.69	1853.62
431.90	2061.08
432.10	2077.25
432.31	1896.83
432.52	1804.87
432.73	2507.12
432.94	2308.88
433.15	1964.82
433.35	1798.12
433.56	2275.29
433.77	2101.22
433.98	2074.39
434.19	1956.42
434.40	2254.20
434.60	2215.90
434.81	2068.24
435.02	1992.88
435.23	2125.79
435.44	2039.16
435.64	1744.66
435.85	1774.16
436.06	2020.94
436.27	2028.31
436.48	1749.17
436.68	1817.37
436.89	2381.58
437.10	2281.03
437.31	1948.44
437.52	2015.82
437.73	2180.27
437.93	2132.75
438.14	1927.75
438.35	1729.51
438.56	2020.73
438.77	2035.68
438.97	2002.30
439.18	1827.81
439.39	2267.31
439.60	1859.35
439.80	1805.08
440.01	1847.68
440.22	1971.99
440.43	2191.12
440.64	1740.36
440.84	1872.87
441.05	1876.96
441.26	2543.99
441.47	1927.75
441.68	1846.04
441.88	2133.37
442.09	2171.46
442.30	2160.61
442.51	2162.04
442.71	2172.69
442.92	2212.83
443.13	1927.14
443.34	1861.19
443.55	1943.11
443.75	2191.74
443.96	1824.94
444.17	1758.59
444.38	2209.96
444.58	1899.08
444.79	1944.75
445.00	1884.95
445.21	2070.91
445.41	2018.68
445.62	1668.68
445.83	1920.99
446.04	2069.06
446.24	1839.49
446.45	1680.56
446.66	1856.28
446.87	2150.37
447.07	1984.89
447.28	2028.31
447.49	1871.43
447.70	2219.18
447.90	2244.78
448.11	1892.32
448.32	1956.63
448.53	2292.91
448.73	2285.74
448.94	1834.98
449.15	1991.65
449.36	2099.17
449.56	2112.68
449.77	1829.86
449.98	1755.11
450.19	2006.19
450.39	1996.97
450.60	1901.13
450.81	1930.21
451.02	2028.51
451.22	2306.83
451.43	1780.30
451.64	1822.28
451.84	1976.70
452.05	2261.37
452.26	1882.90
452.47	1886.59
452.67	2009.26
452.88	2295.16
453.09	1806.10
453.30	1787.06
453.50	2182.73
453.71	2405.75
453.92	1925.30
454.12	2077.25
454.33	2078.48
454.54	2147.09
454.75	1890.28
454.95	1833.55
455.16	2135.62
455.37	2135.62
455.57	1967.69
455.78	1890.48
455.99	2046.74
456.19	2073.16
456.40	1796.27
456.61	1901.74
456.82	2064.97
457.02	2213.44
457.23	1987.14
457.44	2144.43
457.64	2087.08
457.85	2282.87
458.06	1953.97
458.26	2072.95
458.47	2094.25
458.68	2239.66
458.89	1844.61
459.09	2004.76
459.30	2421.93
459.51	2071.93
459.71	1738.93
459.92	1829.86
460.13	2224.09
460.33	2456.74
460.54	1903.79
460.75	1939.63
460.95	1932.26
461.16	2146.07
461.37	1869.18
461.57	1846.45
461.78	2075.62
461.99	1906.45
462.19	2087.49
462.40	1807.54
462.61	2428.69
462.81	2244.57
463.02	1807.74
463.23	1822.69
463.43	2148.93
463.64	1974.86
463.85	3039.39
464.05	1834.98
464.26	2595.60
464.47	2284.71
464.67	2038.55
464.88	1969.53
465.09	2024.42
465.29	2220.82
465.50	2102.04
465.71	2022.78
465.91	2063.53
466.12	2060.05
466.33	1966.46
466.53	1821.05
466.74	2303.35
466.94	2040.60
467.15	1940.04
467.36	2058.82
467.56	1894.37
467.77	2071.93
467.98	1910.14
468.18	1855.46
468.39	2003.32
468.60	2374.82
468.80	1874.92
469.01	1795.25
469.21	2137.06
469.42	2269.76
469.63	1863.04
469.83	1788.70
470.04	2168.39
470.25	2290.04
470.45	1979.57
470.66	1842.97
470.86	2116.37
471.07	2026.87
471.28	1944.55
471.48	1953.56
471.69	2086.68
471.90	2782.17
472.10	2027.28
472.31	2012.13
472.51	2152.42
472.72	2132.14
472.93	1953.56
473.13	2063.94
473.34	2205.66
473.54	2155.28
473.75	1987.76
473.96	2118.83
474.16	2052.68
474.37	2156.10
474.57	1933.69
474.78	1803.65
474.99	2102.85
475.19	2080.94
475.40	1885.16
475.60	1833.96
475.81	2465.55
476.02	2188.66
476.22	2117.60
476.43	2215.29
476.63	2149.75
476.84	2310.11
477.05	1771.29
477.25	1846.86
477.46	2601.74
477.66	2104.90
477.87	1810.40
478.08	1868.77
478.28	2220.61
478.49	2038.75
478.69	1830.47
478.90	1870.00
479.10	2154.26
479.31	2375.85
479.52	1926.73
479.72	2026.06
479.93	2180.68
480.13	2048.99
480.34	1902.56
480.54	1993.08
480.75	1974.04
480.96	2293.52
481.16	1853.00
481.37	1967.48
481.57	2204.43
481.78	2182.32
481.98	2080.94
482.19	1965.03
482.40	2357.62
482.60	2175.15
482.81	1980.59
483.01	1778.25
483.22	2192.96
483.42	2201.77
483.63	1962.36
483.83	1923.45
484.04	2004.14
484.24	2245.60
484.45	2028.31
484.66	1818.60
484.86	2163.27
485.07	1955.20
485.27	1953.35
485.48	1841.74
485.68	2291.47
485.89	1965.03
486.09	1985.51
486.30	1882.70
486.50	2100.81
486.71	2060.67
486.91	1957.65
487.12	2149.14
487.33	2691.65
487.53	2754.93
487.74	2470.26
487.94	2351.27
488.15	2336.12
488.35	2300.69
488.56	2016.02
488.76	1921.40
488.97	2097.32
489.17	2232.49
489.38	1954.99
489.58	1909.94
489.79	2185.80
489.99	2130.09
490.20	1921.81
490.40	2013.56
490.61	2140.95
490.81	1980.18
491.02	1947.41
491.22	1952.74
491.43	2205.25
491.63	2052.47
491.84	2058.00
492.04	1798.12
492.25	2166.55
492.45	2018.68
492.66	1882.70
492.86	1792.18
493.07	2021.55
493.27	2438.72
493.48	1774.16
493.68	1866.31
493.89	2048.17
494.09	2183.95
494.30	1890.28
494.50	2107.77
494.71	2163.88
494.91	1856.69
495.12	1868.77
495.32	1941.68
495.53	2095.89
495.73	1900.31
495.94	2061.49
496.14	1887.61
496.35	2540.10
496.55	2161.63
496.76	1914.85
496.96	1966.66
497.17	2066.20
497.37	2158.76
497.58	1883.72
497.78	1840.30
497.98	2013.77
498.19	2036.91
498.39	1886.59
498.60	1947.21
498.80	1780.50
499.01	2200.95
499.21	1812.04
499.42	1948.44
499.62	2019.30
499.83	2462.27
500.03	1783.17
500.24	1995.54
500.44	2309.70
500.64	2239.86
500.85	1863.24
501.05	2015.61
501.26	1823.72
501.46	2281.44
501.67	1836.62
501.87	1789.11
502.08	1923.04
502.28	2015.41
502.48	1978.13
502.69	2017.25
502.89	1828.84
503.10	1929.80
503.30	1948.64
503.51	1929.39
503.71	1842.15
503.92	2162.25
504.12	1938.81
504.32	1851.77
504.53	2193.37
504.73	2166.75
504.94	2031.79
505.14	2123.13
505.35	2164.29
505.55	2121.70
505.75	1941.68
505.96	2079.51
506.16	2408.21
506.37	2010.49
506.57	1817.37
506.78	1995.75
506.98	2231.88
507.18	1878.19
507.39	1835.39
507.59	1913.42
507.80	1968.30
508.00	2095.48
508.20	2093.02
508.41	1907.89
508.61	2287.79
508.82	2198.29
509.02	2055.96
509.22	1832.52
509.43	1900.72
509.63	1966.05
509.84	1912.39
510.04	1768.01
510.24	2324.44
510.45	2179.86
510.65	1813.48
510.86	1941.68
511.06	1877.78
511.26	2194.40
511.47	2058.21
511.67	1856.48
511.88	2144.43
512.08	2221.64
512.28	1801.39
512.49	1959.50
512.69	2097.53
512.90	2116.99
513.10	1887.61
513.30	1926.32
513.51	2119.03
513.71	2341.44
513.91	1972.40
514.12	1964.41
514.32	2200.54
514.53	1963.80
514.73	1971.99
514.93	1884.34
515.14	2073.16
515.34	2249.90
515.54	1876.76
515.75	1935.13
515.95	2126.00
516.15	2282.87
516.36	1936.15
516.56	1968.10
516.77	1731.56
516.97	2125.38
517.17	1891.91
517.38	2006.60
517.58	2277.34
517.78	2012.13
517.99	1964.41
518.19	1901.95
518.39	2222.05
518.60	1971.78
518.80	1792.79
519.00	1960.93
519.21	2011.51
519.41	2369.30
519.61	1840.51
519.82	1987.55
520.02	2076.64
520.22	2080.12
520.43	1890.68
520.63	1919.56
520.83	1936.56
521.04	1806.51
521.24	1991.04
521.44	1885.16
521.65	1913.42
521.85	2133.98
522.05	1832.11
522.26	1848.09
522.46	2383.43
522.66	2188.25
522.87	1908.30
523.07	2078.48
523.27	1984.48
523.48	2265.26
523.68	1932.05
523.88	1974.86
524.09	2243.14
524.29	2101.22
524.49	1758.18
524.70	1995.75
524.90	2284.71
525.10	2120.67
525.31	1812.66
525.51	1897.85
525.71	2160.40
525.91	2118.21
526.12	1896.42
526.32	1801.19
526.52	1980.18
526.73	1956.22
526.93	1969.94
527.13	1808.77
527.34	2055.34
527.54	2049.81
527.74	1925.71
527.94	1804.06
528.15	1896.62
528.35	2072.54
528.55	2026.87
528.76	1956.01
528.96	1792.79
529.16	2219.18
529.36	2002.71
529.57	1833.75
529.77	2231.88
529.97	1915.67
530.18	2005.17
530.38	1899.90
530.58	2152.21
530.78	2095.07
530.99	1872.05
531.19	1990.83
531.39	1941.88
531.60	2073.57
531.80	1946.59
532.00	2056.98
532.20	2100.60
532.41	1943.52
532.61	1865.70
532.81	1889.46
533.01	2024.21
533.22	2146.89
533.42	2031.18
533.62	1786.03
533.82	2245.39
534.03	2008.44
534.23	2004.76
534.43	1871.43
534.63	1961.54
534.84	2101.01
535.04	2004.96
535.24	1929.39
535.44	2488.49
535.65	1973.83
535.85	1876.55
536.05	1852.39
536.25	2064.15
536.46	1899.29
536.66	2079.92
536.86	1939.43
537.06	2160.20
537.27	2267.51
537.47	1972.81
537.67	1893.35
537.87	2283.69
538.08	2046.94
538.28	1811.84
538.48	1806.10
538.68	2007.62
538.88	2163.47
539.09	1788.29
539.29	1899.08
539.49	2212.63
539.69	2103.26
539.90	2001.89
540.10	1849.73
540.30	2250.51
540.50	1990.63
540.70	1774.36
540.91	1879.63
541.11	2193.37
541.31	2322.40
541.51	1963.59
541.72	1987.76
541.92	2095.48
542.12	1948.23
542.32	1951.51
542.52	1896.21
542.73	1925.30
542.93	2141.77
543.13	1882.29
543.33	2021.35
543.53	2185.59
543.74	2150.37
543.94	1902.97
544.14	1977.31
544.34	2209.35
544.54	2044.08
544.75	2010.29
544.95	2099.17
545.15	2205.25
545.35	2320.14
545.55	2048.17
545.75	1914.24
545.96	2455.10
546.16	1959.70
546.36	1917.10
546.56	1934.72
546.76	2235.77
546.97	2343.90
547.17	1956.22
547.37	2024.21
547.57	2004.35
547.77	2212.42
547.97	1990.42
548.18	1997.59
548.38	2046.13
548.58	2302.53
548.78	1843.99
548.98	1924.48
549.18	2169.41
549.39	2278.16
549.59	1968.92
549.79	1941.68
549.99	2299.46
550.19	2198.90
550.39	2068.04
550.60	1938.81
550.80	2100.40
551.00	2163.68
551.20	1897.85
551.40	1909.53
551.60	2150.37
551.80	2089.34
552.01	2008.24
552.21	1923.25
552.41	2131.32
552.61	2357.21
552.81	1999.23
553.01	1864.68
553.21	2143.20
553.42	1925.50
553.62	1926.73
553.82	1837.23
554.02	2338.78
554.22	2190.30
554.42	1824.74
554.62	2053.91
554.83	2323.22
555.03	2298.44
555.23	1958.27
555.43	2154.05
555.63	2082.17
555.83	2067.22
556.03	1995.34
556.23	1806.31
556.44	2046.94
556.64	2224.09
556.84	1671.76
557.04	1912.60
557.24	2055.14
557.44	2076.85
557.64	1973.42
557.84	1857.92
558.04	1979.36
558.25	2177.40
558.45	1855.46
558.65	1941.68
558.85	2058.41
559.05	1783.78
559.25	1934.51
559.45	1996.36
559.65	2380.56
559.85	2872.07
560.05	1959.91
560.26	2000.46
560.46	2035.07
560.66	1942.29
560.86	1910.14
561.06	1829.25
561.26	2309.49
561.46	2152.21
561.66	1902.15
561.86	2037.11
562.06	1927.14
562.26	2039.37
562.47	1988.37
562.67	1847.06
562.87	2186.21
563.07	1855.25
563.27	1967.89
563.47	1935.94
563.67	1981.82
563.87	2160.40
564.07	1875.53
564.27	1904.61
564.47	2065.17
564.67	2105.31
564.87	1876.76
565.08	1990.42
565.28	1957.45
565.48	2147.70
565.68	1977.11
565.88	2049.61
566.08	2407.18
566.28	2031.38
566.48	1815.93
566.68	1925.71
566.88	2013.56
567.08	2205.05
567.28	1967.69
567.48	1969.12
567.68	2132.75
567.88	1847.27
568.08	1955.40
568.28	2071.11
568.48	2048.79
568.68	2276.52
568.89	1996.77
569.09	1787.26
569.29	2187.03
569.49	2181.70
569.69	1868.57
569.89	1857.10
570.09	1752.45
570.29	1966.66
570.49	1815.93
570.69	1919.77
570.89	2205.87
571.09	2375.64
571.29	1809.59
571.49	2104.49
571.69	2130.50
571.89	2149.14
572.09	1949.67
572.29	1994.52
572.49	2187.03
572.69	2166.96
572.89	1991.65
573.09	1668.07
573.29	2019.71
573.49	2058.00
573.69	1901.95
573.89	2003.73
574.09	1971.99
574.29	2271.20
574.49	1916.28
574.69	1858.74
574.89	1925.30
575.09	1926.32
575.29	1826.79
575.49	1967.89
575.69	2113.91
575.89	1885.77
576.09	1947.82
576.29	1968.51
576.49	1895.40
576.69	2037.52
576.89	1890.89
577.09	1949.67
577.29	1807.74
577.49	2359.26
577.69	1896.83
577.89	2061.69
578.09	2062.51
578.29	1839.90
578.49	1932.46
578.69	1849.93
578.89	2209.55
579.09	2094.46
579.29	1860.99
579.49	2054.32
579.69	1987.55
579.89	2347.79
580.09	1732.79
580.29	1799.35
580.49	1979.36
580.69	1876.96
580.89	1878.81
581.09	1908.09
581.29	1993.90
581.49	2026.06
581.69	1865.49
581.89	1858.33
582.09	1928.78
582.28	1922.22
582.48	2004.55
582.68	2076.85
582.88	2279.18
583.08	2019.30
583.28	1924.27
583.48	1929.80
583.68	1935.13
583.88	2043.26
584.08	1985.30
584.28	1995.75
584.48	2420.08
584.68	2135.83
584.88	1942.50
585.08	2135.42
585.28	2186.00
585.48	2268.33
585.68	2021.96
585.87	2047.15
586.07	2153.85
586.27	2025.44
586.47	2001.28
586.67	1959.29
586.87	2028.72
587.07	2003.12
587.27	1837.03
587.47	1992.47
587.67	2345.54
587.87	2501.18
588.07	2015.82
588.27	1891.91
588.46	2175.56
588.66	2200.75
588.86	1922.63
589.06	1985.30
589.26	2217.13
589.46	2159.38
589.66	1866.52
589.86	1839.28
590.06	2013.56
590.26	2078.89
590.46	1899.70
590.66	1996.56
590.85	1890.68
591.05	2070.70
591.25	1851.57
591.45	1927.14
591.65	2139.72
591.85	2012.74
592.05	1862.42
592.25	1994.31
592.45	2216.52
592.64	1988.78
592.84	1934.51
593.04	1833.34
593.24	2469.24
593.44	1979.57
593.64	1961.13
593.84	2017.45
594.04	2004.35
594.24	2291.47
594.43	1952.53
594.63	1931.44
594.83	2226.76
595.03	2177.40
595.23	1880.04
595.43	1836.21
595.63	1960.73
595.83	2227.78
596.02	1722.96
596.22	1910.14
596.42	2105.72
596.62	2051.86
596.82	1915.67
597.02	1976.29
597.22	2253.58
597.41	2098.96
597.61	1907.27
597.81	2053.29
598.01	2160.61
598.21	1963.80
598.41	1854.03
598.61	1823.92
598.80	2057.18
599.00	2097.94
599.20	2075.41
599.40	1927.75
599.60	2008.85
599.80	2176.38
599.99	2073.98
600.19	1908.50
600.39	2041.01
600.59	2140.74
600.79	1982.64
600.99	1935.94
601.19	2338.58
601.38	2366.22
601.58	1997.38
601.78	1709.85
601.98	2126.00
602.18	2114.73
602.37	2162.86
602.57	1939.22
602.77	2142.38
602.97	2080.33
603.17	2132.35
603.37	2005.99
603.56	2218.36
603.76	2164.09
603.96	1939.22
604.16	2015.61
604.36	2303.35
604.56	2198.70
604.75	1846.04
604.95	1951.71
605.15	2276.73
605.35	2177.40
605.55	1908.71
605.74	1823.51
605.94	2231.88
606.14	2060.05
606.34	1983.05
606.54	2009.88
606.73	1984.89
606.93	2152.01
607.13	1883.11
607.33	2011.92
607.53	2320.35
607.72	2201.98
607.92	2044.69
608.12	2084.01
608.32	2062.30
608.51	2176.17
608.71	1823.31
608.91	1981.61
609.11	2177.20
609.31	1971.37
609.50	1924.89
609.70	2154.05
609.90	2210.99
610.10	2211.60
610.29	1898.88
610.49	1803.24
610.69	2170.85
610.89	2063.53
611.09	1919.77
611.28	2156.31
611.48	2226.76
611.68	2016.43
611.88	1894.78
612.07	1863.45
612.27	2164.91
612.47	1932.05
612.67	1960.93
612.86	2055.34
613.06	2056.37
613.26	1831.91
613.46	1848.70
613.65	1987.76
613.85	2539.48
614.05	2194.81
614.25	2020.94
614.44	1933.08
614.64	2031.18
614.84	1972.81
615.04	1864.88
615.23	1922.43
615.43	2151.60
615.63	2126.41
615.83	1858.74
616.02	1793.20
616.22	2129.68
616.42	1842.97
616.62	1806.31
616.81	1927.14
617.01	2082.17
617.21	2017.25
617.41	1809.38
617.60	1941.27
617.80	2148.73
618.00	2172.49
618.19	2031.38
618.39	1967.28
618.59	2131.94
618.79	2040.39
618.98	1801.60
619.18	1946.18
619.38	2447.73
619.57	2051.45
619.77	1944.14
619.97	1922.02
620.17	1981.00
620.36	1840.30
620.56	2089.34
620.76	1791.56
620.95	1863.86
621.15	1959.50
621.35	1843.99
621.54	1917.72
621.74	2054.11
621.94	1908.71
622.14	1811.22
622.33	1793.41
622.53	2009.06
622.73	1985.92
622.92	1807.33
623.12	1926.11
623.32	2381.99
623.51	2206.69
623.71	1828.02
623.91	2103.67
624.10	1911.78
624.30	2065.99
624.50	1797.30
624.69	1799.14
624.89	2717.45
625.09	2012.95
625.29	1750.19
625.48	1820.85
625.68	2116.99
625.88	2200.54
626.07	1996.77
626.27	1860.17
626.47	1958.47
626.66	1831.09
626.86	1952.33
627.06	1928.78
627.25	2040.19
627.45	2303.15
627.64	1923.04
627.84	2096.10
628.04	1903.79
628.23	2394.49
628.43	1836.82
628.63	1852.80
628.82	1960.52
629.02	2333.05
629.22	1973.63
629.41	2086.27
629.61	2044.08
629.81	2361.10
630.00	1882.29
630.20	1810.20
630.40	2053.50
630.59	2110.43
630.79	1925.50
630.98	1895.60
631.18	2039.37
631.38	2034.66
631.57	2046.94
631.77	1795.04
631.97	2071.11
632.16	2125.18
632.36	1940.45
632.56	1973.22
632.75	2088.11
632.95	2219.18
633.14	1831.70
633.34	2093.43
633.54	1777.64
633.73	1980.80
633.93	1904.82
634.12	1762.69
634.32	2547.47
634.52	2060.05
634.71	1810.40
634.91	1990.22
635.11	1862.22
635.30	1949.67
635.50	1949.05
635.69	1849.52
635.89	2362.95
636.09	2188.05
636.28	1845.22
636.48	1843.38
636.67	2126.82
636.87	2142.38
637.07	1983.87
637.26	1896.83
637.46	2083.60
637.65	2193.37
637.85	1950.49
638.04	1859.35
638.24	1947.00
638.44	2114.94
638.63	1943.52
638.83	1907.89
639.02	2108.18
639.22	2139.10
639.42	1899.49
639.61	1919.56
639.81	2067.01
640.00	2045.51
640.20	2047.76
640.39	1975.06
640.59	2375.03
640.79	2153.03
640.98	1974.86
641.18	1880.44
641.37	2004.76
641.57	1953.56
641.76	1967.07
641.96	1713.13
642.15	2021.96
642.35	1948.85
642.55	1970.97
642.74	1775.79
642.94	2163.47
643.13	2260.34
643.33	1881.88
643.52	1853.41
643.72	1976.70
643.91	2041.42
644.11	1822.08
644.31	1848.09
644.50	1937.38
644.70	2260.75
644.89	1944.14
645.09	2058.21
645.28	2107.56
645.48	2145.04
645.67	1867.34
645.87	1809.99
646.06	2012.54
646.26	2083.60
646.45	1710.67
646.65	1697.56
646.84	2362.74
647.04	1984.69
647.24	1778.25
647.43	1898.06
647.63	2092.00
647.82	2310.93
648.02	1811.02
648.21	1903.59
648.41	2270.17
648.60	2012.13
648.80	2057.39
648.99	1912.80
649.19	1997.18
649.38	1798.32
649.58	1917.72
649.77	1993.90
649.97	2249.28
650.16	2125.79
650.36	1675.44
650.55	2078.89
650.75	2078.89
650.94	2329.36
651.14	1959.70
651.33	2014.18
651.53	2337.14
651.72	1972.40
651.92	1934.51
652.11	1752.65
652.31	2165.32
652.50	2118.01
652.70	1959.70
652.89	1823.51
653.09	2305.40
653.28	2001.48
653.48	1728.08
653.67	1748.35
653.87	2555.86
654.06	2081.97
654.25	2127.43
654.45	1869.80
654.64	2002.91
654.84	1987.14
655.03	1734.22
655.23	2094.87
655.42	2196.86
655.62	2388.34
655.81	2057.39
656.01	1886.59
656.20	2210.78
656.40	2352.91
656.59	1983.87
656.79	2095.07
656.98	2108.79
657.17	2237.41
657.37	1930.21
657.56	1907.48
657.76	2133.57
657.95	2234.13
658.15	1598.23
658.34	1963.59
658.54	2062.51
658.73	1854.23
658.92	1919.97
659.12	1944.14
659.31	2153.23
659.51	1863.86
659.70	1992.06
659.90	1855.46
660.09	2192.96
660.29	2028.51
660.48	1804.67
660.67	2086.68
660.87	1942.91
661.06	2112.48
661.26	2008.03
661.45	2050.22
661.65	2130.30
661.84	1958.47
662.03	1878.40
662.23	1891.91
662.42	2377.08
662.62	1883.72
662.81	1792.38
663.00	1872.05
663.20	2081.35
663.39	2131.53
663.59	2019.30
663.78	1910.14
663.97	2008.24
664.17	2216.93
664.36	1816.14
664.56	1867.54
664.75	2192.15
664.94	2142.38
665.14	1984.69
665.33	1934.92
665.53	2025.65
665.72	2021.75
665.91	2015.00
666.11	1947.00
666.30	2061.28
666.50	2043.46
666.69	1955.61
666.88	1891.50
667.08	2102.44
667.27	1999.02
667.47	1930.42
667.66	1883.52
667.85	2203.61
668.05	2070.09
668.24	1851.16
668.43	2131.53
668.63	1982.43
668.82	2237.41
669.02	2015.61
669.21	1902.15
669.40	1847.68
669.60	2357.21
669.79	1764.33
669.98	2542.55
670.18	1902.77
670.37	1865.90
670.56	1928.37
670.76	1971.17
670.95	1990.63
671.15	2162.25
671.34	1935.94
671.53	1920.99
671.73	1951.51
671.92	1928.16
672.11	1811.22
672.31	1876.76
672.50	2069.47
672.69	1856.69
672.89	1679.13
673.08	1906.86
673.27	2174.33
673.47	2074.80
673.66	1975.68
673.85	1795.04
674.05	2059.23
674.24	2049.40
674.43	1802.62
674.63	1982.84
674.82	2439.34
675.01	1707.19
675.21	1989.40
675.40	1887.82
675.59	1921.81
675.79	2286.35
675.98	1891.30
676.17	2061.69
676.37	2053.50
676.56	1974.65
676.75	1914.03
676.95	1932.87
677.14	1991.44
677.33	2195.63
677.52	1786.24
677.72	1876.96
677.91	2065.17
678.10	1823.31
678.30	1826.99
678.49	1825.15
678.68	2398.58
678.88	1769.45
679.07	2035.48
679.26	1882.29
679.45	2370.11
679.65	2256.04
679.84	1723.37
680.03	1749.78
680.23	1985.92
680.42	2485.21
680.61	1792.18
680.81	1866.93
681.00	2038.55
681.19	2113.50
681.38	2009.26
681.58	1967.69
681.77	1981.20
681.96	2162.65
682.15	1824.33
682.35	1990.83
682.54	2101.42
682.73	1842.56
682.93	1824.54
683.12	1816.55
683.31	2146.89
683.50	2514.91
683.70	1816.96
683.89	1969.12
684.08	1884.75
684.27	2202.39
684.47	1765.96
684.66	1893.35
684.85	2320.14
685.04	2244.16
685.24	1837.44
685.43	1862.63
685.62	1760.43
685.81	2094.66
686.01	1960.93
686.20	1819.01
686.39	1811.02
686.58	2375.85
686.78	1940.86
686.97	1916.49
687.16	2173.51
687.35	2080.94
687.55	1899.29
687.74	1927.34
687.93	1843.79
688.12	1977.52
688.32	1904.61
688.51	1746.10
688.70	2088.72
688.89	1855.05
689.08	1768.63
689.28	1854.64
689.47	2051.45
689.66	2034.04
689.85	2000.46
690.05	1834.57
690.24	1896.83
690.43	2048.99
690.62	1964.41
690.81	1881.47
691.01	2046.54
691.20	1986.94
691.39	1771.70
691.58	1958.47
691.77	2339.19
691.97	2030.36
692.16	1961.13
692.35	1911.37
692.54	1928.16
692.73	2079.51
692.93	1914.65
693.12	1954.58
693.31	2084.01
693.50	2058.21
693.69	1983.46
693.89	1887.41
694.08	2244.16
694.27	2253.38
694.46	1862.01
694.65	1885.16
694.85	2115.76
695.04	2078.69
695.23	1857.51
695.42	2127.84
695.61	2296.18
695.80	2443.43
696.00	2437.08
696.19	2483.57
696.38	2242.32
696.57	2341.65
696.76	2250.72
696.95	2096.10
697.15	2461.45
697.34	2417.63
697.53	2005.58
697.72	2086.88
697.91	2048.79
698.10	2325.47
698.30	1905.63
698.49	1912.39
698.68	2093.43
698.87	1977.11
699.06	1837.44
699.25	1923.04
699.45	2220.00
699.64	2036.09
699.83	2066.20
700.02	1846.24
700.21	2119.24
700.40	1949.87
700.59	1883.52
700.79	1911.78
700.98	2129.07
701.17	1909.73
701.36	1827.40
701.55	1842.15
701.74	2194.40
701.93	1843.79
702.12	1861.40
702.32	1802.01
702.51	2180.68
702.70	2153.44
702.89	1923.86
703.08	1894.99
703.27	2214.06
703.46	2100.60
703.65	1809.79
703.85	1806.51
704.04	1915.47
704.23	2207.10
704.42	1794.02
704.61	1851.77
704.80	2307.04
704.99	1933.49
705.18	1946.59
705.37	1900.11
705.57	2177.81
705.76	2395.10
705.95	2095.28
706.14	2420.49
706.33	2641.27
706.52	2796.30
706.71	2248.06
706.90	2102.85
707.09	2307.24
707.28	2242.53
707.47	1934.31
707.67	2121.70
707.86	1992.67
708.05	2283.69
708.24	1942.91
708.43	1982.43
708.62	2000.66
708.81	1919.97
709.00	1821.05
709.19	1851.77
709.38	2176.17
709.57	1837.23
709.76	1932.87
709.96	1848.29
710.15	2269.76
710.34	2018.68
710.53	2002.09
710.72	1906.45
710.91	2204.23
711.10	2141.77
711.29	1985.92
711.48	1852.39
711.67	1853.21
711.86	2092.20
712.05	1774.56
712.24	1815.32
712.43	2099.99
712.62	2245.39
712.81	1907.68
713.00	2098.96
713.19	1855.25
713.39	2098.76
713.58	1795.45
713.77	1947.82
713.96	2114.12
714.15	2000.05
714.34	1880.65
714.53	1754.09
714.72	2350.66
714.91	1848.91
715.10	1939.84
715.29	1793.82
715.48	2498.32
715.67	2123.74
715.86	1922.22
716.05	1892.94
716.24	1960.52
716.43	1960.32
716.62	1783.99
716.81	1772.93
717.00	1984.89
717.19	2280.82
717.38	1887.20
717.57	1874.92
717.76	1781.12
717.95	2211.19
718.14	1917.92
718.33	1923.86
718.52	1794.84
718.71	1806.92
718.90	1805.90
719.09	1852.80
719.28	2008.44
719.47	2162.25
719.66	1972.40
719.85	1958.06
720.04	1951.30
720.23	1990.63
720.42	1815.73
720.61	1958.27
720.80	1803.03
720.99	2069.88
721.18	1846.65
721.37	1822.08
721.56	1936.15
721.75	2174.33
721.94	1813.27
722.13	1863.24
722.32	1954.79
722.51	2157.13
722.70	1940.45
722.89	1976.49
723.08	2010.29
723.27	2185.18
723.46	1954.38
723.65	1926.93
723.84	1952.12
724.03	2268.94
724.22	1788.70
724.41	1904.82
724.60	1936.15
724.79	2164.70
724.98	1942.29
725.16	1872.46
725.35	2154.67
725.54	1846.24
725.73	1905.23
725.92	1912.80
726.11	1977.93
726.30	2174.53
726.49	1846.04
726.68	1950.90
726.87	2151.60
727.06	2278.98
727.25	1910.55
727.44	2001.48
727.63	2039.57
727.82	2005.99
728.01	1939.02
728.20	1985.10
728.38	2251.95
728.57	1983.66
728.76	1886.79
728.95	2015.82
729.14	1851.98
729.33	1840.92
729.52	1675.44
729.71	1815.73
729.90	1870.21
730.09	1945.37
730.28	1825.97
730.47	1833.75
730.66	2172.08
730.84	2009.67
731.03	1899.70
731.22	1918.33
731.41	2024.21
731.60	2096.30
731.79	1712.92
731.98	1779.07
732.17	2115.14
732.36	2093.43
732.55	1830.27
732.73	1755.52
732.92	2220.41
733.11	2118.21
733.30	1832.32
733.49	1773.34
733.68	2111.87
733.87	2032.81
734.06	1753.88
734.25	1772.11
734.43	1901.33
734.62	2059.64
734.81	1863.65
735.00	1829.04
735.19	1949.26
735.38	2108.79
735.57	1778.87
735.76	1954.17
735.94	2062.71
736.13	2391.21
736.32	1945.57
736.51	1897.24
736.70	2350.66
736.89	2356.39
737.08	2115.96
737.27	2291.88
737.45	2689.60
737.64	2625.91
737.83	2662.56
738.02	2665.02
738.21	2798.55
738.40	2793.02
738.59	2292.70
738.77	2312.98
738.96	2183.13
739.15	2312.98
739.34	2271.61
739.53	2157.13
739.72	2385.27
739.90	2320.96
740.09	1960.32
740.28	1983.46
740.47	2190.30
740.66	2166.14
740.85	1818.39
741.03	1890.68
741.22	1882.29
741.41	1991.24
741.60	1720.09
741.79	1950.90
741.98	2234.74
742.16	2333.05
742.35	1912.60
742.54	1919.36
742.73	2340.62
742.92	1953.76
743.10	1747.53
743.29	1832.93
743.48	2429.30
743.67	1934.10
743.86	1724.39
744.05	1799.14
744.23	1859.56
744.42	1871.64
744.61	1920.99
744.80	1770.67
744.99	1932.87
745.17	1767.60
745.36	1742.41
745.55	1964.62
745.74	2037.73
745.93	1903.79
746.11	1823.51
746.30	1758.18
746.49	2194.60
746.68	1862.22
746.86	1894.17
747.05	1841.12
747.24	2118.01
747.43	2106.75
747.62	1760.23
747.80	1809.99
747.99	2218.56
748.18	2147.09
748.37	1904.41
748.56	1965.64
748.74	2212.42
748.93	2039.37
749.12	2166.55
749.31	2705.98
749.49	3163.29
749.68	3459.63
749.87	3730.17
750.06	3578.62
750.24	3622.45
750.43	3593.57
750.62	3540.32
750.81	3655.01
750.99	3858.99
751.18	3801.85
751.37	3237.43
751.56	3221.66
751.74	3503.26
751.93	3533.77
752.12	2552.18
752.31	2467.39
752.49	2475.38
752.68	2699.22
752.87	2210.37
753.06	2154.05
753.24	2175.56
753.43	2320.76
753.62	1941.88
753.81	1900.92
753.99	2322.81
754.18	2126.61
754.37	1850.95
754.55	1888.02
754.74	2358.65
754.93	1755.93
755.12	1839.90
755.30	1771.49
755.49	2181.50
755.68	2035.27
755.86	1980.59
756.05	1752.65
756.24	2279.59
756.43	1838.87
756.61	1819.83
756.80	1930.62
756.99	2262.80
757.17	2023.19
757.36	1797.50
757.55	1875.73
757.74	2106.13
757.92	2012.13
758.11	1790.74
758.30	1700.22
758.48	1961.75
758.67	1802.62
758.86	1891.30
759.04	1801.80
759.23	1928.78
759.42	1997.59
759.60	1833.55
759.79	1873.69
759.98	1985.30
760.16	1899.90
760.35	1846.24
760.54	1769.24
760.73	2043.05
760.91	1800.16
761.10	1867.95
761.29	1945.57
761.47	1976.29
761.66	2381.79
761.85	1910.35
762.03	2089.13
762.22	2440.36
762.41	3182.95
762.59	3884.18
762.78	4271.86
762.97	5210.65
763.15	5288.47
763.34	4809.04
763.52	3916.13
763.71	3933.12
763.90	3903.43
764.08	3400.24
764.27	3343.10
764.46	3468.24
764.64	3019.73
764.83	2845.24
765.02	2714.99
765.20	2685.09
765.39	2598.87
765.58	2105.31
765.76	2110.64
765.95	2205.66
766.13	2089.95
766.32	1920.99
766.51	1883.93
766.69	2783.19
766.88	2094.25
767.07	1783.78
767.25	1690.60
767.44	2164.70
767.62	2211.60
767.81	1798.12
768.00	1871.02
768.18	2022.98
768.37	1871.43
768.56	1705.96
768.74	1799.96
768.93	1806.51
769.11	2075.41
769.30	1926.52
769.49	1844.81
769.67	1984.28
769.86	1916.69
770.04	1860.99
770.23	1843.79
770.42	2252.15
770.60	2030.15
770.79	1782.96
770.97	1869.39
771.16	2291.68
771.35	2268.33
771.53	2266.08
771.72	2410.05
771.90	2728.10
772.09	3002.53
772.27	2718.06
772.46	2348.61
772.65	2653.96
772.83	2493.61
773.02	2371.14
773.20	2137.87
773.39	2416.19
773.58	2397.35
773.76	1994.93
773.95	1984.07
774.13	2205.46
774.32	2065.17
774.50	1892.73
774.69	1972.60
774.87	2012.95
775.06	2415.58
775.25	1850.34
775.43	1893.35
775.62	2098.96
775.80	2114.94
775.99	1947.62
776.17	1861.40
776.36	2076.44
776.54	2242.53
776.73	1904.82
776.92	1993.29
777.10	2228.60
777.29	2136.03
777.47	1876.76
777.66	1887.41
777.84	2076.64
778.03	2028.92
778.21	1855.87
778.40	1944.75
778.58	2125.18
778.77	2192.76
778.95	1792.38
779.14	1849.11
779.32	2338.17
779.51	2180.47
779.70	1846.45
779.88	1761.05
780.07	1938.40
780.25	2456.13
780.44	1904.61
780.62	1979.98
780.81	2108.59
780.99	2065.99
781.18	1831.91
781.36	1809.79
781.55	2015.00
781.73	2280.82
781.92	1768.01
782.10	1787.67
782.29	2110.02
782.47	2282.46
782.66	1840.92
782.84	1737.09
783.03	1904.41
783.21	2211.40
783.40	1828.02
783.58	1814.71
783.77	1929.19
783.95	2011.31
784.14	1826.38
784.32	1890.68
784.51	2206.28
784.69	1889.87
784.88	1739.14
785.06	1842.97
785.24	1789.72
785.43	2149.34
785.61	1936.76
785.80	1781.73
785.98	2103.67
786.17	1974.65
786.35	1770.47
786.54	1948.03
786.72	2156.10
786.91	2150.98
787.09	1867.13
787.28	1756.34
787.46	2016.02
787.65	2195.63
787.83	1736.47
788.01	1846.24
788.20	1815.11
788.38	2016.43
788.57	1809.18
788.75	1819.01
788.94	2338.99
789.12	2204.64
789.31	1917.31
789.49	1975.68
789.67	1904.82
789.86	2040.19
790.04	1813.07
790.23	1707.39
790.41	2380.76
790.60	1935.74
790.78	1827.40
790.96	1844.81
791.15	2111.46
791.33	1945.57
791.52	1877.58
791.70	1750.60
791.89	1996.16
792.07	2135.42
792.25	1900.92
792.44	1725.62
792.62	2198.08
792.81	1934.10
792.99	1844.40
793.17	1810.81
793.36	1873.07
793.54	2316.46
793.73	2143.81
793.91	2172.69
794.10	2625.70
794.28	2779.30
794.46	2504.87
794.65	2514.91
794.83	2272.43
795.01	2388.55
795.20	2393.26
795.38	2249.49
795.57	2381.17
795.75	2349.63
795.93	2071.93
796.12	2096.71
796.30	2255.22
796.49	2259.11
796.67	1899.90
796.85	2024.62
797.04	2086.68
797.22	2162.25
797.40	1801.19
797.59	1933.28
797.77	2045.51
797.96	1891.91
798.14	1782.55
798.32	1817.98
798.51	2135.83
798.69	2318.30
798.87	1881.67
799.06	1863.24
799.24	1803.44
799.42	2195.42
799.61	2054.32
799.79	2078.48
799.98	2593.34
800.16	2310.93
800.34	2469.85
800.53	2707.21
800.71	2817.80
800.89	3343.92
801.08	3069.50
801.26	3040.00
801.44	2854.87
801.63	2619.35
801.81	2574.50
801.99	2397.76
802.18	2484.39
802.36	2477.43
802.54	2366.43
802.73	2121.08
802.91	2281.23
803.09	2303.96
803.28	2199.72
803.46	2097.32
803.64	2393.46
803.83	1917.10
804.01	1831.50
804.19	1791.36
804.38	2171.26
804.56	2109.41
804.74	1877.17
804.92	1897.03
805.11	1862.01
805.29	2166.55
805.47	1831.09
805.66	1750.81
805.84	1812.86
806.02	2155.28
806.21	1807.74
806.39	2024.62
806.57	2180.88
806.76	2129.27
806.94	1901.33
807.12	1804.87
807.30	1889.05
807.49	1978.95
807.67	1899.70
807.85	1974.24
808.04	2115.96
808.22	2393.67
808.40	1793.82
808.58	1740.16
808.77	2100.60
808.95	2248.87
809.13	1936.56
809.31	2419.27
809.50	2796.91
809.68	2999.46
809.86	2824.35
810.05	2969.35
810.23	3544.42
810.41	4136.28
810.59	6094.55
810.78	7282.37
810.96	8419.20
811.14	9029.08
811.32	8381.52
811.51	7034.57
811.69	6146.98
811.87	6179.75
812.05	5408.69
812.24	5125.25
812.42	5076.71
812.60	4817.44
812.78	3981.25
812.97	3672.01
813.15	3827.45
813.33	3408.02
813.51	3100.83
813.70	2611.77
813.88	2494.43
814.06	2437.90
814.24	2213.04
814.42	1926.93
814.61	2216.93
814.79	2379.94
814.97	1787.67
815.15	1851.36
815.34	2061.08
815.52	2182.52
815.70	1800.37
815.88	1873.89
816.06	1879.63
816.25	1930.62
816.43	1838.87
816.61	1971.17
816.79	2256.86
816.98	1760.64
817.16	1762.69
817.34	1782.14
817.52	2028.92
817.70	2252.56
817.89	1877.17
818.07	1780.50
818.25	1979.36
818.43	2031.79
818.61	1887.61
818.80	1823.72
818.98	2281.03
819.16	2044.90
819.34	1771.70
819.52	2122.11
819.70	1865.70
819.89	2017.45
820.07	1751.63
820.25	1729.92
820.43	2056.16
820.61	2139.72
820.80	1884.75
820.98	1768.01
821.16	1764.12
821.34	1811.02
821.52	1856.48
821.70	2000.46
821.89	2019.09
822.07	1965.64
822.25	1921.20
822.43	1807.33
822.61	2259.11
822.79	2081.15
822.98	1889.05
823.16	1717.22
823.34	2081.15
823.52	2223.68
823.70	1941.27
823.88	1725.82
824.06	2094.05
824.25	2015.20
824.43	1970.56
824.61	1764.53
824.79	2007.01
824.97	2033.02
825.15	1964.00
825.33	2146.48
825.52	2372.98
825.70	2262.39
825.88	2165.73
826.06	2286.76
826.24	2397.35
826.42	2415.17
826.60	2142.79
826.78	2203.41
826.97	2152.62
827.15	2340.01
827.33	1960.73
827.51	2022.37
827.69	2005.17
827.87	2146.07
828.05	2041.21
828.23	1857.10
828.41	2210.78
828.60	2181.91
828.78	1738.32
828.96	1983.66
829.14	1936.35
829.32	1998.20
829.50	1869.39
829.68	1866.52
829.86	1923.86
830.04	2116.17
830.22	1977.72
830.41	1773.54
830.59	1968.92
830.77	2121.49
830.95	1793.20
831.13	1806.10
831.31	1887.00
831.49	2153.85
831.67	1994.52
831.85	2009.47
832.03	1972.19
832.21	2129.89
832.39	1743.64
832.57	1807.33
832.76	2135.21
832.94	1979.98
833.12	1712.31
833.30	1853.00
833.48	2197.68
833.66	2060.87
833.84	1808.15
834.02	1890.68
834.20	2173.10
834.38	2141.56
834.56	1703.30
834.74	1768.22
834.92	1816.75
835.10	2294.13
835.28	1906.86
835.46	1899.70
835.64	1996.16
835.82	1899.49
836.01	2128.45
836.19	2063.74
836.37	1935.74
836.55	1893.14
836.73	1824.33
836.91	1747.53
837.09	2110.23
837.27	2253.99
837.45	1704.52
837.63	1757.98
837.81	1803.44
837.99	1992.67
838.17	1881.26
838.35	1782.35
838.53	2365.40
838.71	2085.24
838.89	1786.44
839.07	1818.39
839.25	2022.16
839.43	2128.86
839.61	1888.43
839.79	2257.68
839.97	2582.69
840.15	2692.05
840.33	2591.91
840.51	2852.62
840.69	2675.26
840.87	2569.59
841.05	2480.50
841.23	2420.29
841.41	2741.00
841.59	3362.36
841.77	3333.89
841.95	3517.80
842.13	3996.00
842.31	3698.02
842.49	3122.13
842.67	3024.24
842.85	3126.84
843.03	2777.66
843.21	2601.33
843.39	2743.66
843.57	2665.64
843.75	2613.41
843.93	2306.63
844.11	2279.39
844.29	2357.42
844.47	2267.31
844.65	2257.07
844.83	2049.40
845.01	2097.12
845.19	2257.07
845.36	1984.28
845.54	2010.49
845.72	2076.64
845.90	2116.78
846.08	1818.80
846.26	1935.74
846.44	2104.49
846.62	2114.73
846.80	1965.23
846.98	1828.63
847.16	1986.32
847.34	2038.75
847.52	1814.50
847.70	1766.37
847.88	2003.94
848.06	2272.63
848.24	1983.46
848.41	1749.37
848.59	2183.54
848.77	2073.77
848.95	1842.56
849.13	1832.11
849.31	2202.59
849.49	2037.73
849.67	1800.98
849.85	1770.47
850.03	2093.64
850.21	2003.12
850.39	1783.58
850.57	1997.38
850.74	2258.70
850.92	2257.48
851.10	2041.62
851.28	2002.30
851.46	2296.80
851.64	2695.54
851.82	2176.38
852.00	2246.42
852.18	2542.55
852.36	2371.55
852.53	2055.55
852.71	2141.36
852.89	2253.38
853.07	2266.08
853.25	1977.11
853.43	1822.90
853.61	2116.17
853.79	2133.98
853.97	1851.77
854.14	1895.19
854.32	2267.10
854.50	2165.32
854.68	1888.84
854.86	1849.11
855.04	1899.49
855.22	2163.88
855.40	1735.24
855.57	1808.56
855.75	2115.76
855.93	2099.78
856.11	1696.74
856.29	1836.62
856.47	1915.87
856.65	2054.93
856.82	1790.74
857.00	1742.62
857.18	1968.92
857.36	1913.42
857.54	1938.61
857.72	1999.64
857.89	2115.55
858.07	2041.62
858.25	2041.01
858.43	1755.72
858.61	2008.65
858.79	2030.56
858.97	1790.74
859.14	1960.52
859.32	2004.55
859.50	1964.82
859.68	1938.20
859.86	1781.53
860.03	2036.50
860.21	2097.94
860.39	1820.03
860.57	1965.44
860.75	2065.17
860.93	2298.44
861.10	2054.93
861.28	1791.97
861.46	2086.88
861.64	2078.48
861.82	1832.93
861.99	1937.38
862.17	2163.88
862.35	2183.34
862.53	1891.71
862.71	1873.07
862.88	2088.72
863.06	2115.14
863.24	1854.23
863.42	1786.44
863.60	1982.23
863.77	2109.20
863.95	1714.97
864.13	1869.59
864.31	1963.80
864.49	2120.06
864.66	1789.31
864.84	1811.84
865.02	2085.45
865.20	2475.99
865.37	1940.45
865.55	1819.21
865.73	1813.48
865.91	2122.11
866.09	1989.40
866.26	1924.68
866.44	2177.20
866.62	1998.00
866.80	1796.07
866.97	1865.49
867.15	1986.73
867.33	2033.43
867.51	1922.84
867.68	1917.72
867.86	1923.66
868.04	1924.68
868.22	1655.99
868.39	1847.47
868.57	2052.27
868.75	2256.25
868.93	1749.37
869.10	1812.66
869.28	2319.94
869.46	2216.31
869.64	1855.66
869.81	1843.79
869.99	2037.32
870.17	2057.39
870.35	1777.43
870.52	1850.34
870.70	2148.32
870.88	1905.02
871.05	1777.23
871.23	1695.51
871.41	1996.56
871.59	2016.43
871.76	1834.16
871.94	1771.70
872.12	2025.44
872.29	1782.35
872.47	1835.18
872.65	1755.31
872.83	2062.71
873.00	2269.76
873.18	1861.60
873.36	1776.00
873.53	2133.78
873.71	1802.62
873.89	1762.69
874.06	1841.12
874.24	2078.69
874.42	2227.17
874.60	1969.12
874.77	1929.80
874.95	1910.35
875.13	2199.93
875.30	1836.62
875.48	1792.18
875.66	2256.04
875.83	1897.65
876.01	1833.75
876.19	1931.03
876.36	1826.58
876.54	2020.53
876.72	1766.58
876.89	1946.18
877.07	2133.57
877.25	1726.85
877.42	1876.76
877.60	1829.45
877.78	2318.30
877.95	1959.91
878.13	1784.40
878.31	1950.90
878.48	2165.32
878.66	2097.53
878.84	1832.11
879.01	1834.57
879.19	2085.45
879.37	2125.59
879.54	1838.67
879.72	1707.19
879.90	1742.21
880.07	2174.12
880.25	1609.91
880.42	2005.17
880.60	2061.49
880.78	2126.41
880.95	1841.33
881.13	1874.10
881.31	2016.23
881.48	1911.37
881.66	1801.80
881.83	1939.22
882.01	1917.92
882.19	1835.18
882.36	1869.59
882.54	1828.22
882.72	2135.62
882.89	2049.20
883.07	1788.08
883.24	1816.34
883.42	2163.68
883.60	2026.67
883.77	1768.63
883.95	1835.80
884.12	2152.01
884.30	2049.40
884.48	1973.01
884.65	1871.64
884.83	2036.50
885.00	2020.94
885.18	1732.38
885.36	1830.27
885.53	2116.58
885.71	2217.75
885.88	1742.00
886.06	1806.31
886.23	2122.11
886.41	1957.65
886.59	1817.98
886.76	1760.43
886.94	2095.69
887.11	2494.43
887.29	1846.65
887.47	1759.00
887.64	2208.12
887.82	2237.61
887.99	1676.67
888.17	1882.70
888.34	1949.67
888.52	1855.05
888.69	1823.51
888.87	1744.25
889.05	1961.75
889.22	1986.32
889.40	1822.90
889.57	2052.47
889.75	2273.65
889.92	1973.42
890.10	1770.67
890.27	1878.19
890.45	1911.78
890.62	1740.77
890.80	1761.46
890.98	1675.65
891.15	2298.64
891.33	2178.83
891.50	1794.02
891.68	1706.57
891.85	2097.32
892.03	2159.38
892.20	1794.23
892.38	1780.09
892.55	2129.68
892.73	2113.71
892.90	1698.59
893.08	1796.89
893.25	1978.95
893.43	1935.94
893.60	1915.06
893.78	1671.76
893.95	2099.78
894.13	1976.09
894.30	1786.85
894.48	1870.21
894.65	2143.40
894.83	2037.32
895.00	1656.40
895.18	1660.70
895.35	2145.86
895.53	2136.65
895.70	1720.91
895.88	1942.09
896.05	2062.30
896.23	1811.02
896.40	1818.39
896.58	1870.61
896.75	2138.49
896.93	2235.97
897.10	1835.59
897.28	1720.91
897.45	2050.02
897.63	2148.11
897.80	1900.72
897.98	1795.45
898.15	2029.54
898.33	1897.85
898.50	1861.81
898.67	1834.16
898.85	1974.45
899.02	2074.18
899.20	2054.73
899.37	1826.17
899.55	2011.31
899.72	2249.49
899.90	1791.15
900.07	1768.63
900.25	2099.78
900.42	2203.41
900.59	1809.18
900.77	1922.43
900.94	2096.10
901.12	2078.28
901.29	1805.69
901.47	1940.86
901.64	2081.56
901.82	1983.46
901.99	1618.92
902.16	1761.25
902.34	2193.99
902.51	2064.56
902.69	1814.71
902.86	1832.32
903.03	2599.69
903.21	2026.87
903.38	1807.13
903.56	1784.60
903.73	2187.44
903.91	1939.22
904.08	1757.57
904.25	1664.79
904.43	1888.64
904.60	2141.77
904.78	1807.95
904.95	1741.18
905.12	1936.76
905.30	2272.63
905.47	1889.05
905.65	1948.44
905.82	1984.28
905.99	2079.51
906.17	1818.80
906.34	1793.82
906.52	1867.95
906.69	2083.19
906.86	1921.61
907.04	1864.47
907.21	2151.19
907.38	2162.86
907.56	1759.00
907.73	1744.46
907.91	2262.19
908.08	2178.42
908.25	1807.54
908.43	1698.59
908.60	2109.00
908.77	2032.81
908.95	1829.86
909.12	1744.46
909.30	2104.08
909.47	1795.04
909.64	1819.42
909.82	2016.23
909.99	1966.87
910.16	2021.96
910.34	1786.44
910.51	1803.85
910.68	2062.92
910.86	1989.19
911.03	1720.09
911.20	1819.62
911.38	2375.64
911.55	2799.16
911.72	2772.54
911.90	2721.55
912.07	3124.38
912.24	3297.02
912.42	2599.90
912.59	2279.80
912.76	2585.15
912.94	2341.65
913.11	2089.13
913.28	1963.18
913.46	1970.56
913.63	2174.12
913.80	2233.31
913.98	1860.78
914.15	2237.20
914.32	2260.55
914.49	1974.45
914.67	1780.09
914.84	2079.92
915.01	2133.98
915.19	1938.20
915.36	1829.66
915.53	2181.09
915.71	2090.77
915.88	1921.61
916.05	1812.04
916.22	2190.10
916.40	2063.94
916.57	1733.61
916.74	1934.92
916.92	2254.40
917.09	1890.89
917.26	1772.72
917.43	1733.40
917.61	1942.50
917.78	1761.66
917.95	1736.06
918.13	1729.51
918.30	2350.25
918.47	2034.66
918.64	1753.88
918.82	1731.97
918.99	1945.98
919.16	2265.05
919.33	1833.34
919.51	1803.24
919.68	1961.54
919.85	2187.85
920.02	1689.57
920.20	1824.13
920.37	2263.82
920.54	2135.21
920.71	1755.11
920.89	1809.59
921.06	2277.96
921.23	1851.16
921.40	1706.98
921.58	1902.77
921.75	2556.68
921.92	1986.73
922.09	1983.05
922.27	1920.79
922.44	2084.22
922.61	2116.17
922.78	1829.45
922.96	1852.80
923.13	1986.12
923.30	2167.37
923.47	1743.03
923.64	1782.96
923.82	2086.06
923.99	2061.28
924.16	1903.79
924.33	1748.76
924.50	2000.05
924.68	2266.28
924.85	1781.53
925.02	1810.20
925.19	2156.10
925.36	2050.84
925.54	1842.35
925.71	1856.89
925.88	2529.65
926.05	1945.16
926.22	1747.74
926.40	1906.25
926.57	2058.82
926.74	2071.93
926.91	1805.08
927.08	1970.97
927.26	2197.68
927.43	2024.62
927.60	1772.72
927.77	1825.15
927.94	2298.44
928.11	2187.64
928.29	1697.36
928.46	1868.77
928.63	1870.82
928.80	1961.34
928.97	1894.58
929.14	1781.32
929.32	2368.27
929.49	2038.55
929.66	1760.02
929.83	1707.39
930.00	1948.44
930.17	2063.74
930.35	1740.98
930.52	1791.97
930.69	2245.60
930.86	1846.04
931.03	1854.85
931.20	1640.01
931.37	2185.80
931.55	2014.79
931.72	1869.18
931.89	1717.63
932.06	1840.92
932.23	2257.07
932.40	1907.07
932.57	1912.39
932.74	2250.72
932.92	2203.61
933.09	1968.10
933.26	1558.71
933.43	1927.55
933.60	2060.87
933.77	1870.41
933.94	1925.50
934.11	1967.69
934.29	2037.11
934.46	1744.25
934.63	1872.25
934.80	1788.70
934.97	1975.47
935.14	1827.40
935.31	1655.17
935.48	1881.06
935.65	2056.98
935.82	1866.72
936.00	1727.26
936.17	2256.25
936.34	1994.93
936.51	1885.97
936.68	1719.68
936.85	2040.19
937.02	2050.63
937.19	1901.13
937.36	1818.39
937.53	2058.00
937.70	2150.57
937.87	1778.25
938.05	1883.31
938.22	2037.11
938.39	1853.21
938.56	1819.01
938.73	1730.74
938.90	2003.12
939.07	1909.73
939.24	1902.36
939.41	1687.53
939.58	2062.92
939.75	2092.61
939.92	1778.25
940.09	2082.37
940.26	1960.32
940.43	2113.09
940.60	1821.05
940.77	1820.64
940.95	2067.22
941.12	2140.33
941.29	1810.81
941.46	1848.09
941.63	2217.75
941.80	2259.11
941.97	1686.91
942.14	1676.26
942.31	2144.63
942.48	1990.63
942.65	1894.78
942.82	1859.97
942.99	2129.07
943.16	2014.59
943.33	1742.21
943.50	1786.85
943.67	2148.52
943.84	2199.72
944.01	1798.94
944.18	1759.21
944.35	2227.99
944.52	1877.78
944.69	1859.56
944.86	1705.55
945.03	2095.07
945.20	2439.34
945.37	1638.37
945.54	1797.71
945.71	2224.91
945.88	2289.63
946.05	1757.98
946.22	1755.52
946.39	2247.03
946.56	1980.18
946.73	1716.20
946.90	1756.34
947.07	1940.04
947.24	1980.39
947.41	1656.40
947.58	1899.08
947.75	2124.77
947.92	2075.00
948.09	1604.99
948.26	1700.63
948.43	2063.74
948.60	2329.77
948.77	1738.52
948.94	1793.41
949.11	2142.58
949.27	2085.86
949.44	1765.14
949.61	1727.05
949.78	2069.47
949.95	2197.68
950.12	1705.96
950.29	1678.92
950.46	1910.35
950.63	2170.64
950.80	1794.23
950.97	1781.32
951.14	2164.50
951.31	1965.64
951.48	1762.69
951.65	1705.75
951.82	2335.71
951.99	2058.00
952.15	1726.44
952.32	1758.59
952.49	1923.04
952.66	1962.36
952.83	1794.02
953.00	1726.03
953.17	2003.32
953.34	2167.77
953.51	1837.64
953.68	1831.50
953.85	2189.69
954.02	2198.49
954.18	1850.54
954.35	1812.66
954.52	1908.91
954.69	2028.31
954.86	1662.95
955.03	1840.71
955.20	2123.13
955.37	1987.14
955.54	1762.69
955.71	1762.07
955.87	2110.02
956.04	2292.09
956.21	1786.65
956.38	1720.50
956.55	2007.21
956.72	2433.40
956.89	1834.57
957.06	1753.27
957.23	1911.98
957.39	2234.33
957.56	1816.75
957.73	1723.78
957.90	1694.08
958.07	2337.96
958.24	1833.14
958.41	1799.55
958.57	2161.43
958.74	2037.73
958.91	1750.40
959.08	1751.83
959.25	2135.62
959.42	1970.97
959.59	1833.14
959.75	1808.15
959.92	2198.49
960.09	2190.10
960.26	1736.88
960.43	1846.24
960.60	2053.91
960.76	1978.34
960.93	1684.66
961.10	1854.03
961.27	2174.74
961.44	1973.63
961.61	1682.82
961.77	1687.73
961.94	2045.92
962.11	2149.55
962.28	1798.94
962.45	1719.27
962.62	1997.18
962.78	2147.70
962.95	1671.14
963.12	1762.69
963.29	2142.38
963.46	2511.01
963.62	1858.94
963.79	1768.01
963.96	2455.10
964.13	1977.93
964.30	1868.77
964.46	1781.94
964.63	1851.16
964.80	2479.27
964.97	1596.19
965.14	1918.74
965.30	2065.79
965.47	2172.28
965.64	1955.61
965.81	1878.60
965.98	2272.63
966.14	2062.30
966.31	1785.62
966.48	1778.66
966.65	2216.52
966.81	2071.32
966.98	1814.09
967.15	1803.03
967.32	2026.47
967.49	1880.04
967.65	1657.83
967.82	1637.15
967.99	1977.72
968.16	1768.01
968.32	1926.93
968.49	1772.11
968.66	1981.00
968.83	2296.59
968.99	1885.97
969.16	1716.20
969.33	2223.27
969.50	2086.68
969.66	1909.73
969.83	2032.81
970.00	2139.31
970.17	2114.73
970.33	1808.77
970.50	1720.50
970.67	2286.35
970.84	2273.45
971.00	1714.15
971.17	1680.56
971.34	2122.72
971.50	2020.53
971.67	1891.71
971.84	1833.14
972.01	1853.21
972.17	1695.72
972.34	1693.06
972.51	1935.74
972.67	2202.80
972.84	2091.39
973.01	1730.94
973.18	1779.48
973.34	2146.27
973.51	1894.17
973.68	1809.38
973.84	1847.68
974.01	1946.18
974.18	2279.59
974.34	1875.12
974.51	1888.43
974.68	1903.38
974.85	2348.61
975.01	1905.23
975.18	1815.73
975.35	2018.68
975.51	1887.61
975.68	1679.13
975.85	1956.42
976.01	1915.06
976.18	2254.61
976.35	1821.26
976.51	1811.22
976.68	2294.75
976.85	2212.22
977.01	1808.36
977.18	1856.89
977.35	2114.12
977.51	1847.47
977.68	1635.92
977.85	1681.79
978.01	2164.70
978.18	2087.08
978.35	1849.73
978.51	1852.18
978.68	2166.14
978.85	2268.53
979.01	1831.50
979.18	1825.56
979.34	1974.65
979.51	2027.08
979.68	1749.37
979.84	1858.53
980.01	2422.13
980.18	2048.58
980.34	1740.98
980.51	1871.84
980.67	2128.04
980.84	2111.46
981.01	1805.49
981.17	1835.39
981.34	1750.19
981.51	2127.02
981.67	1718.04
981.84	1910.75
982.00	2136.24
982.17	2014.79
982.34	1633.87
982.50	1544.17
982.67	2287.79
982.83	1929.39
983.00	1678.52
983.17	1597.83
983.33	2201.77
983.50	1768.22
983.66	1691.21
983.83	1595.98
984.00	1936.97
984.16	2020.53
984.33	1587.59
984.49	1582.26
984.66	1874.92
984.83	2155.08
984.99	1634.07
985.16	1579.39
985.32	2129.89
985.49	2146.89
985.65	1708.83
985.82	1602.54
985.99	2252.15
986.15	2015.61
986.32	1711.28
986.48	1660.70
986.65	1947.00
986.81	2131.53
986.98	1598.85
987.14	1671.96
987.31	2049.61
987.48	1754.29
987.64	1547.45
987.81	1544.17
987.97	2400.22
988.14	1867.95
988.30	1591.07
988.47	1463.68
988.63	2081.97
988.80	1825.97
988.96	1666.64
989.13	1688.76
989.30	1963.39
989.46	2168.39
989.63	1543.55
989.79	1585.74
989.96	1993.08
990.12	2273.04
990.29	1620.76
990.45	1663.77
990.62	1991.04
990.78	2213.65
990.95	1712.72
991.11	1635.10
991.28	1926.73
991.44	2056.57
991.61	1525.74
991.77	1686.50
991.94	2050.02
992.10	2213.44
992.27	1666.43
992.43	1648.00
992.60	2128.25
992.76	1942.50
992.93	1825.76
993.09	1564.44
993.26	2172.28
993.42	2322.19
993.59	1613.80
993.75	1541.51
993.92	1890.89
994.08	1900.72
994.25	1690.39
994.41	1565.47
994.58	2120.67
994.74	2255.02
994.91	1597.83
995.07	1720.29
995.24	1983.05
995.40	2001.89
995.56	1749.17
995.73	1702.48
995.89	2320.76
996.06	1983.46
996.22	1599.87
996.39	1542.12
996.55	1982.64
996.72	2074.80
996.88	1554.82
997.05	1603.15
997.21	2325.88
997.37	2107.36
997.54	1709.03
997.70	1653.53
997.87	2063.12
998.03	2016.23
998.20	1525.94
998.36	1551.95
998.52	2131.94
998.69	2147.70
998.85	1545.60
999.02	1644.52
999.18	2143.81
999.35	2167.57
999.51	1684.04
999.67	1645.54
999.84	1859.35
1000.00	2133.57
1000.17	1694.28
1000.33	1588.61
1000.49	1933.69
1000.66	1984.69
1000.82	1604.58
1000.99	1697.77
1001.15	2195.63
1001.31	1990.01
1001.48	1631.21
1001.64	1724.39
1001.81	1997.59
1001.97	2371.96
1002.13	1638.38
1002.30	1655.78
1002.46	2247.85
1002.63	1981.00
1002.79	1721.73
1002.95	1607.04
1003.12	2170.23
1003.28	2055.75
1003.45	1599.26
1003.61	1558.50
1003.77	2023.39
1003.94	1792.18
1004.10	1618.30
1004.26	1698.99
1004.43	2097.73
1004.59	2316.25
1004.75	1611.75
1004.92	1577.76
1005.08	1926.52
1005.25	2056.98
1005.41	1622.61
1005.57	1703.71
1005.74	2205.87
1005.90	1935.13
1006.06	1765.76
1006.23	1585.54
1006.39	2108.79
1006.55	2459.41
1006.72	1752.24
1006.88	1548.26
1007.04	1887.41
1007.21	1973.22
1007.37	1663.16
1007.53	1601.51
1007.70	2254.20
1007.86	2127.84
1008.02	1696.33
1008.19	1591.48
1008.35	2042.64
1008.51	1883.93
1008.68	1657.63
1008.84	1584.31
1009.00	1865.70
1009.17	2197.06
1009.33	1788.70
1009.49	1712.31
1009.65	1888.43
1009.82	2057.59
1009.98	1685.68
1010.14	1529.63
1010.31	2127.43
1010.47	2075.62
1010.63	1711.69
1010.80	1659.67
1010.96	2068.45
1011.12	1956.01
1011.28	1643.29
1011.45	1626.70
1011.61	2480.50
1011.77	1865.09
1011.94	1606.84
1012.10	1592.91
1012.26	1867.54
1012.42	1921.61
1012.59	1687.53
1012.75	1686.09
1012.91	1996.77
1013.07	2153.44
1013.24	1570.59
1013.40	1592.30
1013.56	2026.26
1013.72	2002.09
1013.89	1698.59
1014.05	1738.11
1014.21	2350.25
1014.37	2442.20
1014.54	1669.91
1014.70	1567.92
1014.86	1968.10
1015.02	1825.56
1015.19	1625.06
1015.35	1599.67
1015.51	1978.54
1015.67	1932.05
1015.84	1616.67
1016.00	1646.98
1016.16	2188.66
1016.32	2135.21
1016.49	1631.00
1016.65	1567.31
1016.81	1984.28
1016.97	2118.62
1017.14	1775.38
1017.30	1627.32
1017.46	1906.66
1017.62	2049.81
1017.78	1709.85
1017.95	1585.95
1018.11	2147.50
1018.27	2431.35
1018.43	1767.40
1018.59	1725.00
1018.76	2102.24
1018.92	2442.61
1019.08	1602.13
1019.24	1641.86
1019.40	2245.39
1019.57	2053.91
1019.73	1733.40
1019.89	1644.72
1020.05	2055.55
1020.21	2352.09
1020.38	1598.03
1020.54	1776.00
1020.70	2115.55
1020.86	2105.52
1021.02	1597.62
1021.18	1616.87
1021.35	1923.45
1021.51	2067.63
1021.67	1787.26
1021.83	1667.66
1021.99	2034.04
1022.15	2072.34
1022.32	1704.52
1022.48	1667.66
1022.64	2224.30
1022.80	2288.40
1022.96	1699.40
1023.12	1559.94
1023.29	2170.44
1023.45	2083.60
1023.61	1621.38
1023.77	1856.89
1023.93	2041.21
1024.09	1882.90
1024.25	1638.99
1024.42	1572.23
1024.58	1935.13
1024.74	2069.88
1024.90	1644.11
1025.06	1678.52
1025.22	1943.52
1025.38	2263.01
1025.54	1579.19
1025.71	1736.88
1025.87	2117.19
1026.03	2099.78
1026.19	1617.69
1026.35	1808.36
1026.51	2121.70
1026.67	1986.53
1026.83	1670.94
1026.99	1778.25
1027.16	2102.24
1027.32	1997.59
1027.48	1636.74
1027.64	1607.25
1027.80	2105.72
1027.96	2032.20
1028.12	1655.17
1028.28	1595.57
1028.44	2056.98
1028.60	2282.67
1028.77	1771.90
1028.93	1690.19
1029.09	1954.17
1029.25	1861.19
1029.41	1681.79
1029.57	1721.52
1029.73	2065.17
1029.89	2284.51
1030.05	1772.31
1030.21	1728.69
1030.37	2427.25
1030.53	2128.04
1030.69	1678.31
1030.85	1588.20
1031.02	1888.23
1031.18	2011.51
1031.34	1630.39
1031.50	1758.80
1031.66	1908.91
1031.82	2258.70
1031.98	1670.73
1032.14	1583.08
1032.30	1858.12
1032.46	2130.09
1032.62	1768.01
1032.78	1584.31
1032.94	1909.12
1033.10	1948.85
1033.26	1720.29
1033.42	1787.26
1033.58	2378.92
1033.74	1920.38
1033.90	1641.24
1034.06	1815.11
1034.22	2379.94
1034.38	2212.63
1034.54	1710.87
1034.70	1700.63
1034.86	2317.28
>>>>>End Processed Spectral Data<<<<<
