SpectraSuite Data File
++++++++++++++++++++++++++++++++++++
Date: Thu Mar 30 14:36:37 PDT 2017
User: UCSD _CER
Dark Spectrum Present: No
Reference Spectrum Present: No
Number of Sampled Component Spectra: 1
Spectrometers: USB4C00073
Integration Time (usec): 380000 (USB4C00073)
Spectra Averaged: 10 (USB4C00073)
Boxcar Smoothing: 0 (USB4C00073)
Correct for Electrical Dark: No (USB4C00073)
Strobe/Lamp Enabled: No (USB4C00073)
Correct for Detector Non-linearity: No (USB4C00073)
Correct for Stray Light: No (USB4C00073)
Number of Pixels in Processed Spectrum: 3648
>>>>>Begin Processed Spectral Data<<<<<
345.37	1233.29
345.58	1233.29
345.80	1233.29
346.01	1250.69
346.22	1258.07
346.43	2063.12
346.65	1953.76
346.86	2500.98
347.07	2430.12
347.28	1828.63
347.50	1859.97
347.71	2185.39
347.92	1891.91
348.13	1836.00
348.35	1819.42
348.56	2192.96
348.77	1979.77
348.98	1858.53
349.20	1689.78
349.41	2178.63
349.62	2316.66
349.83	1958.88
350.05	1827.20
350.26	2249.28
350.47	2412.71
350.68	1860.78
350.90	1756.13
351.11	2428.89
351.32	2409.44
351.53	1925.30
351.75	1813.48
351.96	2223.68
352.17	2178.63
352.38	1959.09
352.60	1961.75
352.81	2219.38
353.02	2520.44
353.23	1869.18
353.44	1850.34
353.66	2093.64
353.87	2171.46
354.08	1923.45
354.29	1867.13
354.51	2057.80
354.72	2141.77
354.93	1838.26
355.14	1861.19
355.35	1928.16
355.57	2343.49
355.78	1905.84
355.99	1976.09
356.20	2183.34
356.42	2171.05
356.63	1968.10
356.84	1902.15
357.05	2339.60
357.26	2591.50
357.48	1973.83
357.69	1949.05
357.90	2259.93
358.11	2088.93
358.32	1897.85
358.54	1958.27
358.75	2147.70
358.96	2291.68
359.17	1851.77
359.38	1904.20
359.60	2291.88
359.81	2144.22
360.02	1882.70
360.23	1812.25
360.44	2063.74
360.66	2351.89
360.87	1843.99
361.08	1839.69
361.29	2247.44
361.50	2197.06
361.72	1844.81
361.93	1936.97
362.14	2199.93
362.35	1911.78
362.56	2016.84
362.77	1757.98
362.99	2262.39
363.20	2176.17
363.41	1918.13
363.62	1734.83
363.83	2262.39
364.05	2315.02
364.26	1805.49
364.47	1863.24
364.68	2359.06
364.89	2025.44
365.10	1779.68
365.32	1905.63
365.53	2021.96
365.74	2058.82
365.95	1878.81
366.16	1743.44
366.37	2171.46
366.59	2105.72
366.80	1887.82
367.01	1759.82
367.22	2531.29
367.43	2696.56
367.64	1929.39
367.86	1880.04
368.07	2254.40
368.28	2373.80
368.49	1770.88
368.70	1895.40
368.91	2120.47
369.12	2155.69
369.34	1786.44
369.55	1749.58
369.76	2186.41
369.97	2096.92
370.18	1762.48
370.39	1841.74
370.60	1924.48
370.82	2002.09
371.03	1896.62
371.24	1852.59
371.45	2291.06
371.66	2267.31
371.87	1877.78
372.08	1862.83
372.30	1993.90
372.51	2351.48
372.72	2014.18
372.93	1885.77
373.14	2455.31
373.35	2076.44
373.56	1805.90
373.78	1880.44
373.99	2317.69
374.20	2663.59
374.41	1834.98
374.62	1845.42
374.83	2465.55
375.04	2122.92
375.25	1892.12
375.47	1902.97
375.68	2083.60
375.89	2327.52
376.10	1924.27
376.31	1952.94
376.52	2244.57
376.73	2224.91
376.94	1920.79
377.15	1813.89
377.37	2195.42
377.58	2109.82
377.79	1770.47
378.00	1838.05
378.21	2237.20
378.42	2287.17
378.63	1944.96
378.84	1971.17
379.05	2368.68
379.27	2202.80
379.48	1969.12
379.69	1841.53
379.90	2421.31
380.11	1865.09
380.32	1901.13
380.53	2034.66
380.74	2428.48
380.95	2212.83
381.16	1926.52
381.37	1898.06
381.59	2439.54
381.80	2344.31
382.01	1869.59
382.22	1786.44
382.43	2269.76
382.64	2174.53
382.85	1819.42
383.06	1940.04
383.27	2284.92
383.48	2161.22
383.69	1907.89
383.91	1825.15
384.12	2331.00
384.33	2297.41
384.54	1964.41
384.75	1866.52
384.96	2769.47
385.17	2385.06
385.38	1929.80
385.59	1897.65
385.80	2368.48
386.01	2456.33
386.22	2029.95
386.43	1922.84
386.64	2621.60
386.86	2167.37
387.07	2038.55
387.28	1804.67
387.49	2119.03
387.70	2500.77
387.91	2050.63
388.12	1922.02
388.33	2322.81
388.54	2120.67
388.75	1871.23
388.96	1956.63
389.17	2102.44
389.38	2170.44
389.59	1958.47
389.80	1990.01
390.01	2168.59
390.22	2089.13
390.43	1988.58
390.64	1787.06
390.86	2275.91
391.07	2407.18
391.28	1905.43
391.49	1951.92
391.70	1960.93
391.91	2038.55
392.12	1888.84
392.33	1966.87
392.54	2245.60
392.75	2158.76
392.96	2003.32
393.17	1861.81
393.38	2596.01
393.59	2372.78
393.80	1811.43
394.01	1948.03
394.22	2204.84
394.43	2551.97
394.64	1841.74
394.85	2001.28
395.06	2213.44
395.27	2229.21
395.48	1873.48
395.69	1808.56
395.90	2111.46
396.11	2163.68
396.32	1872.05
396.53	1979.16
396.74	2140.74
396.95	2353.73
397.16	1870.41
397.37	1755.93
397.58	2352.50
397.79	2177.20
398.00	1934.72
398.21	1884.13
398.42	2204.64
398.63	2579.62
398.84	1859.76
399.05	1839.49
399.26	2411.69
399.47	2258.50
399.68	1774.97
399.89	1817.57
400.10	1961.95
400.31	2108.59
400.52	1971.17
400.73	1893.14
400.94	1967.07
401.15	2323.22
401.36	1928.16
401.57	1971.37
401.78	2427.66
401.99	2389.16
402.20	1834.57
402.41	2015.20
402.62	2462.89
402.83	2152.42
403.04	1870.00
403.25	2090.57
403.46	2267.92
403.67	2479.89
403.88	1970.97
404.09	1930.82
404.30	2159.79
404.51	2138.08
404.72	1877.78
404.93	2078.89
405.14	2082.78
405.35	2180.68
405.56	1934.72
405.77	1841.94
405.98	2228.60
406.19	2190.10
406.40	1846.86
406.61	1913.62
406.82	2128.86
407.03	2660.31
407.24	1887.00
407.45	1985.30
407.66	2297.21
407.87	2398.58
408.08	1979.98
408.29	2001.07
408.49	2309.29
408.70	2168.39
408.91	1831.09
409.12	2011.51
409.33	2019.91
409.54	2431.35
409.75	1871.02
409.96	1946.18
410.17	2336.94
410.38	2183.54
410.59	1867.34
410.80	2019.91
411.01	2166.34
411.22	2146.68
411.43	1961.13
411.64	1876.14
411.85	2030.36
412.06	2017.25
412.27	1703.30
412.47	1833.96
412.68	2169.62
412.89	2295.57
413.10	1905.23
413.31	1800.57
413.52	2527.19
413.73	2550.95
413.94	1859.56
414.15	2036.09
414.36	2115.35
414.57	2023.60
414.78	1872.87
414.99	2048.79
415.19	2615.05
415.40	2635.53
415.61	2465.96
415.82	2408.82
416.03	2647.82
416.24	2478.25
416.45	2096.30
416.66	1909.32
416.87	1966.05
417.08	2344.72
417.29	1893.55
417.50	1963.80
417.70	2361.10
417.91	2340.21
418.12	2074.39
418.33	2078.89
418.54	2439.75
418.75	2606.45
418.96	2430.73
419.17	2581.26
419.38	3234.36
419.59	3125.20
419.79	2854.46
420.00	2687.96
420.21	3213.67
420.42	2527.40
420.63	2104.70
420.84	2062.51
421.05	2202.59
421.26	2237.82
421.47	1783.17
421.67	2289.01
421.88	2079.30
422.09	2005.37
422.30	2148.52
422.51	1965.44
422.72	2573.48
422.93	2378.51
423.14	1983.87
423.35	1825.35
423.55	1951.10
423.76	2061.28
423.97	1894.78
424.18	1790.74
424.39	2148.11
424.60	2389.37
424.81	1968.92
425.02	2144.43
425.22	2409.44
425.43	2462.89
425.64	2483.78
425.85	2394.28
426.06	2981.43
426.27	2750.42
426.48	2445.48
426.68	2408.41
426.89	2693.90
427.10	2810.43
427.31	2161.63
427.52	2019.91
427.73	2430.94
427.94	2358.65
428.14	2115.35
428.35	1996.36
428.56	2490.13
428.77	2373.80
428.98	1976.90
429.19	2029.95
429.40	2228.19
429.60	2313.59
429.81	2212.42
430.02	2151.39
430.23	2250.10
430.44	2401.65
430.65	1876.35
430.85	1954.58
431.06	2271.61
431.27	1939.02
431.48	1914.44
431.69	1952.12
431.90	2209.14
432.10	2222.66
432.31	2055.75
432.52	2060.67
432.73	2925.52
432.94	2819.85
433.15	2401.04
433.35	2145.86
433.56	2658.06
433.77	2480.70
433.98	2734.04
434.19	2869.82
434.40	3298.05
434.60	3296.82
434.81	3075.84
435.02	2661.54
435.23	2623.86
435.44	2417.42
435.64	2016.02
435.85	1956.01
436.06	2166.96
436.27	2153.03
436.48	1930.01
436.68	1996.77
436.89	2683.04
437.10	2515.72
437.31	2136.44
437.52	2230.85
437.73	2392.03
437.93	2396.74
438.14	2080.33
438.35	1871.43
438.56	2122.92
438.77	2179.65
438.97	2116.78
439.18	2019.91
439.39	2588.63
439.60	2239.86
439.80	2160.20
440.01	2213.65
440.22	2309.29
440.43	2421.52
440.64	1925.30
440.84	2023.60
441.05	2054.52
441.26	2673.21
441.47	2016.02
441.68	2063.94
441.88	2527.40
442.09	2587.61
442.30	2656.83
442.51	2711.51
442.71	2721.96
442.92	2643.11
443.13	2267.31
443.34	2109.41
443.55	2175.35
443.75	2341.03
443.96	1955.20
444.17	1865.09
444.38	2367.04
444.58	2040.19
444.79	1989.19
445.00	1954.79
445.21	2149.55
445.41	2130.71
445.62	1747.94
445.83	2049.40
446.04	2207.71
446.24	1949.46
446.45	1757.36
446.66	1923.25
446.87	2200.95
447.07	2118.21
447.28	2152.42
447.49	1972.19
447.70	2379.53
447.90	2413.53
448.11	2027.49
448.32	2060.87
448.53	2467.19
448.73	2473.33
448.94	1922.22
449.15	2081.15
449.36	2215.29
449.56	2240.07
449.77	1921.81
449.98	1829.66
450.19	2154.46
450.39	2242.94
450.60	2137.06
450.81	2141.77
451.02	2314.82
451.22	2565.90
451.43	1963.59
451.64	1999.02
451.84	2170.64
452.05	2464.12
452.26	2007.42
452.47	1971.37
452.67	2141.36
452.88	2437.49
453.09	1847.88
453.30	1862.83
453.50	2330.59
453.71	2585.36
453.92	2043.46
454.12	2223.27
454.33	2260.96
454.54	2306.22
454.75	1983.46
454.95	1930.01
455.16	2269.35
455.37	2334.48
455.57	2068.04
455.78	1925.50
455.99	2188.46
456.19	2205.46
456.40	1884.75
456.61	1951.92
456.82	2184.98
457.02	2375.44
457.23	2114.32
457.44	2263.62
457.64	2282.67
457.85	2417.01
458.06	2121.29
458.26	2225.32
458.47	2331.61
458.68	2510.40
458.89	2075.41
459.09	2183.95
459.30	2653.55
459.51	2276.32
459.71	1857.51
459.92	1957.86
460.13	2480.29
460.33	2820.46
460.54	2215.29
460.75	2227.99
460.95	2230.24
461.16	2390.39
461.37	2031.99
461.57	1989.60
461.78	2243.96
461.99	2030.56
462.19	2252.77
462.40	1918.74
462.61	2582.49
462.81	2409.64
463.02	1894.58
463.23	1935.94
463.43	2302.94
463.64	2116.37
463.85	3275.73
464.05	1903.59
464.26	2755.13
464.47	2419.68
464.67	2113.91
464.88	2082.78
465.09	2157.74
465.29	2374.21
465.50	2249.49
465.71	2147.50
465.91	2227.99
466.12	2236.18
466.33	2066.20
466.53	1933.69
466.74	2483.98
466.94	2181.29
467.15	2020.32
467.36	2167.57
467.56	2042.64
467.77	2231.67
467.98	2004.55
468.18	1947.41
468.39	2111.66
468.60	2506.10
468.80	1941.06
469.01	1835.59
469.21	2288.40
469.42	2456.95
469.63	2021.14
469.83	1930.82
470.04	2339.39
470.25	2495.04
470.45	2092.41
470.66	1951.71
470.86	2249.49
471.07	2133.16
471.28	2047.35
471.48	2054.32
471.69	2162.04
471.90	2966.48
472.10	2172.89
472.31	2153.23
472.51	2322.19
472.72	2430.53
472.93	2277.55
473.13	2397.35
473.34	2615.26
473.54	2556.89
473.75	2263.82
473.96	2266.49
474.16	2275.09
474.37	2350.66
474.57	2118.83
474.78	1945.98
474.99	2292.50
475.19	2228.60
475.40	1993.29
475.60	1983.05
475.81	2638.19
476.02	2409.64
476.22	2263.82
476.43	2339.80
476.63	2291.88
476.84	2497.09
477.05	1882.49
477.25	1947.41
477.46	2762.91
477.66	2233.31
477.87	1936.35
478.08	1974.86
478.28	2360.49
478.49	2128.86
478.69	1917.31
478.90	1930.82
479.10	2283.89
479.31	2497.70
479.52	2054.93
479.72	2382.81
479.93	2912.01
480.13	2874.32
480.34	2764.55
480.54	2857.94
480.75	2541.12
480.96	2687.14
481.16	2125.79
481.37	2226.14
481.57	2498.11
481.78	2392.64
481.98	2320.14
482.19	2180.68
482.40	2603.38
482.60	2324.85
482.81	2098.35
483.01	1855.66
483.22	2351.48
483.42	2330.18
483.63	2069.06
483.83	2010.90
484.04	2283.08
484.24	2538.66
484.45	2323.63
484.66	2110.64
484.86	2433.19
485.07	2149.55
485.27	2075.41
485.48	1964.41
485.68	2470.46
485.89	2115.14
486.09	2134.19
486.30	1971.37
486.50	2252.97
486.71	2206.69
486.91	2080.12
487.12	2482.96
487.33	3269.38
487.53	3394.30
487.74	3051.47
487.94	2977.13
488.15	2832.75
488.35	2639.42
488.56	2231.88
488.76	2145.86
488.97	2317.89
489.17	2427.87
489.38	2140.74
489.58	2089.75
489.79	2382.40
489.99	2304.99
490.20	2045.10
490.40	2145.04
490.61	2309.29
490.81	2125.59
491.02	2057.18
491.22	2026.26
491.43	2301.10
491.63	2161.43
491.84	2161.84
492.04	1890.89
492.25	2288.81
492.45	2186.62
492.66	2018.68
492.86	1969.33
493.07	2246.21
493.27	2655.81
493.48	1915.06
493.68	1985.71
493.89	2161.84
494.09	2334.48
494.30	1989.60
494.50	2217.95
494.71	2282.67
494.91	1935.33
495.12	1991.04
495.32	2051.25
495.53	2209.14
495.73	2000.25
495.94	2210.17
496.14	2041.62
496.35	2756.16
496.55	2362.54
496.76	2049.81
496.96	2076.85
497.17	2215.70
497.37	2332.43
497.58	2002.30
497.78	1907.89
497.98	2149.75
498.19	2147.50
498.39	1952.94
498.60	2015.61
498.80	1910.14
499.01	2304.78
499.21	1887.41
499.42	2067.42
499.62	2147.50
499.83	2575.53
500.03	1952.53
500.24	2229.42
500.44	2614.44
500.64	2606.04
500.85	2204.23
501.05	2246.62
501.26	2064.35
501.46	2534.16
501.67	2031.38
501.87	1937.99
502.08	2110.02
502.28	2162.04
502.48	2098.14
502.69	2119.24
502.89	1959.91
503.10	2079.51
503.30	2053.50
503.51	2052.88
503.71	1941.27
503.92	2282.26
504.12	2052.88
504.32	1932.87
504.53	2341.85
504.73	2323.01
504.94	2132.14
505.14	2242.73
505.35	2428.48
505.55	2417.22
505.75	2177.20
505.96	2340.01
506.16	2711.31
506.37	2234.95
506.57	1994.11
506.78	2145.66
506.98	2414.15
507.18	1982.84
507.39	1937.79
507.59	2000.46
507.80	2085.65
508.00	2192.15
508.20	2239.04
508.41	1981.61
508.61	2426.23
508.82	2355.37
509.02	2120.06
509.22	1935.13
509.43	2040.39
509.63	2085.04
509.84	2013.15
510.04	1836.41
510.24	2453.06
510.45	2338.58
510.65	1915.06
510.86	2040.19
511.06	2004.14
511.26	2322.60
511.47	2160.20
511.67	1972.81
511.88	2264.64
512.08	2397.15
512.28	1900.72
512.49	2056.16
512.69	2225.94
512.90	2261.57
513.10	1983.87
513.30	2075.41
513.51	2323.42
513.71	2513.47
513.91	2154.67
514.12	2184.36
514.32	2439.34
514.53	2181.50
514.73	2159.79
514.93	2059.23
515.14	2236.59
515.34	2435.24
515.54	2011.92
515.75	2113.71
515.95	2346.36
516.15	2507.53
516.36	2055.55
516.56	2082.99
516.77	1840.71
516.97	2276.32
517.17	2035.48
517.38	2102.65
517.58	2470.06
517.78	2148.93
517.99	2124.77
518.19	2033.02
518.39	2474.97
518.60	2160.40
518.80	1958.06
519.00	2080.33
519.21	2179.65
519.41	2522.69
519.61	1950.90
519.82	2105.93
520.02	2173.71
520.22	2181.91
520.43	1960.73
520.63	2007.62
520.83	2066.61
521.04	1898.88
521.24	2078.89
521.44	2016.84
521.65	2074.59
521.85	2311.95
522.05	1964.62
522.26	1950.69
522.46	2502.41
522.66	2320.76
522.87	2010.70
523.07	2182.93
523.27	2091.80
523.48	2421.93
523.68	2020.53
523.88	2064.15
524.09	2398.58
524.29	2225.53
524.49	1868.16
524.70	2085.45
524.90	2425.41
525.10	2273.45
525.31	1916.49
525.51	1902.56
525.71	2328.75
525.91	2261.98
526.12	1988.99
526.32	1914.24
526.52	2099.78
526.73	2092.61
526.93	2085.04
527.13	1893.55
527.34	2148.52
527.54	2170.44
527.74	2030.97
527.94	1898.26
528.15	2007.21
528.35	2198.90
528.55	2119.24
528.76	2047.15
528.96	1908.30
529.16	2337.76
529.36	2104.70
529.57	1888.84
529.77	2396.33
529.97	2023.80
530.18	2062.51
530.38	1968.92
530.58	2274.88
530.78	2217.75
530.99	1970.35
531.19	2063.94
531.39	2042.03
531.60	2180.88
531.80	2065.79
532.00	2150.98
532.20	2245.80
532.41	2049.61
532.61	1984.28
532.81	1966.05
533.01	2135.83
533.22	2251.95
533.42	2179.45
533.62	1877.78
533.82	2429.71
534.03	2161.63
534.23	2153.85
534.43	1976.49
534.63	2119.44
534.84	2239.86
535.04	2139.92
535.24	2043.87
535.44	2692.46
535.65	2122.72
535.85	1981.82
536.05	1962.77
536.25	2187.03
536.46	2070.29
536.66	2191.94
536.86	2080.53
537.06	2314.20
537.27	2445.27
537.47	2052.68
537.67	2008.65
537.87	2428.07
538.08	2180.88
538.28	1923.45
538.48	1894.37
538.68	2177.20
538.88	2305.40
539.09	1871.02
539.29	2020.12
539.49	2333.25
539.69	2265.87
539.90	2117.19
540.10	1929.39
540.30	2400.63
540.50	2089.13
540.70	1884.95
540.91	1976.49
541.11	2351.27
541.31	2501.18
541.51	2099.78
541.72	2136.65
541.92	2268.13
542.12	2097.73
542.32	2076.44
542.52	1996.56
542.73	2084.83
542.93	2289.42
543.13	2016.63
543.33	2140.33
543.53	2351.48
543.74	2310.11
543.94	2028.51
544.14	2126.41
544.34	2423.98
544.54	2214.88
544.75	2144.02
544.95	2251.95
545.15	2367.66
545.35	2503.23
545.55	2155.90
545.75	2032.61
545.96	2635.53
546.16	2099.17
546.36	2037.93
546.56	2076.64
546.76	2384.65
546.97	2517.77
547.17	2076.85
547.37	2124.56
547.57	2096.92
547.77	2344.31
547.97	2109.82
548.18	2093.84
548.38	2196.24
548.58	2445.27
548.78	2006.39
548.98	2106.13
549.18	2403.09
549.39	2561.80
549.59	2168.80
549.79	2109.61
549.99	2484.39
550.19	2384.86
550.39	2236.59
550.60	2064.15
550.80	2281.44
551.00	2301.92
551.20	2018.27
551.40	2028.72
551.60	2271.81
551.80	2251.74
552.01	2108.79
552.21	2057.18
552.41	2235.15
552.61	2525.35
552.81	2131.94
553.01	1971.78
553.21	2267.72
553.42	2045.51
553.62	2009.88
553.82	1952.94
554.02	2494.84
554.22	2315.23
554.42	1935.74
554.62	2172.08
554.83	2481.73
555.03	2509.99
555.23	2174.94
555.43	2428.48
555.63	2353.12
555.83	2307.24
556.03	2217.75
556.23	2001.07
556.44	2267.72
556.64	2457.56
556.84	1854.44
557.04	2067.01
557.24	2253.79
557.44	2245.80
557.64	2116.37
557.84	1959.50
558.04	2156.92
558.25	2351.48
558.45	1971.78
558.65	2049.61
558.85	2196.86
559.05	1898.67
559.25	2046.94
559.45	2095.89
559.65	2615.67
559.85	3149.16
560.05	2177.81
560.26	2301.71
560.46	2317.28
560.66	2215.29
560.86	2111.05
561.06	2001.68
561.26	2470.87
561.46	2343.49
561.66	2051.45
561.86	2156.92
562.06	2065.17
562.26	2150.16
562.47	2074.39
562.67	1937.38
562.87	2308.27
563.07	1953.97
563.27	2060.46
563.47	2044.28
563.67	2107.56
563.87	2318.30
564.07	1995.54
564.27	2055.14
564.47	2235.56
564.67	2312.77
564.87	2072.34
565.08	2126.82
565.28	2104.49
565.48	2305.19
565.68	2124.36
565.88	2184.98
566.08	2543.78
566.28	2197.06
566.48	1922.43
566.68	2043.26
566.88	2129.07
567.08	2373.80
567.28	2106.13
567.48	2062.71
567.68	2294.13
567.88	1988.17
568.08	2061.89
568.28	2216.11
568.48	2165.32
568.68	2424.59
568.89	2096.71
569.09	1914.85
569.29	2318.10
569.49	2324.85
569.69	1951.71
569.89	1965.85
570.09	1902.36
570.29	2063.12
570.49	1936.15
570.69	2030.77
570.89	2336.94
571.09	2580.24
571.29	1937.58
571.49	2190.71
571.69	2255.02
571.89	2301.30
572.09	2049.40
572.29	2098.35
572.49	2303.15
572.69	2313.39
572.89	2093.43
573.09	1802.62
573.29	2199.31
573.49	2228.80
573.69	2037.52
573.89	2097.94
574.09	2125.59
574.29	2415.99
574.49	2082.37
574.69	1972.19
574.89	2019.71
575.09	2051.45
575.29	1930.82
575.49	2077.25
575.69	2254.20
575.89	2008.44
576.09	2028.92
576.29	2072.54
576.49	2027.90
576.69	2196.45
576.89	2036.70
577.09	2079.92
577.29	1942.09
577.49	2514.50
577.69	2020.32
577.89	2220.61
578.09	2204.02
578.29	1955.40
578.49	2091.39
578.69	1961.75
578.89	2378.72
579.09	2205.66
579.29	1983.46
579.49	2170.03
579.69	2135.01
579.89	2515.72
580.09	1850.95
580.29	1879.22
580.49	2085.65
580.69	2006.60
580.89	1987.14
581.09	2013.15
581.29	2123.33
581.49	2157.94
581.69	1947.00
581.89	1974.86
582.09	2056.78
582.28	2047.97
582.48	2154.05
582.68	2204.84
582.88	2443.23
583.08	2156.51
583.28	2088.52
583.48	2095.28
583.68	2072.13
583.88	2200.34
584.08	2048.38
584.28	2086.68
584.48	2553.41
584.68	2286.15
584.88	2041.42
585.08	2261.78
585.28	2373.19
585.48	2407.80
585.68	2142.99
585.87	2194.40
586.07	2323.01
586.27	2193.17
586.47	2138.90
586.67	2048.79
586.87	2203.82
587.07	2186.62
587.27	1983.25
587.47	2161.22
587.67	2551.56
587.87	2765.17
588.07	2212.42
588.27	2161.43
588.46	2462.27
588.66	2483.16
588.86	2140.54
589.06	2173.30
589.26	2422.34
589.46	2391.00
589.66	1999.84
589.86	1976.70
590.06	2179.04
590.26	2332.23
590.46	2114.32
590.66	2241.71
590.85	2199.31
591.05	2358.44
591.25	2074.18
591.45	2108.38
591.65	2346.97
591.85	2256.45
592.05	2066.81
592.25	2196.24
592.45	2436.06
592.64	2191.94
592.84	2101.42
593.04	1995.54
593.24	2661.34
593.44	2147.50
593.64	2114.73
593.84	2138.90
594.04	2159.38
594.24	2486.44
594.43	2050.63
594.63	2058.82
594.83	2372.57
595.03	2359.67
595.23	1973.22
595.43	1944.34
595.63	2082.99
595.83	2338.58
596.02	1827.40
596.22	2017.86
596.42	2222.87
596.62	2209.14
596.82	2026.47
597.02	2072.34
597.22	2457.56
597.41	2234.54
597.61	1984.28
597.81	2178.42
598.01	2331.20
598.21	2135.21
598.41	1973.01
598.61	1989.19
598.80	2207.92
599.00	2262.60
599.20	2204.43
599.40	2060.05
599.60	2164.09
599.80	2344.31
599.99	2184.57
600.19	2041.21
600.39	2226.55
600.59	2304.99
600.79	2167.98
600.99	2093.84
601.19	2509.38
601.38	2589.45
601.58	2135.01
601.78	1853.00
601.98	2326.08
602.18	2436.88
602.37	2570.82
602.57	2410.87
602.77	2714.58
602.97	2666.46
603.17	2609.32
603.37	2490.53
603.56	2708.85
603.76	2599.08
603.96	2347.59
604.16	2339.39
604.36	2645.77
604.56	2517.98
604.75	2129.89
604.95	2258.30
605.15	2543.78
605.35	2485.41
605.55	2136.44
605.74	2116.99
605.94	2485.41
606.14	2260.14
606.34	2102.85
606.54	2195.63
606.73	2140.54
606.93	2340.62
607.13	1988.37
607.33	2140.54
607.53	2474.77
607.72	2370.52
607.92	2122.11
608.12	2196.86
608.32	2154.46
608.51	2329.97
608.71	1937.58
608.91	2133.37
609.11	2321.17
609.31	2186.41
609.50	2072.75
609.70	2326.08
609.90	2408.62
610.10	2430.32
610.29	2041.01
610.49	2000.25
610.69	2363.36
610.89	2284.30
611.09	2116.78
611.28	2295.57
611.48	2432.17
611.68	2161.43
611.88	2061.89
612.07	2011.51
612.27	2352.30
612.47	2088.93
612.67	2092.41
612.86	2126.82
613.06	2199.93
613.26	1935.33
613.46	1981.41
613.65	2125.59
613.85	2696.56
614.05	2373.39
614.25	2178.22
614.44	2088.11
614.64	2170.03
614.84	2131.53
615.04	2005.58
615.23	2037.73
615.43	2310.11
615.63	2312.16
615.83	1997.79
616.02	1912.60
616.22	2327.93
616.42	2030.97
616.62	1990.42
616.81	2130.91
617.01	2295.57
617.21	2225.12
617.41	1969.33
617.60	2133.98
617.80	2294.95
618.00	2308.06
618.19	2147.50
618.39	2046.33
618.59	2317.28
618.79	2169.82
618.98	1888.02
619.18	2045.92
619.38	2565.29
619.57	2135.42
619.77	2020.12
619.97	2029.95
620.17	2097.94
620.36	1976.09
620.56	2237.61
620.76	1932.46
620.95	2030.15
621.15	2114.53
621.35	1955.40
621.54	2057.80
621.74	2227.37
621.94	2076.85
622.14	1914.85
622.33	1894.58
622.53	2153.23
622.73	2132.96
622.92	1865.90
623.12	2007.01
623.32	2551.36
623.51	2289.83
623.71	1892.53
623.91	2206.48
624.10	2040.80
624.30	2218.97
624.50	1917.72
624.69	1887.00
624.89	2884.97
625.09	2143.20
625.29	1820.03
625.48	1900.72
625.68	2223.68
625.88	2394.08
626.07	2085.86
626.27	1953.76
626.47	2087.08
626.66	1936.15
626.86	2071.52
627.06	2021.75
627.25	2192.76
627.45	2493.61
627.64	2035.07
627.84	2180.06
628.04	2047.97
628.23	2554.23
628.43	1898.47
628.63	1962.16
628.82	2112.27
629.02	2503.64
629.22	2089.34
629.41	2202.18
629.61	2233.11
629.81	2597.03
630.00	2033.63
630.20	1991.04
630.40	2268.33
630.59	2300.89
630.79	2042.85
630.98	1996.16
631.18	2182.32
631.38	2185.59
631.57	2151.39
631.77	1903.79
631.97	2212.42
632.16	2247.03
632.36	2051.04
632.56	2068.65
632.75	2228.60
632.95	2338.58
633.14	1909.73
633.34	2207.51
633.54	1895.40
633.73	2101.22
633.93	1967.07
634.12	1845.83
634.32	2692.05
634.52	2186.82
634.71	1861.81
634.91	2042.23
635.11	2008.24
635.30	2063.53
635.50	2029.13
635.69	1935.13
635.89	2521.05
636.09	2379.13
636.28	1967.89
636.48	1991.85
636.67	2328.95
636.87	2312.57
637.07	2106.75
637.26	2004.96
637.46	2268.33
637.65	2370.11
637.85	2158.56
638.04	2036.50
638.24	2177.81
638.44	2297.21
638.63	2088.52
638.83	2041.42
639.02	2304.17
639.22	2300.48
639.42	2004.14
639.61	2026.47
639.81	2231.67
640.00	2190.51
640.20	2182.52
640.39	2113.71
640.59	2636.35
640.79	2486.85
640.98	2311.13
641.18	2219.18
641.37	2419.68
641.57	2261.16
641.76	2227.37
641.96	1985.30
642.15	2320.14
642.35	2230.44
642.55	2161.02
642.74	1970.56
642.94	2385.68
643.13	2455.92
643.33	2032.81
643.52	2001.68
643.72	2114.12
643.91	2231.88
644.11	1953.15
644.31	1991.65
644.50	2069.27
644.70	2427.25
644.89	2082.37
645.09	2137.46
645.28	2229.42
645.48	2283.89
645.67	1982.84
645.87	1883.31
646.06	2158.15
646.26	2275.70
646.45	1846.45
646.65	1816.75
646.84	2510.60
647.04	2159.58
647.24	1902.56
647.43	2027.90
647.63	2231.06
647.82	2464.12
648.02	1945.16
648.21	2028.51
648.41	2449.78
648.60	2140.54
648.80	2177.20
648.99	2042.44
649.19	2126.00
649.38	1946.80
649.58	2016.84
649.77	2084.01
649.97	2386.50
650.16	2275.70
650.36	1822.90
650.55	2215.90
650.75	2270.99
650.94	2478.25
651.14	2046.74
651.33	2120.88
651.53	2505.89
651.72	2096.10
651.92	2047.15
652.11	1868.36
652.31	2304.17
652.50	2298.84
652.70	2070.29
652.89	1947.21
653.09	2482.55
653.28	2177.20
653.48	1845.63
653.67	1912.60
653.87	2760.87
654.06	2235.15
654.25	2270.58
654.45	1991.04
654.64	2157.13
654.84	2180.27
655.03	1820.85
655.23	2160.81
655.42	2328.75
655.62	2505.28
655.81	2159.17
656.01	1964.62
656.20	2349.43
656.40	2501.18
656.59	2094.25
656.79	2188.87
656.98	2242.53
657.17	2336.94
657.37	2042.85
657.56	2021.75
657.76	2266.90
657.95	2400.83
658.15	1699.61
658.34	2082.78
658.54	2192.76
658.73	1994.93
658.92	2069.27
659.12	2045.72
659.31	2307.24
659.51	2042.85
659.70	2142.18
659.90	1994.31
660.09	2393.46
660.29	2206.28
660.48	1969.53
660.67	2211.81
660.87	2104.70
661.06	2282.87
661.26	2126.41
661.45	2214.88
661.65	2289.63
661.84	2111.25
662.03	1956.83
662.23	2008.24
662.42	2561.60
662.62	2007.42
662.81	1900.92
663.00	2010.29
663.20	2255.84
663.39	2381.79
663.59	2226.55
663.78	2106.13
663.97	2248.46
664.17	2476.61
664.36	2019.09
664.56	2043.26
664.75	2379.33
664.94	2357.42
665.14	2151.60
665.33	2110.43
665.53	2231.26
665.72	2218.77
665.91	2213.24
666.11	2121.49
666.30	2258.09
666.50	2154.87
666.69	2177.20
666.88	2095.48
667.08	2343.08
667.27	2304.58
667.47	2192.96
667.66	2138.90
667.85	2486.85
668.05	2326.29
668.24	2062.92
668.43	2325.67
668.63	2225.32
668.82	2459.82
669.02	2207.71
669.21	2043.26
669.40	2002.30
669.60	2553.82
669.79	1925.71
669.98	2685.30
670.18	2053.50
670.37	1998.41
670.56	2032.20
670.76	2085.04
670.95	2135.83
671.15	2354.14
671.34	2046.33
671.53	2027.28
671.73	2107.77
671.92	2067.01
672.11	1959.70
672.31	1975.68
672.50	2237.82
672.69	1957.24
672.89	1785.62
673.08	2018.89
673.27	2298.84
673.47	2228.39
673.66	2068.04
673.85	1916.49
674.05	2280.00
674.24	2419.88
674.43	2223.27
674.63	2518.59
674.82	3064.99
675.01	2328.75
675.21	2508.35
675.40	2306.42
675.59	2391.00
675.79	2696.77
675.98	2247.24
676.17	2395.30
676.37	2407.59
676.56	2255.84
676.75	2126.82
676.95	2106.34
677.14	2177.20
677.33	2419.47
677.52	1925.91
677.72	1993.49
677.91	2222.46
678.10	1949.26
678.30	1935.33
678.49	1962.36
678.68	2569.59
678.88	1881.67
679.07	2193.17
679.26	1986.53
679.45	2506.92
679.65	2407.59
679.84	1827.20
680.03	1863.24
680.23	2117.60
680.42	2607.68
680.61	1920.99
680.81	1943.11
681.00	2162.86
681.19	2250.31
681.38	2100.60
681.58	2063.74
681.77	2111.25
681.96	2314.41
682.15	1913.83
682.35	2112.68
682.54	2252.97
682.73	1990.42
682.93	1917.72
683.12	1906.45
683.31	2305.19
683.50	2663.59
683.70	1924.07
683.89	2068.04
684.08	2021.75
684.27	2337.55
684.47	1899.70
684.66	1987.55
684.85	2539.07
685.04	2409.03
685.24	1933.28
685.43	1970.56
685.62	1897.85
685.81	2249.08
686.01	2241.91
686.20	2188.46
686.39	2267.10
686.58	2906.89
686.78	2468.21
686.97	2402.27
687.16	2623.86
687.35	2488.69
687.55	2216.52
687.74	2227.17
687.93	2170.85
688.12	2276.73
688.32	2204.23
688.51	1999.84
688.70	2308.88
688.89	2046.33
689.08	1920.99
689.28	1981.00
689.47	2205.87
689.66	2216.72
689.85	2115.14
690.05	1936.97
690.24	2044.90
690.43	2221.43
690.62	2044.49
690.81	1967.07
691.01	2171.46
691.20	2114.73
691.39	1869.80
691.58	2064.56
691.77	2505.28
691.97	2197.88
692.16	2081.97
692.35	2026.47
692.54	2110.43
692.73	2327.93
692.93	2134.80
693.12	2197.06
693.31	2397.35
693.50	2348.00
693.69	2240.48
693.89	2080.12
694.08	2505.28
694.27	2505.28
694.46	2072.54
694.65	2085.65
694.85	2337.96
695.04	2376.67
695.23	2319.73
695.42	3705.19
695.61	4978.00
695.80	5796.78
696.00	6314.09
696.19	6700.34
696.38	5964.71
696.57	5061.35
696.76	4750.88
696.95	4376.10
697.15	4493.86
697.34	4191.78
697.53	3558.55
697.72	3435.26
697.91	3173.12
698.10	3167.59
698.30	2529.86
698.49	2346.15
698.68	2429.71
698.87	2219.59
699.06	2018.48
699.25	2092.61
699.45	2369.91
699.64	2230.85
699.83	2187.23
700.02	1951.51
700.21	2267.31
700.40	2079.71
700.59	1976.29
700.79	2013.15
700.98	2290.45
701.17	2074.80
701.36	1967.28
701.55	1961.13
701.74	2429.10
701.93	2071.93
702.12	2201.36
702.32	2206.07
702.51	2680.59
702.70	2653.14
702.89	2340.42
703.08	2173.51
703.27	2567.74
703.46	2447.12
703.65	2088.93
703.85	2027.69
704.04	2162.66
704.23	2429.71
704.42	2003.32
704.61	2003.32
704.80	2492.17
704.99	2075.00
705.18	2095.28
705.37	2190.30
705.57	3219.61
705.76	4486.89
705.95	4735.72
706.14	5691.31
706.33	6275.18
706.52	6245.28
706.71	4698.45
706.90	4360.54
707.09	4309.75
707.28	4083.24
707.47	3535.61
707.67	3516.98
707.86	3257.70
708.05	3356.01
708.24	2745.10
708.43	2593.75
708.62	2451.21
708.81	2232.29
709.00	2054.73
709.19	2012.13
709.38	2379.33
709.57	2055.75
709.76	2052.27
709.96	1987.55
710.15	2444.87
710.34	2215.70
710.53	2160.20
710.72	2022.37
710.91	2392.44
711.10	2298.23
711.29	2093.64
711.48	1989.81
711.67	2024.01
711.86	2238.84
712.05	1891.30
712.24	1912.80
712.43	2316.05
712.62	2425.00
712.81	2026.87
713.00	2167.16
713.19	1999.02
713.39	2266.90
713.58	2016.63
713.77	2296.18
713.96	2581.26
714.15	2499.75
714.34	2387.52
714.53	2210.58
714.72	2781.35
714.91	2239.25
715.10	2278.77
715.29	2114.94
715.48	2880.47
715.67	2443.84
715.86	2139.31
716.05	2121.70
716.24	2225.73
716.43	2129.48
716.62	1953.35
716.81	1904.00
717.00	2140.74
717.19	2504.46
717.38	1964.62
717.57	1965.64
717.76	1912.80
717.95	2342.47
718.14	1992.67
718.33	2040.39
718.52	1922.43
718.71	1908.09
718.90	1907.07
719.09	1942.91
719.28	2172.69
719.47	2348.82
719.66	2126.61
719.85	2183.13
720.04	2163.88
720.23	2243.55
720.42	2016.63
720.61	2147.30
720.80	1982.23
720.99	2253.18
721.18	2002.09
721.37	1918.13
721.56	2120.06
721.75	2309.49
721.94	1953.56
722.13	1958.06
722.32	2111.46
722.51	2340.62
722.70	2047.35
722.89	2088.93
723.08	2186.41
723.27	2340.83
723.46	2078.89
723.65	2056.98
723.84	2089.54
724.03	2409.64
724.22	1901.13
724.41	2020.32
724.60	2118.21
724.79	2333.25
724.98	2076.85
725.16	1980.80
725.35	2292.70
725.54	1988.78
725.73	2056.16
725.92	2113.91
726.11	2391.41
726.30	2872.89
726.49	2671.37
726.68	2900.13
726.87	3279.41
727.06	3342.08
727.25	2691.65
727.44	2702.29
727.63	2740.59
727.82	2645.57
728.01	2531.29
728.20	2499.96
728.38	2743.46
728.57	2377.28
728.76	2204.02
728.95	2320.14
729.14	2094.05
729.33	2058.41
729.52	1798.32
729.71	1958.27
729.90	2047.15
730.09	2153.03
730.28	2051.86
730.47	2052.68
730.66	2475.99
730.84	2306.42
731.03	2160.40
731.22	2130.30
731.41	2275.29
731.60	2346.97
731.79	1897.03
731.98	1968.51
732.17	2337.96
732.36	2286.15
732.55	1997.18
732.73	1920.18
732.92	2429.71
733.11	2289.63
733.30	1963.18
733.49	1914.65
733.68	2350.66
733.87	2246.62
734.06	1942.91
734.25	2017.04
734.43	2203.00
734.62	2408.82
734.81	2199.72
735.00	2139.31
735.19	2293.32
735.38	2382.40
735.57	2000.87
735.76	2238.23
735.94	2420.29
736.13	2856.51
736.32	2463.09
736.51	2450.19
736.70	3030.38
736.89	3099.60
737.08	3123.77
737.27	4670.60
737.45	6887.93
737.64	7672.71
737.83	8719.43
738.02	9371.51
738.21	8844.77
738.40	7186.32
738.59	6351.37
738.77	5885.25
738.96	5583.38
739.15	5343.15
739.34	4853.48
739.53	4442.04
739.72	4444.09
739.90	4026.31
740.09	3218.18
740.28	2964.43
740.47	2906.27
740.66	2668.71
740.85	2172.89
741.03	2168.80
741.22	2106.34
741.41	2235.36
741.60	1960.52
741.79	2174.33
741.98	2464.32
742.16	2583.31
742.35	2120.47
742.54	2201.16
742.73	2677.72
742.92	2285.94
743.10	2054.93
743.29	2180.88
743.48	2778.07
743.67	2203.82
743.86	2005.17
744.05	2027.28
744.23	2122.31
744.42	2127.43
744.61	2110.84
744.80	1979.57
744.99	2182.32
745.17	1957.24
745.36	1929.39
745.55	2206.48
745.74	2290.04
745.93	2179.24
746.11	2060.87
746.30	2002.09
746.49	2471.49
746.68	2141.36
746.86	2105.72
747.05	2046.94
747.24	2380.35
747.43	2416.81
747.62	2005.78
747.80	2075.41
747.99	2526.78
748.18	2446.91
748.37	2170.85
748.56	2205.05
748.74	2558.94
748.93	2564.47
749.12	3916.33
749.31	8201.09
749.49	12018.71
749.68	14499.21
749.87	16636.06
750.06	17429.44
750.24	16547.79
750.43	15726.35
750.62	16910.08
750.81	17296.12
750.99	17993.04
751.18	17603.52
751.37	14593.01
751.56	12377.31
751.74	11964.44
751.93	10857.31
752.12	8722.30
752.31	7601.45
752.49	6647.71
752.68	6111.96
752.87	4909.19
753.06	4329.82
753.24	3848.54
753.43	3618.15
753.62	2729.53
753.81	2492.99
753.99	2810.63
754.18	2469.24
754.37	2125.59
754.55	2151.39
754.74	2613.62
754.93	1991.44
755.12	2034.86
755.30	1973.63
755.49	2438.31
755.68	2277.55
755.86	2171.46
756.05	1930.21
756.24	2514.29
756.43	2033.22
756.61	1998.00
756.80	2144.43
756.99	2475.38
757.17	2224.30
757.36	2006.19
757.55	2051.25
757.74	2317.69
757.92	2262.80
758.11	1949.87
758.30	1890.68
758.48	2192.15
758.67	2071.11
758.86	2119.03
759.04	2067.01
759.23	2235.97
759.42	2284.10
759.60	2068.24
759.79	2118.21
759.98	2216.31
760.16	2134.80
760.35	2035.89
760.54	1970.35
760.73	2275.70
760.91	1988.78
761.10	2031.58
761.29	2138.49
761.47	2254.40
761.66	2659.70
761.85	2181.50
762.03	2641.88
762.22	4942.57
762.41	12116.19
762.59	20063.95
762.78	24182.62
762.97	29249.09
763.15	31156.57
763.34	27968.49
763.52	20427.05
763.71	19071.71
763.90	17408.76
764.08	16045.43
764.27	14707.08
764.46	13699.27
764.64	11862.45
764.83	10512.43
765.02	9208.90
765.20	8000.19
765.39	6575.00
765.58	4782.01
765.76	3905.48
765.95	3416.22
766.13	2902.79
766.32	2466.78
766.51	2290.65
766.69	3263.23
766.88	2439.13
767.07	2005.78
767.25	1869.80
767.44	2434.42
767.62	2461.86
767.81	1986.94
768.00	2036.70
768.18	2234.74
768.37	2111.46
768.56	1861.81
768.74	1966.05
768.93	2015.82
769.11	2288.20
769.30	2071.11
769.49	1963.59
769.67	2170.85
769.86	2126.61
770.04	1991.24
770.23	1969.74
770.42	2427.66
770.60	2206.48
770.79	1955.40
770.97	2110.02
771.16	3246.44
771.35	4895.26
771.53	6390.28
771.72	7394.81
771.90	8695.06
772.09	9275.66
772.27	8122.65
772.46	6243.44
772.65	6405.84
772.83	5842.04
773.02	5498.80
773.20	4960.18
773.39	4940.11
773.58	4545.26
773.76	3882.13
773.95	3613.44
774.13	3599.51
774.32	3138.92
774.50	2611.98
774.69	2505.28
774.87	2418.65
775.06	2732.81
775.25	2074.18
775.43	2090.77
775.62	2275.50
775.80	2326.08
775.99	2088.31
776.17	1996.97
776.36	2231.26
776.54	2396.33
776.73	2004.96
776.92	2101.22
777.10	2361.31
777.29	2287.99
777.47	1951.51
777.66	2007.62
777.84	2202.59
778.03	2182.73
778.21	1932.05
778.40	2063.94
778.58	2265.26
778.77	2365.40
778.95	1909.73
779.14	1955.20
779.32	2501.39
779.51	2338.37
779.70	1944.55
779.88	1878.40
780.07	2111.46
780.25	2611.98
780.44	2043.05
780.62	2090.98
780.81	2285.33
780.99	2254.20
781.18	1949.46
781.36	1927.96
781.55	2159.58
781.73	2443.02
781.92	1858.53
782.10	1887.61
782.29	2251.54
782.47	2442.20
782.66	1985.30
782.84	1867.54
783.03	2065.38
783.21	2407.18
783.40	1970.56
783.58	1968.92
783.77	2111.25
783.95	2139.51
784.14	1926.11
784.32	2028.72
784.51	2382.81
784.69	2049.40
784.88	1899.90
785.06	1985.71
785.24	1946.18
785.43	2354.55
785.61	2061.69
785.80	1925.71
785.98	2278.77
786.17	2183.13
786.35	1878.81
786.54	2129.68
786.72	2352.09
786.91	2377.49
787.09	1984.89
787.28	1896.42
787.46	2205.87
787.65	2320.76
787.83	1877.37
788.01	2021.75
788.20	2007.62
788.38	2210.99
788.57	2044.28
788.75	2010.29
788.94	2559.14
789.12	2425.41
789.31	2089.75
789.49	2156.31
789.67	2122.72
789.86	2304.99
790.04	1978.13
790.23	1890.28
790.41	2607.06
790.60	2150.57
790.78	2015.41
790.96	2048.17
791.15	2339.60
791.33	2147.50
791.52	2034.66
791.70	1916.49
791.89	2202.59
792.07	2335.09
792.25	2068.86
792.44	1906.45
792.62	2419.47
792.81	2149.34
792.99	2027.08
793.17	2052.47
793.36	2205.05
793.54	3081.17
793.73	4170.48
793.91	5692.12
794.10	6957.77
794.28	8066.74
794.46	8212.35
794.65	7861.54
794.83	6273.75
795.01	5865.38
795.20	5556.14
795.38	5264.71
795.57	5092.89
795.75	4845.70
795.93	4298.48
796.12	4016.07
796.30	3969.37
796.49	3731.81
796.67	3086.29
796.85	3005.19
797.04	2921.63
797.22	2810.22
797.40	2296.59
797.59	2318.92
797.77	2440.36
797.96	2256.04
798.14	2108.59
798.32	2134.19
798.51	2472.72
798.69	2654.17
798.87	2121.90
799.06	2111.05
799.24	2176.38
799.42	2958.50
799.61	3716.45
799.79	4509.83
799.98	5517.02
800.16	5935.83
800.34	7324.77
800.53	9133.33
800.71	9833.32
800.89	11360.08
801.08	11450.19
801.26	11335.71
801.44	9630.37
801.63	7942.23
801.81	7683.77
801.99	6909.03
802.18	6604.49
802.36	6262.89
802.54	5606.11
802.73	4884.00
802.91	4643.77
803.09	4251.79
803.28	3789.97
803.46	3427.69
803.64	3472.13
803.83	2695.95
804.01	2436.26
804.19	2210.17
804.38	2561.60
804.56	2455.51
804.74	2218.56
804.92	2172.49
805.11	2143.81
805.29	2477.22
805.47	2044.49
805.66	1978.34
805.84	2091.59
806.02	2447.53
806.21	2047.15
806.39	2320.76
806.57	2440.77
806.76	2421.93
806.94	2142.18
807.12	2103.67
807.30	2242.53
807.49	2395.10
807.67	2267.31
807.85	2360.49
808.04	2528.42
808.22	2746.12
808.40	2065.38
808.58	1962.57
808.77	2389.16
808.95	2693.49
809.13	2999.46
809.31	5585.83
809.50	8446.64
809.68	9883.09
809.86	11042.03
810.05	12110.05
810.23	14237.68
810.41	21637.40
810.59	37499.95
810.78	46915.07
810.96	54831.50
811.14	59512.13
811.32	58438.38
811.51	46917.53
811.69	37172.48
811.87	36746.09
812.05	31850.83
812.24	29974.07
812.42	27517.74
812.60	24418.34
812.78	20722.78
812.97	17490.68
813.15	15574.19
813.33	13148.57
813.51	11049.61
813.70	8735.41
813.88	6895.72
814.06	5418.52
814.24	4182.98
814.42	3233.54
814.61	3151.00
814.79	3126.22
814.97	2328.34
815.15	2275.09
815.34	2522.69
815.52	2588.43
815.70	2069.68
815.88	2155.69
816.06	2145.66
816.25	2193.58
816.43	2051.66
816.61	2171.87
816.79	2507.33
816.98	1952.53
817.16	1950.90
817.34	1953.56
817.52	2241.50
817.70	2443.23
817.89	2022.98
818.07	1930.62
818.25	2158.76
818.43	2208.94
818.61	2019.09
818.80	1933.49
818.98	2483.78
819.16	2238.84
819.34	1885.77
819.52	2234.33
819.70	2029.74
819.89	2175.97
820.07	1824.74
820.25	1850.54
820.43	2182.11
820.61	2316.66
820.80	1953.56
820.98	1845.42
821.16	1883.93
821.34	1951.30
821.52	1940.66
821.70	2099.99
821.89	2176.99
822.07	2115.35
822.25	2027.49
822.43	1927.55
822.61	2432.17
822.79	2237.61
822.98	1988.58
823.16	1814.91
823.34	2200.34
823.52	2356.39
823.70	2038.55
823.88	1842.56
824.06	2241.09
824.25	2144.84
824.43	2099.17
824.61	1869.39
824.79	2148.93
824.97	2225.32
825.15	2218.15
825.33	2977.34
825.52	4243.19
825.70	4773.41
825.88	5070.16
826.06	5531.97
826.24	5858.42
826.42	5286.22
826.60	4227.62
826.78	4257.32
826.97	3991.29
827.15	4131.78
827.33	3513.50
827.51	3448.37
827.69	3280.85
827.87	3213.06
828.05	2910.98
828.23	2619.15
828.41	2920.20
828.60	2753.70
828.78	2216.31
828.96	2318.10
829.14	2187.64
829.32	2203.00
829.50	2030.36
829.68	1996.16
829.86	2120.67
830.04	2274.68
830.22	2104.29
830.41	1910.75
830.59	2138.69
830.77	2279.18
830.95	1941.06
831.13	1918.95
831.31	2011.31
831.49	2322.19
831.67	2104.29
831.85	2097.94
832.03	2103.06
832.21	2289.42
832.39	1834.98
832.57	1881.06
832.76	2278.37
832.94	2099.58
833.12	1797.50
833.30	1937.99
833.48	2358.24
833.66	2205.87
833.84	1933.08
834.02	1988.37
834.20	2313.39
834.38	2295.77
834.56	1818.60
834.74	1880.04
834.92	1939.43
835.10	2463.50
835.28	1981.00
835.46	1984.89
835.64	2107.16
835.82	2043.05
836.01	2259.93
836.19	2178.42
836.37	2084.83
836.55	1991.24
836.73	1937.58
836.91	1901.95
837.09	2269.56
837.27	2443.23
837.45	1828.02
837.63	1863.04
837.81	1984.89
837.99	2148.32
838.17	2039.57
838.35	1906.66
838.53	2592.73
838.71	2318.71
838.89	1957.24
839.07	1950.69
839.25	2231.26
839.43	2423.57
839.61	2596.21
839.79	4294.59
839.97	6394.78
840.15	7481.84
840.33	8312.71
840.51	8899.04
840.69	8664.14
840.87	7099.08
841.05	6239.34
841.23	6891.21
841.41	8980.75
841.59	12799.19
841.77	14482.01
841.95	15873.81
842.13	16987.29
842.31	16236.50
842.49	12957.70
842.67	10749.99
842.85	10756.75
843.03	9251.08
843.21	8578.33
843.39	7931.37
843.57	7265.58
843.75	6538.35
843.93	5460.70
844.11	4894.65
844.29	4602.40
844.47	4187.69
844.65	3892.57
844.83	3387.14
845.01	3181.31
845.19	3053.11
845.36	2481.93
845.54	2351.68
845.72	2357.83
845.90	2407.80
846.08	2016.23
846.26	2104.29
846.44	2296.18
846.62	2325.47
846.80	2059.64
846.98	1926.73
847.16	2114.94
847.34	2225.94
847.52	1921.20
847.70	1860.78
847.88	2156.51
848.06	2414.35
848.24	2082.78
848.41	1887.61
848.59	2364.99
848.77	2216.31
848.95	1990.22
849.13	1944.14
849.31	2274.68
849.49	2194.60
849.67	1911.57
849.85	1876.76
850.03	2203.61
850.21	2180.47
850.39	1882.70
850.57	2083.81
850.74	2432.17
850.92	2583.51
851.10	2842.38
851.28	3569.20
851.46	4341.28
851.64	5060.74
851.82	4760.71
852.00	4829.72
852.18	4621.24
852.36	4026.72
852.53	3658.90
852.71	3485.03
852.89	3593.57
853.07	3472.33
853.25	2983.89
853.43	2782.37
853.61	2966.28
853.79	2819.44
853.97	2385.06
854.14	2394.08
854.32	2742.23
854.50	2571.84
854.68	2191.53
854.86	2119.85
855.04	2119.24
855.22	2336.73
855.40	1836.41
855.57	1908.91
855.75	2288.61
855.93	2237.20
856.11	1805.49
856.29	1923.45
856.47	2004.35
856.65	2160.81
856.82	1870.21
857.00	1822.08
857.18	2105.31
857.36	2041.21
857.54	2012.74
857.72	2080.74
857.89	2269.15
858.07	2138.69
858.25	2141.15
858.43	1850.95
858.61	2084.01
858.79	2098.35
858.97	1889.66
859.14	2023.39
859.32	2117.39
859.50	2055.55
859.68	2041.42
859.86	1917.92
860.03	2189.69
860.21	2255.43
860.39	1919.77
860.57	2091.39
860.75	2199.52
860.93	2470.46
861.10	2123.74
861.28	1910.96
861.46	2204.23
861.64	2244.57
861.82	1974.45
861.99	2086.06
862.17	2315.23
862.35	2293.32
862.53	1964.00
862.71	1966.46
862.88	2204.84
863.06	2265.67
863.24	1915.67
863.42	1898.47
863.60	2115.35
863.77	2227.37
863.95	1783.17
864.13	1938.40
864.31	2108.59
864.49	2305.19
864.66	1868.98
864.84	1902.56
865.02	2198.08
865.20	2674.03
865.37	2008.65
865.55	1905.02
865.73	2041.42
865.91	2488.90
866.09	2410.66
866.26	2369.30
866.44	2704.55
866.62	2527.60
866.80	2280.21
866.97	2241.09
867.15	2389.37
867.33	2402.27
867.51	2223.07
867.68	2208.53
867.86	2238.63
868.04	2166.34
868.22	1844.81
868.39	2015.20
868.57	2272.84
868.75	2460.84
868.93	1873.48
869.10	1948.03
869.28	2496.06
869.46	2410.66
869.64	1947.62
869.81	1939.43
869.99	2250.51
870.17	2151.80
870.35	1867.13
870.52	1936.56
870.70	2330.59
870.88	2043.26
871.05	1865.49
871.23	1744.25
871.41	2136.24
871.59	2129.48
871.76	1896.83
871.94	1835.39
872.12	2116.17
872.29	1879.63
872.47	1909.12
872.65	1849.52
872.83	2174.12
873.00	2382.20
873.18	1930.21
873.36	1842.97
873.53	2251.74
873.71	1906.66
873.89	1817.16
874.06	1903.79
874.24	2183.95
874.42	2355.37
874.60	2060.46
874.77	1977.72
874.95	1969.94
875.13	2312.57
875.30	1900.31
875.48	1866.93
875.66	2419.06
875.83	2005.99
876.01	1891.71
876.19	2021.75
876.36	1933.90
876.54	2140.54
876.72	1837.85
876.89	1994.11
877.07	2279.39
877.25	1837.64
877.42	1943.52
877.60	1904.61
877.78	2460.63
877.95	2039.98
878.13	1818.39
878.31	2036.91
878.48	2279.59
878.66	2270.58
878.84	1888.64
879.01	1935.94
879.19	2211.60
879.37	2213.24
879.54	1919.15
879.72	1766.58
879.90	1816.75
880.07	2250.10
880.25	1668.89
880.42	2078.28
880.60	2127.63
880.78	2243.75
880.95	1898.26
881.13	1973.63
881.31	2137.87
881.48	2029.33
881.66	1863.45
881.83	2006.60
882.01	2006.60
882.19	1883.11
882.36	1958.47
882.54	1893.14
882.72	2225.73
882.89	2167.37
883.07	1879.63
883.24	1889.46
883.42	2284.51
883.60	2157.74
883.77	1836.62
883.95	1932.26
884.12	2266.69
884.30	2156.31
884.48	2054.32
884.65	1923.66
884.83	2152.82
885.00	2179.65
885.18	1792.38
885.36	1912.39
885.53	2235.56
885.71	2348.20
885.88	1825.35
886.06	1919.56
886.23	2204.64
886.41	2073.16
886.59	1891.50
886.76	1821.46
886.94	2230.03
887.11	2583.31
887.29	1926.11
887.47	1834.16
887.64	2343.49
887.82	2378.51
887.99	1770.26
888.17	1944.55
888.34	2062.10
888.52	1937.99
888.69	1906.04
888.87	1829.66
889.05	2069.27
889.22	2033.22
889.40	1888.84
889.57	2154.46
889.75	2406.98
889.92	2058.41
890.10	1826.58
890.27	1981.61
890.45	2038.55
890.62	1826.58
890.80	1823.10
890.98	1738.93
891.15	2410.05
891.33	2276.93
891.50	1850.54
891.68	1782.76
891.85	2251.74
892.03	2243.55
892.20	1875.53
892.38	1838.46
892.55	2239.86
892.73	2261.37
892.90	1753.88
893.08	1880.04
893.25	1976.70
893.43	2070.29
893.60	1978.75
893.78	1748.76
893.95	2177.81
894.13	2108.79
894.30	1848.29
894.48	1918.95
894.65	2256.66
894.83	2122.31
895.00	1730.12
895.18	1711.69
895.35	2280.00
895.53	2272.02
895.70	1773.13
895.88	1991.85
896.05	2207.30
896.23	1915.06
896.40	1856.89
896.58	1943.52
896.75	2208.32
896.93	2389.57
897.10	1882.29
897.28	1771.29
897.45	2142.58
897.63	2223.89
897.80	2000.05
897.98	1847.47
898.15	2182.32
898.33	2050.22
898.50	1915.26
898.67	1912.80
898.85	2049.81
899.02	2187.64
899.20	2114.12
899.37	1901.54
899.55	2160.61
899.72	2346.56
899.90	1883.72
900.07	1840.51
900.25	2227.58
900.42	2343.08
900.59	1853.41
900.77	2004.76
900.94	2204.43
901.12	2189.69
901.29	1902.77
901.47	2020.32
901.64	2221.23
901.82	2099.17
901.99	1697.56
902.16	1853.82
902.34	2314.82
902.51	2196.86
902.69	1881.26
902.86	1898.67
903.03	2749.60
903.21	2144.02
903.38	1884.54
903.56	1857.92
903.73	2310.93
903.91	2073.77
904.08	1854.23
904.25	1729.30
904.43	2016.23
904.60	2290.04
904.78	1894.37
904.95	1824.94
905.12	2059.23
905.30	2435.24
905.47	1962.16
905.65	2036.70
905.82	2100.40
905.99	2175.76
906.17	1875.53
906.34	1878.40
906.52	1994.52
906.69	2206.28
906.86	1969.33
907.04	1971.58
907.21	2311.54
907.38	2320.76
907.56	1839.28
907.73	1832.73
907.91	2411.89
908.08	2326.29
908.25	1891.91
908.43	1785.62
908.60	2233.31
908.77	2178.63
908.95	1930.01
909.12	1837.03
909.30	2267.51
909.47	1899.29
909.64	1937.17
909.82	2104.70
909.99	2090.98
910.16	2167.77
910.34	1860.99
910.51	1868.57
910.68	2197.06
910.86	2169.41
911.03	1990.22
911.20	2708.44
911.38	4887.68
911.55	7723.71
911.72	8958.22
911.90	9950.67
912.07	10973.63
912.24	10643.50
912.42	8062.03
912.59	5817.05
912.76	5673.08
912.94	4716.88
913.11	4080.37
913.28	3664.23
913.46	3516.57
913.63	3560.39
913.80	3457.38
913.98	3016.04
914.15	3371.78
914.32	3295.39
914.49	2892.96
914.67	2664.20
914.84	3003.96
915.01	3050.24
915.19	2710.69
915.36	2452.44
915.53	2768.03
915.71	2541.53
915.88	2191.12
916.05	2049.61
916.22	2403.70
916.40	2265.26
916.57	1855.66
916.74	2098.14
916.92	2432.17
917.09	2010.08
917.26	1868.36
917.43	1817.98
917.61	2069.68
917.78	1887.00
917.95	1818.60
918.13	1815.11
918.30	2506.30
918.47	2167.16
918.64	1866.11
918.82	1844.40
918.99	2120.26
919.16	2484.19
919.33	1961.95
919.51	1962.98
919.68	2104.29
919.85	2366.63
920.02	1809.99
920.20	1923.04
920.37	2428.07
920.54	2308.68
920.71	1856.89
920.89	1870.61
921.06	2466.57
921.23	1997.59
921.40	2004.55
921.58	2542.14
921.75	3658.49
921.92	3197.70
922.09	3274.29
922.27	3298.87
922.44	3353.14
922.61	3021.78
922.78	2376.26
922.96	2329.77
923.13	2455.10
923.30	2583.92
923.47	2049.40
923.64	2094.25
923.82	2438.31
923.99	2331.41
924.16	2199.93
924.33	2000.46
924.50	2287.38
924.68	2553.61
924.85	1977.52
925.02	2036.30
925.19	2390.18
925.36	2294.95
925.54	1990.63
925.71	2038.75
925.88	2750.42
926.05	2121.90
926.22	1847.88
926.40	2018.07
926.57	2219.79
926.74	2229.83
926.91	1868.77
927.08	2059.23
927.26	2318.92
927.43	2157.33
927.60	1844.81
927.77	1902.15
927.94	2413.74
928.11	2316.05
928.29	1770.88
928.46	1939.02
928.63	2007.21
928.80	2079.71
928.97	1975.27
929.14	1857.71
929.32	2495.04
929.49	2139.10
929.66	1844.40
929.83	1781.53
930.00	2050.22
930.17	2196.45
930.35	1819.42
930.52	1847.88
930.69	2384.04
930.86	1937.58
931.03	1934.72
931.20	1699.20
931.37	2320.14
931.55	2095.69
931.72	1941.06
931.89	1780.91
932.06	1944.14
932.23	2408.41
932.40	1955.40
932.57	1988.99
932.74	2375.03
932.92	2309.90
933.09	2031.99
933.26	1612.57
933.43	2041.21
933.60	2168.39
933.77	1914.24
933.94	1965.64
934.11	2070.91
934.29	2147.09
934.46	1829.45
934.63	1989.60
934.80	1943.93
934.97	2199.31
935.14	1986.73
935.31	1799.14
935.48	2006.80
935.65	2225.32
935.82	1925.50
936.00	1807.33
936.17	2412.10
936.34	2090.98
936.51	1963.59
936.68	1804.06
936.85	2196.65
937.02	2173.30
937.19	1985.92
937.36	1923.04
937.53	2213.44
937.70	2256.25
937.87	1872.05
938.05	2008.44
938.22	2140.54
938.39	1932.05
938.56	1919.97
938.73	1784.40
938.90	2093.84
939.07	1998.20
939.24	1992.26
939.41	1720.91
939.58	2209.14
939.75	2207.51
939.92	1832.73
940.09	2122.92
940.26	2066.61
940.43	2258.50
940.60	1899.08
940.77	1887.00
940.95	2171.46
941.12	2228.19
941.29	1907.89
941.46	1896.83
941.63	2327.93
941.80	2385.47
941.97	1764.94
942.14	1733.81
942.31	2245.39
942.48	2069.88
942.65	2000.05
942.82	1922.63
942.99	2203.00
943.16	2152.82
943.33	1747.12
943.50	1836.62
943.67	2248.87
943.84	2293.11
944.01	1884.13
944.18	1834.16
944.35	2351.07
944.52	1971.99
944.69	1936.76
944.86	1787.47
945.03	2232.08
945.20	2528.42
945.37	1722.96
945.54	1913.21
945.71	2351.07
945.88	2401.65
946.05	1838.87
946.22	1793.61
946.39	2361.51
946.56	2084.01
946.73	1745.69
946.90	1793.61
947.07	2029.95
947.24	2063.53
947.41	1703.71
947.58	1957.04
947.75	2241.91
947.92	2160.61
948.09	1671.96
948.26	1726.23
948.43	2131.32
948.60	2451.01
948.77	1819.01
948.94	1893.14
949.11	2248.87
949.27	2184.98
949.44	1836.21
949.61	1780.09
949.78	2170.64
949.95	2298.84
950.12	1769.04
950.29	1743.85
950.46	2057.59
950.63	2295.77
950.80	1812.45
950.97	1883.31
951.14	2295.16
951.31	2075.00
951.48	1807.13
951.65	1747.33
951.82	2473.54
951.99	2163.27
952.15	1787.88
952.32	1861.40
952.49	2005.78
952.66	2003.12
952.83	1842.76
953.00	1791.97
953.17	2098.76
953.34	2277.34
953.51	1922.63
953.68	1893.14
953.85	2336.32
954.02	2330.18
954.18	1889.87
954.35	1871.84
954.52	2000.25
954.69	2157.74
954.86	1768.42
955.03	1945.37
955.20	2266.49
955.37	2097.53
955.54	1859.97
955.71	1820.23
955.87	2176.58
956.04	2413.53
956.21	1846.86
956.38	1793.20
956.55	2132.75
956.72	2569.79
956.89	1934.72
957.06	1800.57
957.23	2027.49
957.39	2364.79
957.56	1890.68
957.73	1772.52
957.90	1762.89
958.07	2438.72
958.24	1881.67
958.41	1852.80
958.57	2244.98
958.74	2117.80
958.91	1766.58
959.08	1804.67
959.25	2245.19
959.42	2064.56
959.59	1907.27
959.75	1889.46
959.92	2321.99
960.09	2311.34
960.26	1816.75
960.43	1908.09
960.60	2128.25
960.76	2097.12
960.93	1777.02
961.10	1917.10
961.27	2284.51
961.44	2082.17
961.61	1784.19
961.77	1753.27
961.94	2119.85
962.11	2260.96
962.28	1847.68
962.45	1770.47
962.62	2103.26
962.78	2274.88
962.95	1715.99
963.12	1833.14
963.29	2232.49
963.46	2626.11
963.62	1934.31
963.79	1843.99
963.96	2573.48
964.13	2058.21
964.30	1934.51
964.46	1837.64
964.63	2012.54
964.80	2710.28
964.97	1942.70
965.14	2378.51
965.30	2636.35
965.47	2787.49
965.64	2537.43
965.81	2450.80
965.98	2769.47
966.14	2464.53
966.31	2068.45
966.48	2031.99
966.65	2528.63
966.81	2379.94
966.98	2020.94
967.15	2013.77
967.32	2274.88
967.49	2112.89
967.65	1809.99
967.82	1812.04
967.99	2208.32
968.16	1950.28
968.32	2104.70
968.49	1904.82
968.66	2153.44
968.83	2457.97
968.99	2029.13
969.16	1887.41
969.33	2433.40
969.50	2301.51
969.66	2026.06
969.83	2173.71
970.00	2280.62
970.17	2230.03
970.33	1884.13
970.50	1787.26
970.67	2393.67
970.84	2333.46
971.00	1773.95
971.17	1761.87
971.34	2253.38
971.50	2123.54
971.67	1948.03
971.84	1868.98
972.01	1915.06
972.17	1774.56
972.34	1748.76
972.51	2014.18
972.67	2327.31
972.84	2172.69
973.01	1810.81
973.18	1831.50
973.34	2291.47
973.51	1978.75
973.68	1862.83
973.84	1888.64
974.01	2056.57
974.18	2426.43
974.34	1916.69
974.51	1957.24
974.68	2011.11
974.85	2485.82
975.01	1941.06
975.18	1845.83
975.35	2132.55
975.51	2000.05
975.68	1732.99
975.85	1996.77
976.01	2019.30
976.18	2367.66
976.35	1832.52
976.51	1910.96
976.68	2398.38
976.85	2307.04
977.01	1881.26
977.18	1925.09
977.35	2234.13
977.51	1927.34
977.68	1705.55
977.85	1827.20
978.01	2339.19
978.18	2273.45
978.35	1964.00
978.51	1996.77
978.68	2340.83
978.85	2467.19
979.01	1940.25
979.18	1927.34
979.34	2105.11
979.51	2167.57
979.68	1804.87
979.84	1918.95
980.01	2610.34
980.18	2152.62
980.34	1847.47
980.51	1923.45
980.67	2273.25
980.84	2255.22
981.01	1855.46
981.17	1943.52
981.34	1851.98
981.51	2247.24
981.67	1793.61
981.84	1926.93
982.00	2223.89
982.17	2113.50
982.34	1699.40
982.50	1621.58
982.67	2394.28
982.83	2046.54
983.00	1733.40
983.17	1627.11
983.33	2311.75
983.50	1866.72
983.66	1721.93
983.83	1620.97
984.00	2077.87
984.16	2114.12
984.33	1652.92
984.49	1621.99
984.66	1973.22
984.83	2272.02
984.99	1701.25
985.16	1633.26
985.32	2224.50
985.49	2283.89
985.65	1783.99
985.82	1640.01
985.99	2374.01
986.15	2143.81
986.32	1761.25
986.48	1706.98
986.65	2049.20
986.81	2247.44
986.98	1659.88
987.14	1722.34
987.31	2141.77
987.48	1859.56
987.64	1579.39
987.81	1602.13
987.97	2511.83
988.14	1985.51
988.30	1675.03
988.47	1530.04
988.63	2164.50
988.80	1938.20
988.96	1726.23
989.13	1749.99
989.30	2073.36
989.46	2282.67
989.63	1601.72
989.79	1618.51
989.96	2084.83
990.12	2363.15
990.29	1675.65
990.45	1719.47
990.62	2091.80
990.78	2318.92
990.95	1767.81
991.11	1705.96
991.28	2020.94
991.44	2163.27
991.61	1562.60
991.77	1731.15
991.94	2146.89
992.10	2306.83
992.27	1730.12
992.43	1695.31
992.60	2209.14
992.76	2039.57
992.93	1879.83
993.09	1603.97
993.26	2308.68
993.42	2453.47
993.59	1682.41
993.75	1594.14
993.92	1996.56
994.08	1973.83
994.25	1717.63
994.41	1609.70
994.58	2222.66
994.74	2362.33
994.91	1606.02
995.07	1786.24
995.24	2101.63
995.40	2118.42
995.56	1824.13
995.73	1761.87
995.89	2417.42
996.06	2100.40
996.22	1663.97
996.39	1618.10
996.55	2096.92
996.72	2190.92
996.88	1599.26
997.05	1636.53
997.21	2452.65
997.37	2207.51
997.54	1747.33
997.70	1680.56
997.87	2155.08
998.03	2085.24
998.20	1594.75
998.36	1576.94
998.52	2224.30
998.69	2268.13
998.85	1591.07
999.02	1678.52
999.18	2280.00
999.35	2268.53
999.51	1736.06
999.67	1680.15
999.84	1923.45
1000.00	2220.82
1000.17	1766.58
1000.33	1624.04
1000.49	2018.48
1000.66	2088.72
1000.82	1667.66
1000.99	1739.34
1001.15	2325.06
1001.31	2045.72
1001.48	1685.27
1001.64	1757.98
1001.81	2046.74
1001.97	2461.45
1002.13	1705.75
1002.30	1686.91
1002.46	2354.55
1002.63	2053.91
1002.79	1786.03
1002.95	1677.49
1003.12	2290.86
1003.28	2192.15
1003.45	1643.90
1003.61	1618.92
1003.77	2145.45
1003.94	1886.18
1004.10	1678.72
1004.26	1775.59
1004.43	2210.99
1004.59	2407.39
1004.75	1677.08
1004.92	1631.62
1005.08	2020.94
1005.25	2135.62
1005.41	1680.15
1005.57	1754.29
1005.74	2298.44
1005.90	2035.48
1006.06	1803.03
1006.23	1655.99
1006.39	2228.80
1006.55	2604.40
1006.72	1836.41
1006.88	1619.94
1007.04	1961.34
1007.21	2044.08
1007.37	1712.92
1007.53	1665.61
1007.70	2369.30
1007.86	2260.75
1008.02	1772.31
1008.19	1635.30
1008.35	2149.96
1008.51	1962.77
1008.68	1705.75
1008.84	1647.59
1009.00	1933.49
1009.17	2305.19
1009.33	1865.09
1009.49	1780.09
1009.65	1991.85
1009.82	2183.95
1009.98	1763.71
1010.14	1601.72
1010.31	2247.03
1010.47	2195.63
1010.63	1755.11
1010.80	1715.38
1010.96	2208.53
1011.12	2091.39
1011.28	1703.91
1011.45	1640.42
1011.61	2605.22
1011.77	1960.73
1011.94	1671.55
1012.10	1641.86
1012.26	1915.06
1012.42	1991.44
1012.59	1741.18
1012.75	1714.97
1012.91	2068.65
1013.07	2255.22
1013.24	1622.81
1013.40	1644.72
1013.56	2146.89
1013.72	2121.08
1013.89	1744.66
1014.05	1766.78
1014.21	2455.92
1014.37	2553.00
1014.54	1709.03
1014.70	1623.63
1014.86	2046.33
1015.02	1926.32
1015.19	1677.29
1015.35	1638.99
1015.51	2080.33
1015.67	2045.92
1015.84	1679.74
1016.00	1718.25
1016.16	2305.19
1016.32	2250.51
1016.49	1683.43
1016.65	1611.55
1016.81	2103.67
1016.97	2198.90
1017.14	1780.91
1017.30	1676.88
1017.46	2030.56
1017.62	2154.26
1017.78	1736.68
1017.95	1637.97
1018.11	2250.92
1018.27	2536.20
1018.43	1856.69
1018.59	1763.51
1018.76	2286.35
1018.92	2596.41
1019.08	1658.85
1019.24	1693.67
1019.40	2364.79
1019.57	2175.35
1019.73	1789.31
1019.89	1680.15
1020.05	2133.37
1020.21	2523.30
1020.38	1671.96
1020.54	1842.97
1020.70	2250.10
1020.86	2240.27
1021.02	1668.07
1021.18	1681.79
1021.35	2015.41
1021.51	2210.78
1021.67	1858.12
1021.83	1728.49
1021.99	2113.71
1022.15	2139.92
1022.32	1735.04
1022.48	1722.55
1022.64	2351.68
1022.80	2400.63
1022.96	1768.42
1023.12	1607.45
1023.29	2302.53
1023.45	2202.80
1023.61	1653.94
1023.77	1931.64
1023.93	2139.31
1024.09	1971.78
1024.25	1668.07
1024.42	1593.52
1024.58	2051.86
1024.74	2159.58
1024.90	1703.50
1025.06	1764.53
1025.22	2016.63
1025.38	2405.13
1025.54	1641.65
1025.71	1812.25
1025.87	2226.35
1026.03	2192.15
1026.19	1634.89
1026.35	1872.05
1026.51	2204.84
1026.67	2104.29
1026.83	1759.41
1026.99	1855.87
1027.16	2200.13
1027.32	2112.07
1027.48	1692.85
1027.64	1662.13
1027.80	2212.63
1027.96	2137.46
1028.12	1713.13
1028.28	1662.95
1028.44	2149.75
1028.60	2385.27
1028.77	1840.92
1028.93	1737.09
1029.09	2032.40
1029.25	1943.32
1029.41	1729.30
1029.57	1800.37
1029.73	2139.31
1029.89	2392.44
1030.05	1793.61
1030.21	1779.89
1030.37	2540.51
1030.53	2231.67
1030.69	1735.65
1030.85	1586.97
1031.02	1947.41
1031.18	2102.04
1031.34	1698.99
1031.50	1809.99
1031.66	1994.72
1031.82	2389.77
1031.98	1737.29
1032.14	1627.32
1032.30	1947.21
1032.46	2280.82
1032.62	1840.92
1032.78	1612.78
1032.94	2022.16
1033.10	2045.92
1033.26	1785.83
1033.42	1835.80
1033.58	2510.20
1033.74	2037.11
1033.90	1708.21
1034.06	1875.12
1034.22	2517.98
1034.38	2301.30
1034.54	1745.48
1034.70	1778.05
1034.86	2444.05
>>>>>End Processed Spectral Data<<<<<
