SpectraSuite Data File
++++++++++++++++++++++++++++++++++++
Date: Thu Mar 30 16:19:18 PDT 2017
User: UCSD _CER
Dark Spectrum Present: No
Reference Spectrum Present: No
Number of Sampled Component Spectra: 1
Spectrometers: USB4C00073
Integration Time (usec): 250000 (USB4C00073)
Spectra Averaged: 10 (USB4C00073)
Boxcar Smoothing: 0 (USB4C00073)
Correct for Electrical Dark: No (USB4C00073)
Strobe/Lamp Enabled: No (USB4C00073)
Correct for Detector Non-linearity: No (USB4C00073)
Correct for Stray Light: No (USB4C00073)
Number of Pixels in Processed Spectrum: 3648
>>>>>Begin Processed Spectral Data<<<<<
345.37	1268.92
345.58	1268.92
345.80	1268.92
346.01	1281.82
346.22	1275.07
346.43	1977.72
346.65	1808.36
346.86	2116.99
347.07	2055.96
347.28	1794.84
347.50	1777.23
347.71	1954.38
347.92	1693.26
348.13	1822.69
348.35	1707.39
348.56	1926.73
348.77	1776.41
348.98	1814.30
349.20	1681.38
349.41	1892.53
349.62	1990.01
349.83	1875.12
350.05	1746.71
350.26	1959.09
350.47	2059.23
350.68	1771.90
350.90	1708.42
351.11	2086.68
351.32	2050.84
351.53	1799.35
351.75	1705.14
351.96	1946.39
352.17	1912.19
352.38	1866.93
352.60	1860.99
352.81	1902.36
353.02	2092.41
353.23	1750.40
353.44	1785.42
353.66	1822.90
353.87	1854.64
354.08	1902.36
354.29	1821.05
354.51	1828.02
354.72	1852.39
354.93	1754.49
355.14	1682.41
355.35	1682.61
355.57	2003.53
355.78	1778.05
355.99	1839.49
356.20	1890.28
356.42	1878.81
356.63	1862.22
356.84	1792.79
357.05	1997.38
357.26	2179.86
357.48	1895.60
357.69	1833.96
357.90	1943.52
358.11	1844.61
358.32	1782.96
358.54	1858.33
358.75	1854.64
358.96	1964.21
359.17	1775.59
359.38	1791.77
359.60	1963.18
359.81	1887.61
360.02	1784.80
360.23	1766.17
360.44	1831.29
360.66	2036.09
360.87	1721.52
361.08	1729.71
361.29	1935.13
361.50	1927.55
361.72	1787.47
361.93	1828.84
362.14	1920.38
362.35	1705.75
362.56	1887.41
362.77	1715.99
362.99	1994.11
363.20	1901.13
363.41	1864.88
363.62	1717.84
363.83	1955.20
364.05	1997.18
364.26	1690.19
364.47	1746.92
364.68	2035.07
364.89	1813.27
365.10	1732.79
365.32	1795.86
365.53	1798.53
365.74	1831.70
365.95	1769.24
366.16	1687.73
366.37	1920.59
366.59	1850.75
366.80	1796.27
367.01	1641.04
367.22	2159.58
367.43	2259.52
367.64	1812.66
367.86	1793.00
368.07	1943.73
368.28	2051.04
368.49	1720.29
368.70	1818.19
368.91	1851.16
369.12	1897.44
369.34	1687.73
369.55	1744.66
369.76	1894.78
369.97	1857.92
370.18	1726.85
370.39	1723.57
370.60	1726.85
370.82	1797.71
371.03	1803.44
371.24	1747.12
371.45	2004.14
371.66	1964.00
371.87	1798.73
372.08	1777.02
372.30	1757.77
372.51	1992.06
372.72	1869.18
372.93	1772.93
373.14	2068.24
373.35	1816.14
373.56	1762.28
373.78	1800.57
373.99	2018.89
374.20	2255.84
374.41	1819.42
374.62	1814.30
374.83	2102.24
375.04	1851.77
375.25	1811.43
375.47	1757.98
375.68	1850.54
375.89	1987.76
376.10	1807.74
376.31	1891.09
376.52	1947.21
376.73	1933.28
376.94	1807.74
377.15	1769.04
377.37	1888.43
377.58	1857.71
377.79	1691.83
378.00	1712.10
378.21	1934.92
378.42	1974.86
378.63	1835.59
378.84	1877.37
379.05	2024.01
379.27	1929.19
379.48	1894.99
379.69	1742.21
379.90	2030.97
380.11	1661.31
380.32	1795.86
380.53	1895.19
380.74	2061.49
380.95	1917.10
381.16	1769.04
381.37	1783.99
381.59	2085.45
381.80	2024.21
382.01	1747.94
382.22	1668.28
382.43	1936.56
382.64	1881.88
382.85	1731.76
383.06	1833.96
383.27	1985.71
383.48	1863.45
383.69	1825.15
383.91	1731.35
384.12	1950.90
384.33	1962.57
384.54	1814.71
384.75	1690.60
384.96	2246.21
385.17	2009.06
385.38	1776.20
385.59	1757.36
385.80	2001.89
386.01	2070.29
386.22	1867.34
386.43	1806.51
386.64	2173.51
386.86	1880.44
387.07	1912.60
387.28	1710.87
387.49	1813.68
387.70	2056.78
387.91	1870.41
388.12	1731.35
388.33	1965.85
388.54	1843.17
388.75	1741.59
388.96	1836.00
389.17	1805.08
389.38	1847.68
389.59	1844.61
389.80	1789.72
390.01	1896.42
390.22	1865.90
390.43	1886.18
390.64	1683.64
390.86	1952.74
391.07	2020.32
391.28	1785.62
391.49	1832.93
391.70	1752.45
391.91	1817.98
392.12	1793.82
392.33	1767.19
392.54	1932.05
392.75	1875.32
392.96	1861.60
393.17	1724.59
393.38	2179.24
393.59	2032.40
393.80	1722.55
394.01	1773.75
394.22	1888.84
394.43	2147.70
394.64	1738.52
394.85	1902.56
395.06	1879.83
395.27	1930.21
395.48	1809.99
395.69	1725.00
395.90	1863.24
396.11	1894.17
396.32	1778.25
396.53	1899.49
396.74	1872.87
396.95	2030.36
397.16	1759.61
397.37	1684.66
397.58	2015.00
397.79	1936.56
398.00	1837.23
398.21	1792.59
398.42	1942.91
398.63	2175.76
398.84	1818.39
399.05	1778.46
399.26	2071.32
399.47	1967.89
399.68	1608.47
399.89	1733.20
400.10	1743.85
400.31	1855.05
400.52	1824.54
400.73	1775.79
400.94	1720.91
401.15	1923.45
401.36	1814.91
401.57	1843.17
401.78	2048.58
401.99	2019.71
402.20	1707.60
402.41	1909.53
402.62	2084.63
402.83	1852.39
403.04	1761.05
403.25	1906.25
403.46	1906.25
403.67	2049.40
403.88	1784.19
404.09	1772.72
404.30	1835.59
404.51	1820.44
404.72	1737.09
404.93	1882.08
405.14	1803.44
405.35	1879.83
405.56	1795.66
405.77	1753.88
405.98	1911.78
406.19	1875.73
406.40	1748.76
406.61	1773.75
406.82	1827.61
407.03	2175.56
407.24	1711.28
407.45	1819.21
407.66	1923.66
407.87	2037.11
408.08	1836.62
408.29	1873.89
408.49	1963.39
408.70	1896.21
408.91	1806.72
409.12	1870.21
409.33	1761.25
409.54	2073.98
409.75	1748.76
409.96	1774.16
410.17	2002.09
410.38	1861.81
410.59	1777.84
410.80	1896.62
411.01	1859.56
411.22	1879.42
411.43	1812.66
411.64	1762.07
411.85	1783.78
412.06	1805.28
412.27	1629.77
412.47	1755.52
412.68	1877.58
412.89	1966.46
413.10	1764.53
413.31	1700.02
413.52	2114.94
413.73	2147.30
413.94	1747.12
414.15	1905.63
414.36	1801.39
414.57	1792.18
414.78	1684.86
414.99	1747.12
415.19	1989.19
415.40	1947.82
415.61	2006.60
415.82	1836.82
416.03	2019.30
416.24	1970.15
416.45	1804.26
416.66	1765.96
416.87	1723.98
417.08	2000.25
417.29	1733.61
417.50	1843.17
417.70	1979.16
417.91	1970.56
418.12	1841.94
418.33	1810.61
418.54	1951.51
418.75	2063.33
418.96	1970.97
419.17	1898.88
419.38	2133.57
419.59	2054.52
419.79	1926.11
420.00	1885.97
420.21	2315.84
420.42	1953.76
420.63	1802.01
420.84	1867.54
421.05	1919.36
421.26	1898.47
421.47	1725.21
421.67	2035.48
421.88	1792.38
422.09	1744.25
422.30	1947.82
422.51	1809.79
422.72	2093.02
422.93	1954.79
423.14	1804.67
423.35	1698.59
423.55	1708.62
423.76	1790.74
423.97	1798.32
424.18	1684.04
424.39	1842.97
424.60	2002.71
424.81	1810.20
425.02	1888.84
425.22	1897.44
425.43	1886.79
425.64	1986.53
425.85	1852.39
426.06	2190.51
426.27	2015.41
426.48	1866.52
426.68	1877.78
426.89	1985.30
427.10	2132.35
427.31	1802.62
427.52	1746.10
427.73	1969.53
427.94	1939.43
428.14	1863.86
428.35	1795.04
428.56	2085.86
428.77	2006.39
428.98	1846.24
429.19	1809.18
429.40	1854.64
429.60	1860.17
429.81	1935.54
430.02	1835.39
430.23	1870.00
430.44	1999.84
430.65	1794.64
430.85	1831.91
431.06	1964.82
431.27	1701.04
431.48	1790.33
431.69	1832.93
431.90	1890.48
432.10	1897.65
432.31	1843.58
432.52	1700.22
432.73	2159.79
432.94	2062.51
433.15	1912.19
433.35	1817.57
433.56	2039.37
433.77	1900.92
433.98	1892.12
434.19	1786.24
434.40	1884.54
434.60	1867.95
434.81	1792.59
435.02	1848.50
435.23	1898.06
435.44	1823.51
435.64	1727.26
435.85	1760.84
436.06	1881.67
436.27	1828.43
436.48	1700.02
436.68	1751.01
436.89	2103.67
437.10	1960.32
437.31	1822.08
437.52	1876.55
437.73	1908.91
437.93	1897.03
438.14	1850.95
438.35	1666.84
438.56	1865.09
438.77	1864.27
438.97	1930.21
439.18	1745.69
439.39	2021.14
439.60	1741.18
439.80	1715.58
440.01	1814.91
440.22	1825.15
440.43	1950.28
440.64	1686.91
440.84	1827.81
441.05	1780.09
441.26	2242.53
441.47	1815.11
441.68	1749.99
441.88	1855.66
442.09	1836.00
442.30	1930.01
442.51	1853.62
442.71	1853.82
442.92	1907.89
443.13	1753.06
443.34	1735.04
443.55	1754.70
443.75	1968.10
443.96	1732.17
444.17	1747.74
444.38	2022.98
444.58	1767.81
444.79	1865.90
445.00	1825.15
445.21	1897.85
445.41	1877.17
445.62	1607.86
445.83	1867.54
446.04	1919.15
446.24	1744.46
446.45	1633.26
446.66	1798.12
446.87	1938.20
447.07	1813.48
447.28	1984.28
447.49	1840.51
447.70	2006.60
447.90	2006.80
448.11	1791.36
448.32	1891.09
448.53	2081.15
448.73	2070.91
448.94	1794.64
449.15	1923.25
449.36	1906.45
449.56	1944.75
449.77	1781.12
449.98	1699.61
450.19	1831.50
450.39	1849.32
450.60	1847.06
450.81	1851.36
451.02	1919.97
451.22	2093.23
451.43	1753.68
451.64	1770.67
451.84	1839.90
452.05	2030.15
452.26	1850.95
452.47	1805.69
452.67	1860.78
452.88	2050.22
453.09	1745.89
453.30	1708.42
453.50	1988.78
453.71	2090.36
453.92	1797.50
454.12	1891.71
454.33	1797.30
454.54	1855.46
454.75	1716.61
454.95	1712.72
455.16	1919.56
455.37	1986.32
455.57	1812.45
455.78	1772.31
455.99	1887.41
456.19	1905.02
456.40	1728.08
456.61	1812.86
456.82	1895.80
457.02	1950.69
457.23	1844.40
457.44	1973.22
457.64	1803.85
457.85	1932.26
458.06	1784.60
458.26	1804.67
458.47	1878.40
458.68	1992.26
458.89	1694.69
459.09	1922.02
459.30	2138.69
459.51	1884.13
459.71	1706.78
459.92	1801.39
460.13	1948.03
460.33	2139.31
460.54	1789.31
460.75	1814.91
460.95	1763.92
461.16	1939.63
461.37	1786.03
461.57	1819.42
461.78	1917.51
461.99	1764.12
462.19	2011.11
462.40	1790.95
462.61	2175.56
462.81	2035.68
463.02	1751.83
463.23	1788.90
463.43	1981.61
463.64	1840.30
463.85	2670.96
464.05	1754.70
464.26	2284.10
464.47	2056.16
464.67	1972.81
464.88	1839.28
465.09	1760.84
465.29	1894.17
465.50	1939.84
465.71	1788.29
465.91	1825.76
466.12	1894.99
466.33	1838.05
466.53	1804.06
466.74	2053.29
466.94	1878.40
467.15	1826.17
467.36	1982.43
467.56	1789.31
467.77	1931.85
467.98	1834.98
468.18	1761.05
468.39	1832.11
468.60	2164.09
468.80	1815.93
469.01	1737.09
469.21	1968.71
469.42	2005.99
469.63	1796.89
469.83	1748.35
470.04	1973.01
470.25	2080.53
470.45	1856.89
470.66	1776.41
470.86	1927.96
471.07	1841.12
471.28	1870.21
471.48	1907.68
471.69	1907.48
471.90	2358.65
472.10	1798.12
472.31	1806.72
472.51	1790.33
472.72	1797.71
472.93	1725.62
473.13	1915.06
473.34	1957.45
473.54	1894.99
473.75	1832.52
473.96	1982.02
474.16	1855.05
474.37	1930.82
474.57	1836.82
474.78	1736.68
474.99	1937.79
475.19	1945.37
475.40	1783.78
475.60	1734.22
475.81	2059.03
476.02	1846.24
476.22	1808.15
476.43	1921.61
476.63	1862.83
476.84	2005.78
477.05	1640.42
477.25	1778.05
477.46	2282.87
477.66	1895.40
477.87	1699.40
478.08	1801.80
478.28	2001.68
478.49	1856.28
478.69	1750.81
478.90	1800.37
479.10	1971.17
479.31	2089.75
479.52	1848.29
479.72	1923.86
479.93	1971.58
480.13	1838.26
480.34	1763.30
480.54	1858.74
480.75	1772.52
480.96	2035.27
481.16	1775.38
481.37	1894.17
481.57	2006.60
481.78	1975.88
481.98	1975.68
482.19	1841.53
482.40	2132.35
482.60	1984.07
482.81	1882.29
483.01	1802.01
483.22	1991.65
483.42	2014.18
483.63	1878.60
483.83	1870.00
484.04	1829.45
484.24	1979.57
484.45	1859.56
484.66	1710.87
484.86	1976.49
485.07	1793.20
485.27	1846.24
485.48	1782.55
485.68	2062.71
485.89	1801.60
486.09	1892.12
486.30	1794.23
486.50	1886.59
486.71	1889.87
486.91	1826.79
487.12	1867.75
487.33	2095.48
487.53	2076.03
487.74	1851.36
487.94	1816.14
488.15	1908.50
488.35	1958.68
488.56	1802.83
488.76	1800.16
488.97	1868.16
489.17	1945.37
489.38	1817.37
489.58	1791.36
489.79	1955.61
489.99	1940.25
490.20	1840.51
490.40	1902.56
490.61	1953.15
490.81	1821.46
491.02	1859.97
491.22	1905.84
491.43	1974.24
491.63	1865.09
491.84	1935.94
492.04	1722.14
492.25	1950.28
492.45	1857.51
492.66	1769.65
492.86	1694.69
493.07	1831.70
493.27	2149.55
493.48	1665.61
493.68	1840.10
493.89	1868.36
494.09	1991.24
494.30	1768.01
494.50	2044.49
494.71	1958.88
494.91	1713.54
495.12	1803.24
495.32	1894.78
495.53	1880.24
495.73	1694.49
495.94	1811.02
496.14	1684.25
496.35	2118.42
496.55	1847.06
496.76	1791.15
496.96	1847.68
497.17	1882.49
497.37	1952.94
497.58	1777.23
497.78	1717.84
497.98	1840.71
498.19	1847.68
498.39	1836.41
498.60	1876.14
498.80	1685.48
499.01	1990.01
499.21	1764.94
499.42	1826.58
499.62	1881.26
499.83	2149.96
500.03	1696.13
500.24	1873.69
500.44	2059.03
500.64	1995.13
500.85	1797.50
501.05	1925.71
501.26	1694.28
501.46	2070.29
501.67	1783.37
501.87	1718.45
502.08	1802.42
502.28	1861.40
502.48	1890.89
502.69	1941.88
502.89	1737.70
503.10	1789.92
503.30	1868.57
503.51	1846.45
503.71	1746.51
503.92	1964.41
504.12	1900.92
504.32	1814.30
504.53	1984.07
504.73	1970.35
504.94	1941.47
505.14	1974.65
505.35	1976.49
505.55	1933.08
505.75	1862.42
505.96	1937.79
506.16	2137.67
506.37	1831.50
506.57	1750.19
506.78	1889.66
506.98	1992.06
507.18	1721.32
507.39	1734.83
507.59	1809.59
507.80	1785.01
508.00	1868.36
508.20	1942.91
508.41	1829.25
508.61	2047.56
508.82	2005.17
509.02	1932.46
509.22	1751.83
509.43	1750.81
509.63	1786.03
509.84	1815.93
510.04	1730.74
510.24	2058.62
510.45	1970.76
510.65	1741.39
510.86	1849.32
511.06	1764.73
511.26	1996.56
511.47	1902.97
511.67	1763.10
511.88	1940.66
512.08	2011.31
512.28	1703.30
512.49	1892.32
512.69	1915.06
512.90	1896.42
513.10	1795.45
513.30	1838.05
513.51	1932.67
513.71	2078.89
513.91	1889.46
514.12	1846.65
514.32	1965.03
514.53	1803.24
514.73	1872.46
514.93	1811.02
515.14	1898.67
515.34	2067.42
515.54	1848.70
515.75	1888.02
515.95	1969.33
516.15	2045.92
516.36	1896.83
516.56	1914.65
516.77	1660.08
516.97	1957.65
517.17	1822.49
517.38	1918.54
517.58	2080.33
517.78	1855.87
517.99	1886.79
518.19	1874.10
518.39	2063.33
518.60	1839.90
518.80	1772.11
519.00	1947.82
519.21	1882.49
519.41	2142.18
519.61	1802.62
519.82	1902.36
520.02	1910.14
520.22	1895.40
520.43	1827.40
520.63	1836.41
520.83	1799.75
521.04	1713.33
521.24	1898.67
521.44	1825.56
521.65	1834.16
521.85	1990.42
522.05	1780.91
522.26	1818.80
522.46	2151.60
522.66	2001.68
522.87	1820.64
523.07	1997.79
523.27	1848.50
523.48	2079.51
523.68	1918.54
523.88	1863.45
524.09	2036.50
524.29	1946.18
524.49	1710.67
524.70	1952.33
524.90	2064.97
525.10	1964.62
525.31	1732.38
525.51	1741.59
525.71	2009.88
525.91	1949.05
526.12	1802.83
526.32	1723.16
526.52	1836.21
526.73	1819.01
526.93	1869.39
527.13	1729.10
527.34	1903.79
527.54	1861.19
527.74	1806.51
527.94	1741.80
528.15	1752.24
528.35	1910.75
528.55	1914.03
528.76	1896.62
528.96	1708.42
529.16	1985.71
529.36	1961.95
529.57	1750.60
529.77	2038.34
529.97	1774.56
530.18	1930.42
530.38	1833.34
530.58	1931.44
530.78	1934.31
530.99	1820.85
531.19	1944.34
531.39	1821.26
531.60	1898.67
531.80	1847.88
532.00	1965.23
532.20	1939.84
532.41	1794.64
532.61	1808.56
532.81	1805.90
533.01	1831.29
533.22	1934.31
533.42	1949.46
533.62	1665.00
533.82	2055.96
534.03	1852.59
534.23	1890.89
534.43	1766.17
534.63	1838.46
534.84	1920.99
535.04	1875.12
535.24	1876.55
535.44	2209.96
535.65	1824.13
535.85	1779.48
536.05	1775.18
536.25	1870.61
536.46	1779.89
536.66	2003.94
536.86	1890.48
537.06	1973.01
537.27	2064.35
537.47	1933.28
537.67	1835.39
537.87	2077.66
538.08	1866.11
538.28	1756.34
538.48	1740.36
538.68	1879.01
538.88	1961.95
539.09	1723.37
539.29	1823.92
539.49	1984.28
539.69	1951.30
539.90	1884.13
540.10	1778.87
540.30	2065.38
540.50	1824.33
540.70	1752.45
540.91	1863.45
541.11	2007.01
541.31	2104.29
541.51	1923.25
541.72	1906.86
541.92	1951.92
542.12	1797.50
542.32	1855.05
542.52	1804.26
542.73	1794.23
542.93	1960.11
543.13	1849.32
543.33	1930.62
543.53	1960.32
543.74	1935.94
543.94	1830.06
544.14	1926.32
544.34	2011.11
544.54	1893.76
544.75	1931.44
544.95	2054.73
545.15	1992.47
545.35	2112.89
545.55	1967.28
545.75	1844.20
545.96	2194.81
546.16	1822.08
546.36	1846.65
546.56	1845.22
546.76	2010.29
546.97	2102.85
547.17	1846.04
547.37	1924.68
547.57	1836.41
547.77	2000.87
547.97	1889.87
548.18	1913.83
548.38	1892.73
548.58	2066.61
548.78	1781.32
548.98	1930.62
549.18	2034.66
549.39	2150.57
549.59	1969.94
549.79	1907.07
549.99	2113.30
550.19	1991.85
550.39	1962.16
550.60	1874.51
550.80	1921.61
551.00	1980.59
551.20	1830.06
551.40	1821.67
551.60	1931.64
551.80	1925.30
552.01	1947.62
552.21	1864.27
552.41	1945.16
552.61	2116.37
552.81	1889.66
553.01	1790.33
553.21	1910.55
553.42	1766.58
553.62	1799.35
553.82	1806.31
554.02	2091.39
554.22	1985.71
554.42	1780.50
554.62	1901.74
554.83	2103.26
555.03	2079.30
555.23	1870.41
555.43	2109.20
555.63	1945.78
555.83	1962.77
556.03	1894.78
556.23	1762.07
556.44	1927.34
556.64	2068.86
556.84	1624.86
557.04	1837.03
557.24	1923.86
557.44	1907.27
557.64	1863.45
557.84	1780.50
558.04	1859.56
558.25	1995.34
558.45	1805.69
558.65	1883.11
558.85	1917.10
559.05	1677.29
559.25	1834.57
559.45	1918.54
559.65	2210.17
559.85	2554.23
560.05	1921.81
560.26	1949.26
560.46	1931.44
560.66	1866.93
560.86	1825.76
561.06	1813.48
561.26	2069.68
561.46	1975.88
561.66	1833.14
561.86	1947.21
562.06	1813.48
562.26	1909.32
562.47	1918.33
562.67	1794.84
562.87	1990.63
563.07	1739.54
563.27	1896.21
563.47	1908.71
563.67	1853.62
563.87	1990.83
564.07	1798.32
564.27	1844.61
564.47	1885.56
564.67	1926.11
564.87	1811.43
565.08	1932.87
565.28	1818.80
565.48	1955.20
565.68	1922.63
565.88	1916.69
566.08	2147.50
566.28	1883.72
566.48	1747.74
566.68	1825.76
566.88	1855.05
567.08	2008.65
567.28	1855.05
567.48	1859.35
567.68	1943.32
567.88	1721.73
568.08	1892.12
568.28	2010.08
568.48	1876.76
568.68	2037.93
568.89	1882.29
569.09	1728.69
569.29	2015.82
569.49	1999.43
569.69	1769.04
569.89	1774.36
570.09	1654.35
570.29	1812.86
570.49	1717.22
570.69	1788.29
570.89	1991.04
571.09	2169.62
571.29	1731.56
571.49	2026.87
571.69	1924.68
571.89	1947.00
572.09	1820.44
572.29	1831.09
572.49	1988.58
572.69	1954.38
572.89	1866.11
573.09	1613.59
573.29	1891.30
573.49	1917.31
573.69	1858.12
573.89	1967.69
574.09	1822.08
574.29	2078.07
574.49	1812.86
574.69	1819.62
574.89	1764.53
575.09	1781.53
575.29	1774.36
575.49	1875.32
575.69	1947.21
575.89	1764.73
576.09	1884.54
576.29	1886.18
576.49	1787.67
576.69	1882.08
576.89	1809.79
577.09	1861.81
577.29	1700.43
577.49	2112.89
577.69	1766.17
577.89	1936.35
578.09	1892.53
578.29	1714.76
578.49	1862.83
578.69	1779.68
578.89	2021.96
579.09	1879.42
579.29	1796.48
579.49	1972.40
579.69	1834.37
579.89	2109.61
580.09	1691.01
580.29	1714.56
580.49	1818.80
580.69	1750.60
580.89	1838.67
581.09	1834.78
581.29	1843.99
581.49	1872.05
581.69	1740.36
581.89	1790.54
582.09	1771.90
582.28	1788.70
582.48	1943.32
582.68	2010.08
582.88	2063.33
583.08	1844.40
583.28	1849.32
583.48	1867.95
583.68	1815.11
583.88	1901.74
584.08	1869.59
584.28	1886.18
584.48	2136.03
584.68	1958.27
584.88	1844.81
585.08	1991.85
585.28	2011.92
585.48	2039.37
585.68	1929.19
585.87	1940.04
586.07	1955.40
586.27	1888.43
586.47	1909.12
586.67	1868.98
586.87	1886.18
587.07	1832.73
587.27	1743.03
587.47	1873.28
587.67	2138.08
587.87	2250.31
588.07	1935.54
588.27	1851.77
588.46	2010.90
588.66	2021.55
588.86	1891.09
589.06	1958.47
589.26	2012.95
589.46	1995.95
589.66	1802.62
589.86	1750.40
590.06	1840.10
590.26	1974.65
590.46	1812.45
590.66	1962.16
590.85	1822.69
591.05	1947.21
591.25	1761.05
591.45	1873.69
591.65	1987.14
591.85	1883.93
592.05	1845.63
592.25	1936.35
592.45	2042.64
592.64	1866.93
592.84	1896.62
593.04	1790.54
593.24	2230.65
593.44	1859.15
593.64	1960.93
593.84	1956.83
594.04	1860.17
594.24	2076.44
594.43	1831.50
594.63	1861.40
594.83	2034.25
595.03	1994.11
595.23	1794.43
595.43	1709.85
595.63	1812.25
595.83	2002.50
596.02	1678.52
596.22	1902.97
596.42	1937.38
596.62	1905.43
596.82	1828.02
597.02	1941.68
597.22	2068.86
597.41	1916.69
597.61	1790.13
597.81	1922.22
598.01	1990.22
598.21	1821.87
598.41	1813.89
598.61	1750.60
598.80	1888.84
599.00	1920.38
599.20	1990.83
599.40	1844.40
599.60	1858.33
599.80	1974.45
599.99	2014.79
600.19	1873.28
600.39	1893.35
600.59	1941.47
600.79	1901.54
600.99	1920.38
601.19	2076.03
601.38	2142.58
601.58	1906.45
601.78	1673.60
601.98	1940.25
602.18	1988.37
602.37	2218.77
602.57	2006.80
602.77	2122.31
602.97	2065.17
603.17	2131.53
603.37	2041.42
603.56	2124.56
603.76	2096.71
603.96	2033.22
604.16	2073.77
604.36	2135.21
604.56	2078.48
604.75	1809.79
604.95	1904.00
605.15	2100.19
605.35	2029.54
605.55	1867.54
605.74	1795.45
605.94	2043.46
606.14	1930.42
606.34	1886.38
606.54	1900.31
606.73	1853.62
606.93	1991.44
607.13	1810.81
607.33	1898.67
607.53	2094.25
607.72	2039.57
607.92	1957.45
608.12	1974.86
608.32	1862.83
608.51	1969.12
608.71	1817.98
608.91	1909.94
609.11	2020.32
609.31	1868.98
609.50	1928.16
609.70	2060.05
609.90	2036.09
610.10	1991.24
610.29	1861.40
610.49	1779.07
610.69	2032.81
610.89	1925.09
611.09	1888.02
611.28	1997.38
611.48	2010.70
611.68	1857.71
611.88	1807.13
612.07	1760.23
612.27	2014.59
612.47	1827.61
612.67	1918.54
612.86	2019.71
613.06	1934.31
613.26	1719.47
613.46	1825.15
613.65	1857.30
613.85	2243.34
614.05	2022.78
614.25	1943.32
614.44	1873.69
614.64	1899.49
614.84	1848.50
615.04	1796.27
615.23	1850.34
615.43	1959.09
615.63	1995.54
615.83	1770.47
616.02	1723.16
616.22	1990.22
616.42	1784.60
616.62	1783.58
616.81	1873.48
617.01	1929.19
617.21	1904.82
617.41	1802.21
617.60	1894.78
617.80	1957.04
618.00	1965.64
618.19	1931.23
618.39	1933.69
618.59	1958.47
618.79	1892.12
618.98	1721.73
619.18	1855.87
619.38	2162.86
619.57	1865.49
619.77	1879.42
619.97	1878.19
620.17	1824.54
620.36	1757.36
620.56	1995.95
620.76	1742.41
620.95	1764.53
621.15	1844.61
621.35	1757.16
621.54	1836.21
621.74	1892.94
621.94	1818.80
622.14	1777.43
622.33	1729.10
622.53	1858.74
622.73	1875.32
622.92	1754.29
623.12	1870.82
623.32	2135.21
623.51	1957.65
623.71	1722.34
623.91	2021.14
624.10	1754.70
624.30	1910.96
624.50	1741.18
624.69	1739.95
624.89	2364.79
625.09	1846.04
625.29	1678.52
625.48	1739.95
625.68	1910.14
625.88	2025.65
626.07	1910.35
626.27	1767.81
626.47	1832.52
626.66	1717.63
626.86	1842.97
627.06	1842.15
627.25	1872.05
627.45	2088.93
627.64	1852.39
627.84	2026.87
628.04	1792.38
628.23	2132.55
628.43	1768.01
628.63	1801.39
628.82	1837.85
629.02	2107.36
629.22	1955.81
629.41	2038.34
629.61	1899.08
629.81	2125.79
630.00	1782.35
630.20	1728.28
630.40	1906.04
630.59	1947.41
630.79	1879.22
630.98	1836.00
631.18	1871.23
631.38	1891.50
631.57	1989.81
631.77	1717.02
631.97	1891.50
632.16	1941.88
632.36	1888.02
632.56	1875.73
632.75	1932.67
632.95	2010.90
633.14	1778.87
633.34	2019.09
633.54	1665.41
633.73	1830.06
633.93	1848.50
634.12	1690.80
634.32	2184.77
634.52	1874.92
634.71	1737.70
634.91	1928.78
635.11	1766.37
635.30	1799.96
635.50	1911.78
635.69	1749.37
635.89	2111.46
636.09	2007.01
636.28	1765.96
636.48	1771.49
636.67	1951.10
636.87	1973.01
637.07	1923.25
637.26	1798.94
637.46	1896.83
637.65	2029.54
637.85	1890.89
638.04	1805.49
638.24	1840.92
638.44	1943.32
638.63	1848.50
638.83	1825.97
639.02	1927.14
639.22	1940.25
639.42	1853.21
639.61	1852.80
639.81	1879.01
640.00	1863.86
640.20	1941.27
640.39	1928.57
640.59	2136.03
640.79	2014.59
640.98	1936.15
641.18	1868.57
641.37	1871.02
641.57	1811.22
641.76	1891.09
641.96	1653.53
642.15	1919.77
642.35	1821.05
642.55	1888.43
642.74	1731.56
642.94	1997.38
643.13	2044.08
643.33	1829.86
643.52	1825.97
643.72	1813.89
643.91	1868.57
644.11	1817.16
644.31	1773.75
644.50	1796.89
644.70	2015.61
644.89	1857.30
645.09	1918.54
645.28	1897.65
645.48	1950.49
645.67	1762.48
645.87	1655.58
646.06	1849.93
646.26	1919.56
646.45	1643.90
646.65	1650.46
646.84	2113.91
647.04	1859.97
647.24	1719.88
647.43	1861.81
647.63	1900.52
647.82	2047.15
648.02	1724.59
648.21	1773.13
648.41	2029.95
648.60	1836.00
648.80	1959.70
648.99	1882.49
649.19	1801.80
649.38	1696.33
649.58	1892.12
649.77	1898.88
649.97	2000.46
650.16	1951.30
650.36	1668.89
650.55	1963.18
650.75	1907.27
650.94	2096.92
651.14	1851.36
651.33	1901.54
651.53	2087.49
651.72	1785.62
651.92	1847.47
652.11	1689.98
652.31	1954.38
652.50	1918.13
652.70	1912.60
652.89	1719.06
653.09	2059.44
653.28	1864.27
653.48	1700.43
653.67	1692.44
653.87	2282.46
654.06	1935.13
654.25	2025.65
654.45	1773.34
654.64	1839.49
654.84	1828.22
655.03	1653.12
655.23	1945.37
655.42	1960.32
655.62	2072.95
655.81	1871.64
656.01	1766.17
656.20	1985.10
656.40	2086.88
656.59	1873.69
656.79	2006.19
656.98	1910.75
657.17	1993.29
657.37	1889.46
657.56	1809.79
657.76	1923.45
657.95	2020.73
658.15	1569.56
658.34	1856.48
658.54	1874.30
658.73	1760.02
658.92	1802.62
659.12	1890.48
659.31	1950.28
659.51	1778.46
659.70	1934.31
659.90	1839.28
660.09	2007.42
660.29	1866.93
660.48	1762.89
660.67	1993.90
660.87	1799.55
661.06	1926.32
661.26	1961.95
661.45	1942.29
661.65	1952.53
661.84	1788.08
662.03	1823.10
662.23	1837.44
662.42	2140.95
662.62	1747.53
662.81	1768.83
663.00	1820.03
663.20	1895.60
663.39	1934.92
663.59	1955.61
663.78	1824.13
663.97	1844.40
664.17	1987.76
664.36	1693.06
664.56	1751.22
664.75	1980.18
664.94	1931.03
665.14	1872.87
665.33	1822.90
665.53	1863.45
665.72	1849.32
665.91	1950.90
666.11	1850.75
666.30	1870.00
666.50	1855.66
666.69	1898.06
666.88	1850.34
667.08	1899.08
667.27	1840.30
667.47	1854.03
667.66	1802.42
667.85	1995.75
668.05	1861.40
668.24	1763.92
668.43	2004.76
668.63	1811.63
668.82	1999.84
669.02	1924.89
669.21	1854.85
669.40	1738.32
669.60	2122.51
669.79	1720.70
669.98	2321.17
670.18	1803.44
670.37	1744.05
670.56	1817.16
670.76	1888.84
670.95	1863.65
671.15	1983.66
671.34	1909.73
671.53	1856.07
671.73	1837.85
671.92	1811.84
672.11	1752.24
672.31	1836.82
672.50	1917.31
672.69	1746.10
672.89	1647.80
673.08	1842.56
673.27	1966.87
673.47	1907.89
673.66	1903.18
673.85	1747.74
674.05	1905.63
674.24	1914.24
674.43	1794.23
674.63	2003.12
674.82	2249.49
675.01	1704.32
675.21	2018.27
675.40	1901.54
675.59	1889.05
675.79	2129.89
675.98	1841.74
676.17	1971.37
676.37	1951.71
676.56	1868.36
676.75	1898.88
676.95	1884.13
677.14	1866.11
677.33	2025.03
677.52	1751.01
677.72	1824.33
677.91	1922.02
678.10	1738.73
678.30	1761.25
678.49	1739.14
678.68	2171.87
678.88	1669.30
679.07	2000.46
679.26	1830.68
679.45	2092.41
679.65	2039.78
679.84	1664.79
680.03	1709.44
680.23	1828.22
680.42	2206.69
680.61	1746.10
680.81	1830.88
681.00	1881.47
681.19	1926.52
681.38	1965.03
681.58	1944.55
681.77	1823.72
681.96	1960.73
682.15	1796.27
682.35	1895.60
682.54	1933.28
682.73	1766.17
682.93	1759.21
683.12	1770.26
683.31	1995.13
683.50	2206.48
683.70	1795.66
683.89	1863.45
684.08	1760.84
684.27	2018.89
684.47	1687.73
684.66	1867.95
684.85	2119.65
685.04	1986.12
685.24	1775.18
685.43	1837.03
685.62	1658.65
685.81	1904.41
686.01	1862.42
686.20	1792.38
686.39	1755.52
686.58	2179.45
686.78	1933.08
686.97	1947.41
687.16	2041.21
687.35	1952.94
687.55	1851.57
687.74	1880.04
687.93	1758.59
688.12	1876.14
688.32	1864.47
688.51	1693.06
688.70	1942.29
688.89	1746.51
689.08	1715.79
689.28	1791.15
689.47	1874.92
689.66	1868.98
689.85	1931.03
690.05	1769.04
690.24	1809.38
690.43	1907.27
690.62	1910.75
690.81	1813.07
691.01	1898.26
691.20	1833.55
691.39	1757.36
691.58	1931.03
691.77	2092.41
691.97	1893.55
692.16	1901.74
692.35	1829.45
692.54	1806.31
692.73	1952.12
692.93	1863.24
693.12	1890.07
693.31	1919.56
693.50	1904.61
693.69	1979.77
693.89	1841.12
694.08	2043.67
694.27	2056.37
694.46	1763.10
694.65	1884.34
694.85	1960.32
695.04	1944.75
695.23	1827.61
695.42	2011.92
695.61	2074.59
695.80	2206.28
696.00	2295.57
696.19	2317.89
696.38	2062.51
696.57	2146.68
696.76	2123.74
696.95	1988.17
697.15	2196.65
697.34	2162.45
697.53	1913.42
697.72	1971.17
697.91	1899.90
698.10	2103.67
698.30	1830.47
698.49	1852.80
698.68	1939.63
698.87	1843.38
699.06	1746.51
699.25	1855.46
699.45	2008.03
699.64	1919.36
699.83	1963.80
700.02	1766.78
700.21	1941.47
700.40	1813.89
700.59	1824.54
700.79	1835.59
700.98	1920.59
701.17	1811.63
701.36	1802.01
701.55	1789.92
701.74	2013.15
701.93	1748.15
702.12	1913.83
702.32	1804.06
702.51	2034.45
702.70	1996.56
702.89	1876.76
703.08	1833.75
703.27	2067.63
703.46	1957.45
703.65	1864.47
703.85	1744.05
704.04	1814.09
704.23	2029.95
704.42	1780.50
704.61	1838.46
704.80	2084.01
704.99	1791.77
705.18	1896.21
705.37	1817.98
705.57	1970.56
705.76	2130.50
705.95	1976.49
706.14	2281.44
706.33	2373.39
706.52	2562.42
706.71	2148.52
706.90	2007.62
707.09	2116.78
707.28	2026.87
707.47	1863.04
707.67	2025.24
707.86	1868.77
708.05	2053.50
708.24	1927.34
708.43	1932.67
708.62	1848.09
708.81	1777.23
709.00	1735.86
709.19	1772.31
709.38	1986.73
709.57	1763.10
709.76	1912.19
709.96	1800.78
710.15	2084.63
710.34	1897.85
710.53	1954.38
710.72	1867.34
710.91	2032.20
711.10	1963.18
711.29	1949.67
711.48	1807.54
711.67	1745.48
711.86	1923.86
712.05	1736.47
712.24	1790.95
712.43	1940.86
712.62	2057.80
712.81	1867.54
713.00	1988.99
713.19	1740.16
713.39	1928.37
713.58	1714.97
713.77	1867.75
713.96	1961.34
714.15	1869.18
714.34	1821.87
714.53	1745.48
714.72	2121.08
714.91	1755.93
715.10	1848.09
715.29	1701.86
715.48	2233.51
715.67	1939.84
715.86	1887.41
716.05	1856.28
716.24	1833.34
716.43	1812.04
716.62	1752.86
716.81	1717.84
717.00	1848.09
717.19	2075.41
717.38	1887.20
717.57	1830.88
717.76	1689.78
717.95	1986.12
718.14	1873.48
718.33	1840.10
718.52	1680.77
718.71	1685.89
718.90	1730.53
719.09	1824.54
719.28	1902.36
719.47	2002.71
719.66	1934.31
719.85	1917.92
720.04	1842.35
720.23	1892.94
720.42	1782.96
720.61	1897.44
720.80	1710.87
720.99	1912.60
721.18	1794.84
721.37	1801.39
721.56	1818.39
721.75	1949.26
721.94	1773.75
722.13	1837.64
722.32	1835.59
722.51	1964.82
722.70	1854.03
722.89	1907.48
723.08	1864.88
723.27	1990.22
723.46	1885.77
723.65	1836.41
723.84	1801.19
724.03	2046.33
724.22	1738.52
724.41	1895.80
724.60	1795.66
724.79	1986.73
724.98	1904.41
725.16	1815.52
725.35	1962.98
725.54	1748.15
725.73	1861.60
725.92	1849.52
726.11	1862.42
726.30	1983.66
726.49	1795.04
726.68	1857.71
726.87	1947.82
727.06	2074.59
727.25	1838.87
727.44	1973.42
727.63	1916.90
727.82	1845.42
728.01	1905.63
728.20	1955.81
728.38	2069.27
728.57	1882.90
728.76	1877.37
728.95	1951.92
729.14	1731.15
729.33	1757.36
729.52	1649.84
729.71	1791.56
729.90	1765.35
730.09	1803.44
730.28	1840.51
730.47	1787.88
730.66	2041.01
730.84	1908.71
731.03	1862.42
731.22	1911.98
731.41	1897.24
731.60	1924.48
731.79	1677.70
731.98	1786.44
732.17	1957.04
732.36	1898.26
732.55	1783.17
732.73	1750.19
732.92	2009.26
733.11	1938.61
733.30	1797.09
733.49	1696.95
733.68	1962.36
733.87	1910.55
734.06	1764.33
734.25	1729.10
734.43	1785.42
734.62	1941.47
734.81	1863.24
735.00	1850.54
735.19	1862.01
735.38	1936.35
735.57	1738.11
735.76	1920.59
735.94	1953.97
736.13	2190.51
736.32	1991.85
736.51	1966.87
736.70	2213.04
736.89	2227.58
737.08	2101.63
737.27	2219.38
737.45	2464.53
737.64	2393.67
737.83	2533.54
738.02	2449.37
738.21	2510.60
738.40	2494.02
738.59	2199.11
738.77	2225.12
738.96	2042.85
739.15	2088.31
739.34	2152.82
739.53	2053.09
739.72	2161.22
739.90	2106.13
740.09	1870.61
740.28	1922.63
740.47	1991.44
740.66	1967.48
740.85	1779.28
741.03	1868.36
741.22	1781.12
741.41	1844.81
741.60	1711.49
741.79	1893.76
741.98	2036.09
742.16	2100.81
742.35	1905.63
742.54	1859.56
742.73	2142.38
742.92	1870.00
743.10	1708.62
743.29	1791.15
743.48	2176.58
743.67	1819.62
743.86	1714.97
744.05	1715.17
744.23	1742.00
744.42	1756.54
744.61	1823.72
744.80	1746.10
744.99	1805.28
745.17	1671.35
745.36	1689.37
745.55	1912.19
745.74	1839.08
745.93	1786.44
746.11	1785.01
746.30	1739.34
746.49	1991.24
746.68	1761.25
746.86	1832.73
747.05	1830.47
747.24	1944.96
747.43	1958.06
747.62	1723.37
747.80	1800.37
747.99	2020.53
748.18	1957.45
748.37	1911.78
748.56	1919.77
748.74	1987.76
748.93	1902.97
749.12	2055.34
749.31	2541.32
749.49	2876.78
749.68	3136.26
749.87	3371.16
750.06	3375.26
750.24	3342.28
750.43	3233.95
750.62	3287.19
750.81	3375.05
750.99	3530.49
751.18	3465.16
751.37	3073.18
751.56	2947.85
751.74	3139.54
751.93	3090.59
752.12	2455.92
752.31	2362.54
752.49	2278.77
752.68	2413.12
752.87	2173.51
753.06	2067.22
753.24	2019.71
753.43	2152.62
753.62	1900.92
753.81	1869.59
753.99	2085.65
754.18	1931.23
754.37	1765.76
754.55	1892.94
754.74	2094.05
754.93	1671.76
755.12	1796.07
755.30	1762.07
755.49	2002.30
755.68	1900.52
755.86	1916.49
756.05	1755.52
756.24	2060.46
756.43	1735.86
756.61	1749.37
756.80	1874.30
756.99	2032.20
757.17	1858.33
757.36	1751.22
757.55	1823.10
757.74	1902.77
757.92	1881.06
758.11	1707.60
758.30	1653.33
758.48	1828.63
758.67	1707.60
758.86	1846.65
759.04	1720.70
759.23	1817.37
759.42	1824.33
759.60	1763.30
759.79	1872.87
759.98	1829.86
760.16	1748.15
760.35	1765.35
760.54	1721.93
760.73	1879.22
760.91	1706.98
761.10	1856.69
761.29	1898.67
761.47	1854.03
761.66	2134.19
761.85	1869.18
762.03	1939.22
762.22	2152.01
762.41	2703.32
762.59	3245.62
762.78	3514.72
762.97	4166.18
763.15	4229.67
763.34	3894.62
763.52	3300.92
763.71	3229.03
763.90	3203.84
764.08	2905.04
764.27	2865.93
764.46	2908.73
764.64	2585.77
764.83	2487.87
765.02	2457.56
765.20	2339.80
765.39	2286.76
765.58	1971.17
765.76	2053.50
765.95	2007.42
766.13	1970.56
766.32	1867.75
766.51	1886.18
766.69	2444.66
766.88	1921.61
767.07	1736.06
767.25	1660.29
767.44	1989.60
767.62	2011.51
767.81	1781.53
768.00	1850.75
768.18	1859.15
768.37	1780.71
768.56	1686.91
768.74	1778.87
768.93	1688.35
769.11	1928.16
769.30	1877.58
769.49	1766.58
769.67	1816.14
769.86	1783.78
770.04	1830.06
770.23	1813.89
770.42	2019.09
770.60	1864.06
770.79	1741.80
770.97	1774.56
771.16	2063.12
771.35	2076.23
771.53	2132.75
771.72	2214.26
771.90	2377.28
772.09	2587.20
772.27	2475.18
772.46	2193.37
772.65	2337.35
772.83	2212.63
773.02	2200.13
773.20	2040.60
773.39	2180.47
773.58	2154.26
773.76	1894.99
773.95	1942.50
774.13	2003.73
774.32	1920.59
774.50	1816.96
774.69	1888.43
774.87	1852.59
775.06	2160.61
775.25	1783.78
775.43	1847.47
775.62	1909.12
775.80	1936.76
775.99	1907.07
776.17	1761.05
776.36	1837.23
776.54	1951.51
776.73	1730.74
776.92	1812.45
777.10	1916.90
777.29	1848.29
777.47	1715.17
777.66	1762.69
777.84	1850.95
778.03	1798.12
778.21	1739.95
778.40	1837.85
778.58	1898.26
778.77	1964.62
778.95	1703.30
779.14	1767.19
779.32	2086.88
779.51	1956.42
779.70	1818.19
779.88	1709.03
780.07	1832.11
780.25	2203.61
780.44	1830.47
780.62	1970.56
780.81	1921.61
780.99	1913.01
781.18	1791.15
781.36	1814.71
781.55	1882.08
781.73	2068.04
781.92	1763.71
782.10	1716.20
782.29	1910.75
782.47	2081.15
782.66	1867.95
782.84	1723.98
783.03	1765.14
783.21	2001.07
783.40	1826.99
783.58	1781.32
783.77	1795.45
783.95	1827.61
784.14	1749.17
784.32	1842.76
784.51	2012.33
784.69	1773.75
784.88	1703.50
785.06	1844.61
785.24	1704.93
785.43	1987.96
785.61	1901.13
785.80	1737.91
785.98	1956.01
786.17	1870.61
786.35	1754.70
786.54	1859.97
786.72	1979.57
786.91	1996.36
787.09	1820.64
787.28	1729.92
787.46	1874.30
787.65	1973.83
787.83	1736.88
788.01	1850.13
788.20	1698.59
788.38	1842.97
788.57	1770.06
788.75	1820.85
788.94	2103.47
789.12	2031.99
789.31	1851.36
789.49	1948.23
789.67	1796.27
789.86	1884.34
790.04	1751.01
790.23	1670.94
790.41	2116.17
790.60	1821.26
790.78	1811.02
790.96	1835.80
791.15	1946.59
791.33	1837.03
791.52	1838.05
791.70	1753.47
791.89	1866.52
792.07	1967.28
792.25	1827.61
792.44	1690.60
792.62	1980.59
792.81	1793.61
792.99	1863.86
793.17	1771.90
793.36	1761.05
793.54	2113.30
793.73	2063.94
793.91	2032.61
794.10	2357.83
794.28	2456.74
794.46	2249.49
794.65	2287.79
794.83	2104.90
795.01	2136.03
795.20	2247.44
795.38	2111.46
795.57	2155.08
795.75	2132.35
795.93	1976.29
796.12	2020.73
796.30	2076.85
796.49	2047.56
796.67	1843.79
796.85	1980.80
797.04	1926.73
797.22	1961.54
797.40	1723.16
797.59	1894.78
797.77	1884.75
797.96	1769.85
798.14	1769.85
798.32	1802.83
798.51	1949.26
798.69	2087.08
798.87	1846.04
799.06	1802.01
799.24	1692.24
799.42	2000.87
799.61	1962.77
799.79	2010.90
799.98	2356.60
800.16	2091.18
800.34	2280.62
800.53	2464.73
800.71	2485.62
800.89	2882.52
801.08	2755.34
801.26	2719.50
801.44	2512.86
801.63	2326.29
801.81	2308.06
801.99	2278.77
802.18	2209.96
802.36	2245.19
802.54	2190.71
802.73	1982.84
802.91	2058.00
803.09	2061.08
803.28	2060.05
803.46	2034.66
803.64	2153.03
803.83	1778.25
804.01	1778.87
804.19	1750.40
804.38	1981.41
804.56	1930.82
804.74	1860.78
804.92	1879.42
805.11	1739.75
805.29	2006.60
805.47	1776.41
805.66	1696.95
805.84	1695.92
806.02	1976.49
806.21	1812.04
806.39	1919.77
806.57	1976.70
806.76	1969.94
806.94	1851.57
807.12	1764.73
807.30	1774.77
807.49	1870.41
807.67	1840.51
807.85	1940.25
808.04	1931.85
808.22	2168.80
808.40	1732.99
808.58	1730.33
808.77	1916.08
808.95	2030.77
809.13	1865.49
809.31	2247.65
809.50	2459.61
809.68	2656.22
809.86	2535.59
810.05	2661.95
810.23	3082.40
810.41	3445.71
810.59	4948.10
810.78	5806.81
810.96	6553.91
811.14	6996.89
811.32	6653.03
811.51	5701.54
811.69	4962.02
811.87	4951.99
812.05	4453.51
812.24	4306.47
812.42	4150.62
812.60	3984.94
812.78	3379.56
812.97	3116.80
813.15	3230.47
813.33	2894.19
813.51	2710.69
813.70	2362.33
813.88	2232.70
814.06	2210.99
814.24	2093.64
814.42	1850.75
814.61	1967.28
814.79	2160.81
814.97	1759.61
815.15	1813.07
815.34	1899.49
815.52	1986.12
815.70	1760.84
815.88	1807.13
816.06	1777.43
816.25	1818.19
816.43	1763.30
816.61	1915.67
816.79	2029.33
816.98	1687.94
817.16	1761.46
817.34	1732.38
817.52	1901.33
817.70	2055.14
817.89	1808.15
818.07	1739.34
818.25	1852.18
818.43	1894.78
818.61	1831.70
818.80	1802.83
818.98	2080.53
819.16	1901.54
819.34	1726.03
819.52	2056.78
819.70	1766.58
819.89	1860.58
820.07	1706.78
820.25	1697.36
820.43	1919.36
820.61	1948.44
820.80	1832.52
820.98	1752.86
821.16	1687.53
821.34	1726.64
821.52	1822.28
821.70	1868.77
821.89	1844.20
822.07	1830.06
822.25	1827.81
822.43	1742.41
822.61	2057.18
822.79	1902.36
822.98	1820.23
823.16	1661.52
823.34	1923.25
823.52	2033.84
823.70	1941.68
823.88	1679.74
824.06	1935.54
824.25	1843.17
824.43	1919.15
824.61	1732.79
824.79	1858.33
824.97	1908.30
825.15	1952.53
825.33	2060.87
825.52	2150.37
825.70	2091.80
825.88	2067.63
826.06	2169.21
826.24	2166.34
826.42	2174.74
826.60	2096.51
826.78	2104.70
826.97	1988.78
827.15	2155.08
827.33	1861.81
827.51	1985.30
827.69	1873.89
827.87	2000.87
828.05	1966.46
828.23	1804.87
828.41	2025.85
828.60	1984.48
828.78	1724.39
828.96	1877.37
829.14	1822.28
829.32	1826.58
829.50	1817.16
829.68	1800.78
829.86	1806.10
830.04	1940.04
830.22	1877.99
830.41	1726.64
830.59	1844.20
830.77	1951.51
830.95	1775.79
831.13	1751.01
831.31	1765.96
831.49	1985.10
831.67	1973.42
831.85	1943.32
832.03	1821.26
832.21	1959.29
832.39	1715.38
832.57	1734.63
832.76	1980.18
832.94	1820.64
833.12	1672.37
833.30	1826.17
833.48	2017.86
833.66	1914.03
833.84	1769.85
834.02	1837.23
834.20	1975.27
834.38	1949.05
834.56	1687.73
834.74	1731.35
834.92	1682.61
835.10	2075.62
835.28	1891.09
835.46	1823.92
835.64	1845.02
835.82	1772.93
836.01	2021.14
836.19	1969.74
836.37	1799.35
836.55	1726.64
836.73	1757.16
836.91	1711.90
837.09	1948.64
837.27	2042.64
837.45	1698.59
837.63	1731.56
837.81	1738.32
837.99	1878.40
838.17	1827.81
838.35	1751.83
838.53	2152.62
838.71	1930.01
838.89	1790.54
839.07	1790.95
839.25	1871.84
839.43	1965.44
839.61	1809.18
839.79	2180.88
839.97	2261.78
840.15	2388.14
840.33	2373.19
840.51	2602.15
840.69	2425.61
840.87	2307.45
841.05	2297.21
841.23	2225.73
841.41	2444.87
841.59	2887.43
841.77	2970.17
841.95	3070.52
842.13	3396.15
842.31	3145.68
842.49	2814.52
842.67	2741.21
842.85	2744.48
843.03	2466.98
843.21	2436.67
843.39	2512.86
843.57	2372.98
843.75	2332.43
843.93	2198.29
844.11	2123.33
844.29	2101.63
844.47	2024.62
844.65	2146.07
844.83	1916.49
845.01	1942.70
845.19	2037.93
845.36	1878.81
845.54	1963.59
845.72	1943.52
845.90	1945.98
846.08	1752.24
846.26	1828.84
846.44	1982.64
846.62	1940.04
846.80	1872.25
846.98	1771.29
847.16	1833.75
847.34	1919.56
847.52	1737.50
847.70	1751.63
847.88	1840.10
848.06	2054.73
848.24	1895.19
848.41	1704.93
848.59	2002.09
848.77	1924.48
848.95	1787.67
849.13	1779.48
849.31	1996.36
849.49	1929.60
849.67	1740.57
849.85	1732.58
850.03	1920.99
850.21	1897.24
850.39	1771.49
850.57	1922.84
850.74	2037.93
850.92	2044.28
851.10	1935.33
851.28	1954.99
851.46	2081.97
851.64	2350.25
851.82	2077.05
852.00	2119.24
852.18	2279.18
852.36	2175.97
852.53	1965.03
852.71	2049.40
852.89	2062.92
853.07	2036.09
853.25	1865.49
853.43	1817.78
853.61	1944.75
853.79	1986.73
853.97	1797.09
854.14	1781.73
854.32	2070.91
854.50	2000.66
854.68	1829.66
854.86	1812.45
855.04	1817.57
855.22	1968.51
855.40	1739.75
855.57	1778.87
855.75	1969.74
855.93	1935.54
856.11	1669.09
856.29	1747.74
856.47	1790.13
856.65	1913.01
856.82	1781.12
857.00	1713.13
857.18	1851.98
857.36	1801.80
857.54	1859.76
857.72	1947.00
857.89	1951.51
858.07	1897.65
858.25	1994.11
858.43	1708.62
858.61	1824.74
858.79	1882.49
858.97	1755.72
859.14	1891.09
859.32	1868.16
859.50	1842.15
859.68	1883.11
859.86	1773.13
860.03	1890.68
860.21	1948.44
860.39	1781.53
860.57	1887.61
860.75	1897.65
860.93	2104.29
861.10	1967.48
861.28	1768.01
861.46	1913.21
861.64	1925.91
861.82	1819.42
861.99	1909.32
862.17	2000.46
862.35	2012.54
862.53	1855.25
862.71	1828.43
862.88	1917.92
863.06	1967.89
863.24	1810.20
863.42	1772.31
863.60	1836.82
863.77	1936.97
863.95	1654.96
864.13	1855.46
864.31	1858.33
864.49	1989.81
864.66	1721.32
864.84	1799.96
865.02	1892.12
865.20	2221.02
865.37	1876.55
865.55	1792.38
865.73	1731.15
865.91	1934.10
866.09	1908.30
866.26	1877.37
866.44	1966.05
866.62	1856.28
866.80	1742.00
866.97	1889.87
867.15	1829.66
867.33	1914.24
867.51	1864.88
867.68	1830.06
867.86	1812.04
868.04	1790.13
868.22	1669.50
868.39	1789.52
868.57	1903.18
868.75	2033.84
868.93	1678.52
869.10	1748.97
869.28	2107.36
869.46	2007.01
869.64	1844.81
869.81	1835.39
869.99	1896.01
870.17	1891.71
870.35	1754.90
870.52	1754.90
870.70	2012.54
870.88	1812.86
871.05	1731.35
871.23	1623.02
871.41	1894.78
871.59	1864.47
871.76	1796.48
871.94	1775.38
872.12	1878.40
872.29	1715.17
872.47	1777.02
872.65	1738.32
872.83	1898.88
873.00	2064.15
873.18	1804.47
873.36	1774.16
873.53	1964.41
873.71	1693.26
873.89	1758.18
874.06	1827.61
874.24	1919.36
874.42	2006.80
874.60	1942.70
874.77	1877.37
874.95	1783.78
875.13	1994.93
875.30	1762.69
875.48	1785.83
875.66	2054.11
875.83	1773.95
876.01	1829.66
876.19	1909.53
876.36	1734.22
876.54	1880.85
876.72	1742.21
876.89	1893.14
877.07	1966.87
877.25	1657.63
877.42	1863.65
877.60	1838.05
877.78	2081.97
877.95	1829.66
878.13	1778.05
878.31	1901.95
878.48	1977.72
878.66	1930.42
878.84	1798.94
879.01	1823.92
879.19	1915.26
879.37	1957.86
879.54	1790.54
879.72	1708.42
879.90	1648.82
880.07	1969.74
880.25	1592.30
880.42	1921.81
880.60	1902.77
880.78	1962.77
880.95	1815.32
881.13	1837.23
881.31	1869.39
881.48	1792.18
881.66	1765.14
881.83	1878.40
882.01	1795.45
882.19	1718.45
882.36	1849.52
882.54	1823.51
882.72	1965.23
882.89	1870.82
883.07	1712.31
883.24	1802.21
883.42	1958.06
883.60	1861.40
883.77	1746.92
883.95	1783.17
884.12	1968.10
884.30	1893.35
884.48	1920.38
884.65	1824.94
884.83	1904.20
885.00	1904.61
885.18	1706.37
885.36	1795.04
885.53	1915.87
885.71	2015.00
885.88	1714.15
886.06	1784.80
886.23	1931.03
886.41	1827.61
886.59	1795.66
886.76	1780.91
886.94	1941.68
887.11	2223.07
887.29	1814.09
887.47	1698.79
887.64	2005.17
887.82	2035.89
887.99	1691.21
888.17	1880.44
888.34	1853.00
888.52	1730.94
888.69	1862.01
888.87	1733.40
889.05	1807.33
889.22	1831.91
889.40	1800.98
889.57	1929.80
889.75	2061.28
889.92	1854.23
890.10	1751.63
890.27	1807.95
890.45	1823.31
890.62	1644.31
890.80	1738.11
890.98	1690.80
891.15	2049.61
891.33	1994.11
891.50	1775.38
891.68	1698.59
891.85	1967.89
892.03	1974.86
892.20	1776.82
892.38	1706.37
892.55	1958.88
892.73	1971.99
892.90	1738.52
893.08	1789.31
893.25	1778.46
893.43	1827.20
893.60	1913.21
893.78	1665.00
893.95	1926.11
894.13	1839.69
894.30	1748.35
894.48	1822.28
894.65	1963.18
894.83	1896.42
895.00	1656.60
895.18	1659.88
895.35	1966.66
895.53	1946.80
895.70	1715.79
895.88	1869.39
896.05	1937.99
896.23	1703.30
896.40	1770.06
896.58	1845.63
896.75	1975.88
896.93	2046.94
897.10	1770.06
897.28	1689.98
897.45	1897.85
897.63	1948.85
897.80	1914.44
897.98	1828.22
898.15	1885.97
898.33	1767.60
898.50	1875.53
898.67	1823.31
898.85	1809.18
899.02	1919.56
899.20	1970.76
899.37	1813.27
899.55	1883.93
899.72	2046.13
899.90	1768.01
900.07	1759.00
900.25	1904.41
900.42	1996.97
900.59	1799.35
900.77	1895.40
900.94	1943.52
901.12	1884.13
901.29	1784.40
901.47	1915.87
901.64	1917.31
901.82	1831.50
901.99	1631.21
902.16	1726.64
902.34	1992.26
902.51	1918.95
902.69	1786.03
902.86	1823.72
903.03	2326.08
903.21	1884.13
903.38	1843.17
903.56	1740.36
903.73	1984.28
903.91	1819.83
904.08	1718.86
904.25	1665.00
904.43	1775.38
904.60	1943.32
904.78	1805.49
904.95	1729.10
905.12	1820.03
905.30	2094.66
905.47	1885.36
905.65	1924.68
905.82	1852.39
905.99	1919.97
906.17	1854.23
906.34	1755.31
906.52	1761.05
906.69	1917.10
906.86	1907.48
907.04	1833.75
907.21	1958.88
907.38	1990.42
907.56	1754.70
907.73	1769.65
907.91	2031.18
908.08	2020.53
908.25	1756.95
908.43	1719.88
908.60	1934.10
908.77	1880.24
908.95	1771.08
909.12	1731.56
909.30	1950.69
909.47	1697.56
909.64	1841.94
909.82	1922.02
909.99	1838.26
910.16	1876.35
910.34	1770.26
910.51	1792.18
910.68	1895.19
910.86	1839.69
911.03	1713.54
911.20	1789.52
911.38	2075.82
911.55	2439.95
911.72	2551.77
911.90	2412.30
912.07	2670.35
912.24	2796.50
912.42	2335.09
912.59	2107.36
912.76	2256.86
912.94	2124.56
913.11	1983.87
913.28	1881.47
913.46	1802.42
913.63	2011.92
913.80	2133.16
913.98	1855.46
914.15	2031.59
914.32	2074.18
914.49	1906.04
914.67	1764.53
914.84	1921.81
915.01	1994.11
915.19	1900.92
915.36	1773.13
915.53	2004.35
915.71	1924.89
915.88	1883.11
916.05	1768.63
916.22	1999.23
916.40	1882.49
916.57	1750.81
916.74	1866.52
916.92	2066.20
917.09	1748.35
917.26	1738.11
917.43	1700.22
917.61	1817.16
917.78	1693.87
917.95	1646.98
918.13	1720.29
918.30	2132.35
918.47	1883.72
918.64	1720.70
918.82	1726.23
918.99	1840.71
919.16	2061.69
919.33	1783.99
919.51	1746.30
919.68	1872.46
919.85	2002.50
920.02	1682.20
920.20	1800.98
920.37	2071.32
920.54	1973.42
920.71	1740.57
920.89	1790.95
921.06	2085.04
921.23	1769.04
921.40	1713.54
921.58	1881.06
921.75	2333.46
921.92	1840.10
922.09	1915.06
922.27	1905.84
922.44	1936.35
922.61	1961.75
922.78	1858.12
922.96	1800.78
923.13	1864.88
923.30	1988.37
923.47	1699.81
923.64	1765.96
923.82	1941.47
923.99	1884.95
924.16	1849.11
924.33	1713.13
924.50	1869.80
924.68	2075.21
924.85	1693.87
925.02	1786.44
925.19	1975.27
925.36	1910.14
925.54	1839.28
925.71	1820.85
925.88	2267.51
926.05	1829.04
926.22	1728.49
926.40	1823.51
926.57	1888.23
926.74	1931.64
926.91	1764.53
927.08	1946.18
927.26	2001.68
927.43	1890.68
927.60	1752.24
927.77	1817.98
927.94	2067.42
928.11	1993.90
928.29	1695.51
928.46	1849.93
928.63	1780.91
928.80	1850.54
928.97	1888.84
929.14	1723.57
929.32	2172.28
929.49	1868.77
929.66	1761.25
929.83	1687.94
930.00	1792.38
930.17	1910.96
930.35	1676.47
930.52	1776.61
930.69	2051.86
930.86	1732.58
931.03	1849.32
931.20	1648.61
931.37	1995.95
931.55	1871.43
931.72	1856.69
931.89	1683.23
932.06	1743.44
932.23	2046.54
932.40	1895.80
932.57	1876.35
932.74	2041.42
932.92	1999.23
933.09	1899.29
933.26	1572.84
933.43	1804.67
933.60	1940.66
933.77	1849.11
933.94	1838.87
934.11	1831.91
934.29	1890.07
934.46	1682.82
934.63	1840.92
934.80	1716.40
934.97	1858.12
935.14	1811.02
935.31	1654.14
935.48	1796.89
935.65	1919.15
935.82	1846.86
936.00	1705.34
936.17	2061.89
936.34	1828.22
936.51	1876.96
936.68	1728.49
936.85	1908.09
937.02	1899.49
937.19	1844.40
937.36	1803.03
937.53	1922.43
937.70	1978.54
937.87	1834.16
938.05	1896.62
938.22	1879.01
938.39	1763.71
938.56	1776.61
938.73	1739.75
938.90	1856.69
939.07	1775.18
939.24	1825.56
939.41	1647.18
939.58	1900.92
939.75	1944.34
939.92	1763.10
940.09	1931.23
940.26	1839.49
940.43	1972.40
940.60	1780.71
940.77	1796.89
940.95	1894.78
941.12	1963.59
941.29	1753.06
941.46	1841.33
941.63	2016.02
941.80	2043.46
941.97	1666.64
942.14	1698.18
942.31	1952.33
942.48	1850.54
942.65	1862.63
942.82	1826.38
942.99	1939.84
943.16	1899.70
943.33	1726.64
943.50	1745.48
943.67	1958.06
943.84	2001.48
944.01	1797.50
944.18	1730.33
944.35	2042.03
944.52	1795.45
944.69	1847.68
944.86	1705.34
945.03	1967.48
945.20	2183.95
945.37	1644.31
945.54	1812.04
945.71	2047.76
945.88	2072.54
946.05	1715.79
946.22	1710.87
946.39	2044.49
946.56	1876.35
946.73	1684.66
946.90	1734.22
947.07	1798.53
947.24	1844.81
947.41	1634.28
947.58	1902.56
947.75	1952.74
947.92	1910.55
948.09	1573.45
948.26	1660.29
948.43	1898.47
948.60	2090.36
948.77	1750.40
948.94	1783.37
949.11	1981.20
949.27	1944.34
949.44	1771.49
949.61	1741.80
949.78	1939.43
949.95	1982.84
950.12	1710.46
950.29	1709.85
950.46	1814.09
950.63	1970.35
950.80	1764.12
950.97	1843.17
951.14	1992.47
951.31	1807.13
951.48	1743.23
951.65	1723.57
951.82	2111.66
951.99	1883.31
952.15	1675.03
952.32	1762.28
952.49	1808.56
952.66	1785.83
952.83	1735.86
953.00	1752.65
953.17	1874.71
953.34	1990.42
953.51	1811.63
953.68	1772.72
953.85	2008.44
954.02	2007.42
954.18	1805.69
954.35	1826.17
954.52	1752.04
954.69	1881.67
954.86	1642.68
955.03	1797.50
955.20	1965.23
955.37	1863.24
955.54	1766.78
955.71	1735.04
955.87	1938.81
956.04	2079.10
956.21	1793.00
956.38	1730.53
956.55	1872.25
956.72	2185.59
956.89	1836.62
957.06	1725.82
957.23	1804.67
957.39	2038.14
957.56	1771.49
957.73	1721.52
957.90	1641.04
958.07	2099.78
958.24	1818.60
958.41	1788.49
958.57	1957.45
958.74	1907.68
958.91	1709.44
959.08	1749.99
959.25	1945.78
959.42	1840.92
959.59	1821.46
959.75	1785.62
959.92	2012.33
960.09	1996.56
960.26	1732.58
960.43	1834.78
960.60	1904.20
960.76	1853.62
960.93	1704.32
961.10	1867.54
961.27	1991.44
961.44	1814.30
961.61	1694.90
961.77	1712.72
961.94	1894.78
962.11	1984.69
962.28	1751.01
962.45	1707.39
962.62	1843.38
962.78	1974.24
962.95	1716.20
963.12	1767.40
963.29	1949.46
963.46	2227.17
963.62	1839.69
963.79	1754.29
963.96	2179.45
964.13	1834.78
964.30	1842.97
964.46	1776.00
964.63	1743.23
964.80	2209.14
964.97	1619.94
965.14	1880.04
965.30	1924.27
965.47	1994.93
965.64	1901.54
965.81	1851.77
965.98	2068.24
966.14	1900.11
966.31	1774.36
966.48	1751.42
966.65	2034.86
966.81	1919.97
966.98	1788.29
967.15	1829.25
967.32	1867.75
967.49	1760.23
967.65	1649.23
967.82	1617.08
967.99	1850.54
968.16	1707.19
968.32	1907.68
968.49	1764.73
968.66	1844.61
968.83	2086.68
968.99	1820.44
969.16	1687.12
969.33	2030.77
969.50	1967.89
969.66	1889.46
969.83	1942.91
970.00	1954.58
970.17	1947.82
970.33	1792.79
970.50	1699.20
970.67	2070.50
970.84	2068.45
971.00	1727.87
971.17	1726.44
971.34	1957.65
971.50	1889.66
971.67	1863.65
971.84	1805.08
972.01	1722.34
972.17	1632.03
972.34	1759.41
972.51	1854.64
972.67	2019.71
972.84	1919.77
973.01	1715.79
973.18	1777.84
973.34	1977.11
973.51	1769.85
973.68	1766.58
973.84	1797.71
974.01	1844.20
974.18	2096.51
974.34	1865.09
974.51	1849.73
974.68	1800.16
974.85	2108.59
975.01	1913.83
975.18	1791.36
975.35	1880.24
975.51	1797.30
975.68	1647.80
975.85	1916.28
976.01	1813.48
976.18	2052.27
976.35	1772.72
976.51	1779.48
976.68	2084.83
976.85	2026.87
977.01	1849.32
977.18	1853.62
977.35	1931.64
977.51	1729.51
977.68	1608.88
977.85	1693.26
978.01	1982.43
978.18	1937.17
978.35	1802.83
978.51	1787.88
978.68	1983.46
978.85	2047.56
979.01	1768.83
979.18	1818.39
979.34	1847.27
979.51	1869.80
979.68	1726.64
979.84	1835.59
980.01	2170.23
980.18	1877.58
980.34	1753.06
980.51	1835.80
980.67	1967.89
980.84	1952.12
981.01	1809.38
981.17	1846.86
981.34	1687.32
981.51	1958.47
981.67	1726.03
981.84	1878.19
982.00	1938.61
982.17	1849.52
982.34	1672.17
982.50	1581.44
982.67	2079.10
982.83	1803.85
983.00	1715.58
983.17	1594.14
983.33	1975.68
983.50	1686.91
983.66	1686.30
983.83	1602.54
984.00	1800.57
984.16	1884.54
984.33	1610.93
984.49	1604.58
984.66	1781.73
984.83	1987.96
984.99	1662.75
985.16	1590.45
985.32	1951.71
985.49	1974.24
985.65	1738.73
985.82	1610.11
985.99	2045.72
986.15	1890.07
986.32	1705.55
986.48	1664.18
986.65	1819.21
986.81	1950.90
986.98	1612.98
987.14	1668.48
987.31	1888.23
987.48	1680.77
987.64	1559.32
987.81	1575.30
987.97	2133.57
988.14	1776.82
988.30	1636.53
988.47	1525.74
988.63	1898.06
988.80	1743.85
988.96	1680.15
989.13	1718.04
989.30	1849.32
989.46	2003.32
989.63	1585.95
989.79	1595.16
989.96	1853.00
990.12	2055.96
990.29	1644.52
990.45	1689.16
990.62	1871.64
990.78	2034.45
990.95	1754.49
991.11	1646.57
991.28	1824.94
991.44	1926.73
991.61	1544.17
991.77	1695.72
991.94	1897.85
992.10	2015.41
992.27	1718.66
992.43	1653.33
992.60	1912.39
992.76	1825.76
992.93	1787.67
993.09	1606.63
993.26	1974.45
993.42	2111.87
993.59	1649.64
993.75	1561.99
993.92	1779.28
994.08	1775.59
994.25	1718.25
994.41	1583.90
994.58	1968.30
994.74	2037.93
994.91	1632.44
995.07	1724.59
995.24	1837.03
995.40	1859.97
995.56	1794.23
995.73	1726.23
995.89	2092.41
996.06	1843.79
996.22	1603.76
996.39	1559.94
996.55	1865.29
996.72	1929.60
996.88	1582.26
997.05	1639.60
997.21	2111.05
997.37	1928.16
997.54	1689.16
997.70	1686.30
997.87	1911.57
998.03	1841.53
998.20	1552.57
998.36	1580.21
998.52	1955.20
998.69	1973.63
998.85	1579.80
999.02	1655.17
999.18	1973.63
999.35	1983.25
999.51	1676.88
999.67	1664.18
999.84	1761.87
1000.00	1937.17
1000.17	1705.55
1000.33	1628.54
1000.49	1806.10
1000.66	1844.20
1000.82	1649.43
1000.99	1703.50
1001.15	1998.41
1001.31	1832.93
1001.48	1676.26
1001.64	1706.78
1001.81	1845.63
1001.97	2133.16
1002.13	1618.51
1002.30	1661.31
1002.46	2021.14
1002.63	1854.64
1002.79	1726.64
1002.95	1640.01
1003.12	1997.38
1003.28	1926.73
1003.45	1625.68
1003.61	1588.40
1003.77	1903.18
1003.94	1705.55
1004.10	1643.49
1004.26	1711.28
1004.43	1935.13
1004.59	2087.08
1004.75	1655.37
1004.92	1632.44
1005.08	1813.48
1005.25	1893.96
1005.41	1632.44
1005.57	1722.34
1005.74	2010.70
1005.90	1802.01
1006.06	1727.87
1006.23	1631.41
1006.39	1946.59
1006.55	2213.65
1006.72	1811.84
1006.88	1591.48
1007.04	1766.99
1007.21	1861.81
1007.37	1669.09
1007.53	1647.18
1007.70	2046.54
1007.86	1982.23
1008.02	1702.07
1008.19	1595.16
1008.35	1874.92
1008.51	1778.87
1008.68	1637.97
1008.84	1597.62
1009.00	1756.95
1009.17	2020.94
1009.33	1771.90
1009.49	1711.90
1009.65	1794.84
1009.82	1927.34
1009.98	1712.31
1010.14	1578.37
1010.31	1957.24
1010.47	1932.67
1010.63	1727.46
1010.80	1689.57
1010.96	1944.55
1011.12	1862.01
1011.28	1666.23
1011.45	1661.72
1011.61	2217.95
1011.77	1750.19
1011.94	1627.11
1012.10	1573.04
1012.26	1723.37
1012.42	1803.03
1012.59	1684.25
1012.75	1689.78
1012.91	1845.02
1013.07	1969.53
1013.24	1588.61
1013.40	1638.58
1013.56	1892.94
1013.72	1855.25
1013.89	1725.41
1014.05	1720.70
1014.21	2103.88
1014.37	2201.77
1014.54	1689.57
1014.70	1624.65
1014.86	1817.16
1015.02	1748.56
1015.19	1659.06
1015.35	1602.95
1015.51	1846.65
1015.67	1815.32
1015.84	1646.16
1016.00	1644.93
1016.16	2016.43
1016.32	1944.14
1016.49	1624.04
1016.65	1623.83
1016.81	1826.99
1016.97	1922.22
1017.14	1734.63
1017.30	1643.49
1017.46	1821.67
1017.62	1902.77
1017.78	1718.04
1017.95	1603.97
1018.11	1975.06
1018.27	2165.11
1018.43	1765.76
1018.59	1710.87
1018.76	1955.40
1018.92	2190.10
1019.08	1619.74
1019.24	1644.93
1019.40	2017.66
1019.57	1913.62
1019.73	1727.87
1019.89	1662.95
1020.05	1873.89
1020.21	2129.27
1020.38	1626.09
1020.54	1803.65
1020.70	1932.87
1020.86	1936.56
1021.02	1645.13
1021.18	1626.91
1021.35	1815.73
1021.51	1939.63
1021.67	1777.23
1021.83	1652.30
1021.99	1877.17
1022.15	1923.86
1022.32	1710.87
1022.48	1714.35
1022.64	2030.97
1022.80	2041.21
1022.96	1710.67
1023.12	1594.14
1023.29	1992.06
1023.45	1938.20
1023.61	1618.51
1023.77	1809.79
1023.93	1904.61
1024.09	1772.93
1024.25	1652.51
1024.42	1590.25
1024.58	1845.02
1024.74	1889.66
1024.90	1657.63
1025.06	1703.91
1025.22	1830.47
1025.38	2079.92
1025.54	1586.97
1025.71	1731.76
1025.87	1931.64
1026.03	1939.02
1026.19	1645.75
1026.35	1785.21
1026.51	1947.41
1026.67	1895.40
1026.83	1682.82
1026.99	1774.77
1027.16	1926.32
1027.32	1859.76
1027.48	1687.53
1027.64	1630.59
1027.80	1955.61
1027.96	1904.00
1028.12	1644.93
1028.28	1637.76
1028.44	1909.32
1028.60	2070.29
1028.77	1760.23
1028.93	1724.18
1029.09	1823.31
1029.25	1735.65
1029.41	1708.42
1029.57	1746.51
1029.73	1922.02
1029.89	2056.57
1030.05	1769.04
1030.21	1741.59
1030.37	2158.15
1030.53	1954.99
1030.69	1686.91
1030.85	1609.70
1031.02	1767.19
1031.18	1858.53
1031.34	1678.52
1031.50	1724.39
1031.66	1776.41
1031.82	2045.72
1031.98	1684.86
1032.14	1635.30
1032.30	1764.73
1032.46	1979.16
1032.62	1771.49
1032.78	1597.83
1032.94	1815.52
1033.10	1818.60
1033.26	1710.46
1033.42	1752.45
1033.58	2136.85
1033.74	1784.80
1033.90	1627.11
1034.06	1837.03
1034.22	2129.68
1034.38	1988.78
1034.54	1663.57
1034.70	1714.35
1034.86	2071.73
>>>>>End Processed Spectral Data<<<<<
