SpectraSuite Data File
++++++++++++++++++++++++++++++++++++
Date: Thu Mar 30 14:20:20 PDT 2017
User: UCSD _CER
Dark Spectrum Present: No
Reference Spectrum Present: No
Number of Sampled Component Spectra: 1
Spectrometers: USB4C00073
Integration Time (usec): 380000 (USB4C00073)
Spectra Averaged: 10 (USB4C00073)
Boxcar Smoothing: 0 (USB4C00073)
Correct for Electrical Dark: No (USB4C00073)
Strobe/Lamp Enabled: No (USB4C00073)
Correct for Detector Non-linearity: No (USB4C00073)
Correct for Stray Light: No (USB4C00073)
Number of Pixels in Processed Spectrum: 3648
>>>>>Begin Processed Spectral Data<<<<<
345.37	1236.56
345.58	1236.56
345.80	1236.56
346.01	1239.64
346.22	1238.20
346.43	2027.69
346.65	1895.80
346.86	2399.81
347.07	2362.74
347.28	1814.91
347.50	1813.68
347.71	2119.44
347.92	1860.37
348.13	1792.59
348.35	1788.70
348.56	2106.54
348.77	1904.82
348.98	1820.44
349.20	1653.12
349.41	2136.85
349.62	2270.38
349.83	1923.45
350.05	1794.64
350.26	2162.65
350.47	2315.43
350.68	1840.10
350.90	1713.95
351.11	2358.65
351.32	2327.52
351.53	1849.52
351.75	1757.77
351.96	2147.70
352.17	2088.72
352.38	1891.91
352.60	1882.70
352.81	2106.75
353.02	2399.20
353.23	1780.50
353.44	1822.90
353.66	2005.17
353.87	2056.16
354.08	1889.05
354.29	1816.96
354.51	2008.24
354.72	2051.25
354.93	1796.68
355.14	1791.36
355.35	1855.87
355.57	2241.30
355.78	1856.69
355.99	1889.25
356.20	2119.65
356.42	2050.22
356.63	1919.77
356.84	1827.40
357.05	2270.17
357.26	2494.22
357.48	1969.74
357.69	1887.20
357.90	2171.67
358.11	2059.23
358.32	1860.17
358.54	1905.02
358.75	2056.57
358.96	2216.11
359.17	1828.22
359.38	1831.70
359.60	2202.39
359.81	2076.03
360.02	1825.56
360.23	1760.02
360.44	2008.44
360.66	2248.26
360.87	1778.87
361.08	1796.89
361.29	2161.43
361.50	2114.12
361.72	1798.53
361.93	1878.19
362.14	2107.97
362.35	1859.35
362.56	1967.89
362.77	1732.99
362.99	2218.36
363.20	2076.64
363.41	1907.27
363.62	1698.99
363.83	2188.25
364.05	2224.71
364.26	1764.94
364.47	1826.58
364.68	2284.30
364.89	1979.16
365.10	1740.16
365.32	1841.33
365.53	1969.94
365.74	2014.38
365.95	1821.26
366.16	1694.69
366.37	2103.47
366.59	2076.85
366.80	1826.58
367.01	1706.78
367.22	2440.36
367.43	2600.10
367.64	1898.06
367.86	1841.94
368.07	2184.36
368.28	2311.13
368.49	1707.19
368.70	1850.34
368.91	2033.43
369.12	2080.53
369.34	1754.90
369.55	1709.85
369.76	2084.22
369.97	2034.25
370.18	1732.79
370.39	1776.00
370.60	1879.42
370.82	1937.79
371.03	1839.28
371.24	1801.80
371.45	2229.42
371.66	2231.06
371.87	1814.71
372.08	1819.42
372.30	1948.23
372.51	2263.42
372.72	1963.18
372.93	1815.73
373.14	2388.14
373.35	1984.89
373.56	1765.76
373.78	1847.68
373.99	2268.94
374.20	2606.65
374.41	1797.91
374.62	1786.03
374.83	2354.34
375.04	2051.45
375.25	1853.00
375.47	1859.97
375.68	2042.03
375.89	2222.87
376.10	1864.06
376.31	1937.17
376.52	2183.75
376.73	2167.98
376.94	1888.23
377.15	1779.07
377.37	2088.93
377.58	2026.87
377.79	1734.42
378.00	1767.19
378.21	2142.18
378.42	2178.63
378.63	1880.04
378.84	1922.63
379.05	2257.07
379.27	2112.89
379.48	1897.44
379.69	1780.30
379.90	2327.11
380.11	1776.00
380.32	1802.62
380.53	1977.11
380.74	2324.65
380.95	2099.78
381.16	1875.94
381.37	1863.65
381.59	2352.09
381.80	2250.31
382.01	1800.16
382.22	1730.53
382.43	2195.63
382.64	2082.58
382.85	1742.00
383.06	1901.74
383.27	2187.64
383.48	2034.04
383.69	1849.73
383.91	1762.28
384.12	2199.11
384.33	2213.24
384.54	1864.06
384.75	1759.61
384.96	2682.84
385.17	2272.22
385.38	1831.50
385.59	1826.99
385.80	2230.85
386.01	2349.22
386.22	1904.00
386.43	1832.73
386.64	2502.62
386.86	2076.03
387.07	1927.75
387.28	1733.81
387.49	2001.28
387.70	2295.77
387.91	1933.28
388.12	1812.66
388.33	2165.52
388.54	2007.42
388.75	1772.11
388.96	1909.12
389.17	1989.60
389.38	2043.26
389.59	1861.19
389.80	1890.48
390.01	2111.66
390.22	2022.37
390.43	1933.69
390.64	1692.65
390.86	2162.66
391.07	2273.25
391.28	1804.47
391.49	1889.05
391.70	1905.43
391.91	1990.63
392.12	1843.79
392.33	1922.43
392.54	2127.02
392.75	2115.35
392.96	1950.90
393.17	1819.21
393.38	2489.92
393.59	2307.86
393.80	1758.80
394.01	1886.59
394.22	2088.52
394.43	2458.18
394.64	1796.68
394.85	1945.98
395.06	2141.97
395.27	2142.99
395.48	1839.08
395.69	1737.70
395.90	2065.58
396.11	2075.41
396.32	1810.81
396.53	1921.20
396.74	2062.71
396.95	2263.82
397.16	1784.80
397.37	1725.82
397.58	2255.84
397.79	2119.85
398.00	1885.16
398.21	1848.29
398.42	2161.63
398.63	2442.41
398.84	1812.04
399.05	1813.89
399.26	2332.23
399.47	2161.02
399.68	1713.13
399.89	1789.11
400.10	1911.37
400.31	2025.44
400.52	1870.61
400.73	1810.61
400.94	1860.99
401.15	2178.63
401.36	1854.64
401.57	1882.49
401.78	2318.92
401.99	2263.62
402.20	1777.84
402.41	1964.82
402.62	2355.16
402.83	2049.81
403.04	1787.88
403.25	2001.28
403.46	2146.27
403.67	2351.89
403.88	1874.30
404.09	1886.59
404.30	2038.14
404.51	2019.09
404.72	1796.48
404.93	1999.64
405.14	1987.35
405.35	2090.57
405.56	1864.27
405.77	1788.49
405.98	2126.00
406.19	2069.27
406.40	1762.69
406.61	1838.46
406.82	2033.02
407.03	2496.06
407.24	1776.00
407.45	1884.13
407.66	2184.57
407.87	2305.60
408.08	1944.75
408.29	1915.26
408.49	2228.19
408.70	2088.52
408.91	1816.75
409.12	1949.05
409.33	1943.73
409.54	2326.08
409.75	1794.23
409.96	1857.51
410.17	2268.74
410.38	2078.07
410.59	1809.18
410.80	1947.82
411.01	2082.58
411.22	2061.69
411.43	1942.70
411.64	1802.62
411.85	1946.39
412.06	1946.18
412.27	1656.19
412.47	1789.11
412.68	2079.51
412.89	2160.61
413.10	1830.68
413.31	1743.85
413.52	2419.47
413.73	2429.10
413.94	1782.35
414.15	1976.09
414.36	2015.82
414.57	1933.90
414.78	1792.59
414.99	1909.94
415.19	2411.69
415.40	2439.13
415.61	2320.55
415.82	2218.97
416.03	2429.91
416.24	2332.23
416.45	1985.71
416.66	1830.47
416.87	1892.73
417.08	2203.20
417.29	1826.38
417.50	1921.81
417.70	2243.34
417.91	2197.27
418.12	1965.44
418.33	1924.07
418.54	2274.88
418.75	2431.55
418.96	2173.51
419.17	2226.76
419.38	2710.90
419.59	2649.25
419.79	2414.96
420.00	2293.32
420.21	2879.65
420.42	2273.25
420.63	1914.03
420.84	1973.22
421.05	2114.94
421.26	2089.34
421.47	1752.04
421.67	2191.33
421.88	1994.52
422.09	1916.28
422.30	2050.43
422.51	1850.13
422.72	2416.19
422.93	2255.22
423.14	1887.82
423.35	1725.00
423.55	1852.18
423.76	1953.35
423.97	1827.40
424.18	1732.58
424.39	2063.53
424.60	2266.08
424.81	1862.63
425.02	1974.24
425.22	2188.25
425.43	2158.15
425.64	2183.54
425.85	2073.98
426.06	2645.36
426.27	2440.77
426.48	2191.94
426.68	2150.98
426.89	2409.84
427.10	2603.17
427.31	2005.37
427.52	1858.94
427.73	2241.09
427.94	2188.46
428.14	2044.69
428.35	1900.11
428.56	2380.35
428.77	2232.90
428.98	1898.26
429.19	1957.45
429.40	2114.73
429.60	2180.47
429.81	2106.13
430.02	1982.23
430.23	2135.21
430.44	2302.94
430.65	1845.42
430.85	1910.35
431.06	2219.18
431.27	1862.42
431.48	1846.24
431.69	1892.73
431.90	2113.09
432.10	2127.43
432.31	1949.87
432.52	1924.68
432.73	2654.17
432.94	2550.34
433.15	2195.63
433.35	1995.75
433.56	2461.66
433.77	2239.45
433.98	2242.94
434.19	2193.58
434.40	2451.62
434.60	2427.46
434.81	2237.61
435.02	2132.35
435.23	2217.95
435.44	2123.54
435.64	1819.62
435.85	1838.87
436.06	2065.99
436.27	2059.64
436.48	1804.67
436.68	1845.02
436.89	2437.08
437.10	2285.74
437.31	1982.84
437.52	2068.45
437.73	2274.68
437.93	2217.54
438.14	1999.64
438.35	1760.02
438.56	2056.37
438.77	2093.43
438.97	2047.76
439.18	1880.04
439.39	2321.78
439.60	1983.46
439.80	1881.67
440.01	1908.30
440.22	2028.10
440.43	2262.39
440.64	1841.33
440.84	1923.86
441.05	1923.86
441.26	2594.98
441.47	1961.13
441.68	1923.66
441.88	2208.73
442.09	2276.11
442.30	2234.33
442.51	2282.26
442.71	2338.78
442.92	2336.73
443.13	2031.79
443.34	1965.23
443.55	2053.91
443.75	2225.53
443.96	1852.80
444.17	1814.91
444.38	2290.86
444.58	1961.75
444.79	1982.43
445.00	1926.52
445.21	2071.32
445.41	2068.65
445.62	1725.21
445.83	1984.48
446.04	2116.78
446.24	1875.94
446.45	1718.45
446.66	1862.01
446.87	2154.26
447.07	2015.20
447.28	2104.29
447.49	1884.13
447.70	2229.42
447.90	2263.82
448.11	1934.72
448.32	2003.12
448.53	2335.30
448.73	2347.79
448.94	1851.16
449.15	2016.02
449.36	2108.79
449.56	2160.81
449.77	1865.09
449.98	1781.94
450.19	2040.19
450.39	2095.28
450.60	1988.58
450.81	1993.70
451.02	2170.64
451.22	2372.57
451.43	1848.29
451.64	1879.22
451.84	2050.22
452.05	2322.60
452.26	1915.47
452.47	1911.78
452.67	2018.68
452.88	2356.60
453.09	1780.50
453.30	1801.19
453.50	2237.00
453.71	2457.15
453.92	1941.27
454.12	2129.27
454.33	2140.54
454.54	2180.88
454.75	1873.69
454.95	1872.66
455.16	2176.58
455.37	2240.48
455.57	1986.94
455.78	1901.74
455.99	2097.73
456.19	2107.16
456.40	1822.49
456.61	1913.42
456.82	2103.88
457.02	2228.80
457.23	2021.75
457.44	2174.94
457.64	2124.97
457.85	2320.76
458.06	2016.43
458.26	2092.41
458.47	2133.78
458.68	2280.00
458.89	1914.65
459.09	2063.33
459.30	2496.06
459.51	2164.29
459.71	1766.37
459.92	1853.00
460.13	2249.90
460.33	2541.94
460.54	1956.63
460.75	1970.15
460.95	1993.08
461.16	2166.96
461.37	1919.97
461.57	1898.67
461.78	2126.61
461.99	1948.64
462.19	2149.55
462.40	1845.63
462.61	2733.01
462.81	2293.72
463.02	1824.13
463.23	1867.54
463.43	2221.43
463.64	2027.28
463.85	3127.45
464.05	1868.77
464.26	2678.54
464.47	2345.54
464.67	2080.53
464.88	2040.39
465.09	2073.36
465.29	2269.56
465.50	2162.04
465.71	2030.97
465.91	2095.28
466.12	2133.16
466.33	1975.47
466.53	1863.65
466.74	2361.10
466.94	2077.87
467.15	1942.50
467.36	2062.51
467.56	1979.77
467.77	2131.32
467.98	1928.78
468.18	1890.68
468.39	2009.47
468.60	2431.55
468.80	1874.30
469.01	1811.63
469.21	2197.68
469.42	2321.78
469.63	1934.72
469.83	1859.35
470.04	2255.02
470.25	2369.09
470.45	2017.45
470.66	1910.35
470.86	2149.34
471.07	2049.40
471.28	2006.39
471.48	2009.88
471.69	2152.21
471.90	2851.18
472.10	2108.59
472.31	2112.68
472.51	2196.45
472.72	2202.39
472.93	2008.24
473.13	2143.40
473.34	2307.65
473.54	2227.78
473.75	2043.26
473.96	2136.85
474.16	2110.84
474.37	2238.84
474.57	2050.84
474.78	1890.89
474.99	2219.38
475.19	2160.61
475.40	1927.75
475.60	1914.85
475.81	2528.42
476.02	2317.69
476.22	2229.83
476.43	2280.62
476.63	2228.80
476.84	2436.67
477.05	1846.04
477.25	1895.40
477.46	2669.94
477.66	2157.94
477.87	1846.24
478.08	1880.24
478.28	2281.03
478.49	2097.73
478.69	1917.51
478.90	1892.94
479.10	2232.49
479.31	2424.79
479.52	1971.58
479.72	2094.25
479.93	2347.38
480.13	2187.85
480.34	2017.04
480.54	2118.01
480.75	2054.93
480.96	2372.98
481.16	1863.86
481.37	2016.63
481.57	2258.30
481.78	2187.23
481.98	2118.21
482.19	2007.21
482.40	2453.06
482.60	2220.61
482.81	2080.53
483.01	1840.30
483.22	2274.88
483.42	2265.46
483.63	2026.67
483.83	1957.24
484.04	2058.41
484.24	2289.83
484.45	2111.25
484.66	1870.61
484.86	2179.24
485.07	2004.76
485.27	1987.14
485.48	1879.22
485.68	2336.53
485.89	1979.77
486.09	2045.10
486.30	1902.15
486.50	2149.75
486.71	2104.70
486.91	2064.76
487.12	2268.53
487.33	2874.32
487.53	2964.03
487.74	2588.43
487.94	2554.84
488.15	2564.26
488.35	2499.55
488.56	2174.12
488.76	2065.99
488.97	2231.06
489.17	2325.47
489.38	2057.59
489.58	1999.43
489.79	2238.84
489.99	2235.36
490.20	1933.49
490.40	2064.56
490.61	2187.85
490.81	2026.26
491.02	1992.26
491.22	1981.20
491.43	2256.25
491.63	2121.49
491.84	2111.25
492.04	1841.74
492.25	2206.28
492.45	2055.96
492.66	1918.74
492.86	1844.20
493.07	2124.56
493.27	2486.23
493.48	1810.40
493.68	1900.52
493.89	2099.37
494.09	2235.36
494.30	1924.89
494.50	2152.01
494.71	2227.17
494.91	1909.94
495.12	1971.99
495.32	2045.92
495.53	2165.93
495.73	1962.36
495.94	2146.68
496.14	1941.68
496.35	2632.05
496.55	2222.25
496.76	1979.77
496.96	2040.39
497.17	2146.89
497.37	2214.88
497.58	1928.37
497.78	1871.64
497.98	2090.36
498.19	2116.17
498.39	1939.43
498.60	2010.90
498.80	1856.48
499.01	2258.09
499.21	1817.98
499.42	1972.81
499.62	2066.81
499.83	2498.93
500.03	1839.49
500.24	2057.18
500.44	2355.37
500.64	2305.81
500.85	1934.51
501.05	2058.62
501.26	1890.89
501.46	2357.01
501.67	1858.12
501.87	1829.45
502.08	1975.06
502.28	2055.55
502.48	1995.95
502.69	2058.82
502.89	1896.42
503.10	2018.27
503.30	2021.35
503.51	1992.06
503.71	1883.11
503.92	2226.35
504.12	1997.79
504.32	1936.56
504.53	2259.73
504.73	2245.60
504.94	2130.30
505.14	2225.94
505.35	2305.81
505.55	2304.78
505.75	2087.49
505.96	2226.14
506.16	2548.08
506.37	2116.58
506.57	1932.26
506.78	2051.66
506.98	2314.82
507.18	1928.37
507.39	1847.88
507.59	1955.81
507.80	2000.66
508.00	2137.87
508.20	2152.42
508.41	1966.46
508.61	2340.01
508.82	2268.94
509.02	2069.47
509.22	1859.97
509.43	1928.98
509.63	2002.71
509.84	1933.69
510.04	1788.49
510.24	2353.94
510.45	2230.65
510.65	1826.79
510.86	1970.56
511.06	1951.10
511.26	2238.84
511.47	2140.95
511.67	1902.97
511.88	2210.99
512.08	2281.03
512.28	1847.06
512.49	2009.88
512.69	2144.22
512.90	2130.91
513.10	1943.73
513.30	1982.23
513.51	2201.98
513.71	2395.51
513.91	1985.51
514.12	2027.90
514.32	2292.91
514.53	2042.44
514.73	2072.75
514.93	1988.17
515.14	2177.20
515.34	2416.60
515.54	2039.57
515.75	2144.22
515.95	2348.41
516.15	2501.39
516.36	2053.70
516.56	2074.59
516.77	1830.27
516.97	2232.70
517.17	1995.95
517.38	2093.43
517.58	2378.92
517.78	2162.25
517.99	2124.97
518.19	2094.87
518.39	2471.28
518.60	2200.95
518.80	2012.54
519.00	2100.60
519.21	2132.35
519.41	2456.33
519.61	1901.54
519.82	2058.62
520.02	2134.60
520.22	2123.54
520.43	1955.20
520.63	1990.22
520.83	2015.00
521.04	1895.80
521.24	2116.78
521.44	2107.36
521.65	2158.97
521.85	2396.94
522.05	2072.95
522.26	2000.25
522.46	2512.24
522.66	2274.06
522.87	1994.93
523.07	2135.83
523.27	2068.24
523.48	2381.99
523.68	2010.90
523.88	2035.68
524.09	2365.61
524.29	2228.19
524.49	1888.02
524.70	2148.52
524.90	2453.06
525.10	2324.24
525.31	1952.94
525.51	1904.82
525.71	2272.02
525.91	2202.39
526.12	1969.12
526.32	1863.04
526.52	2042.03
526.73	2026.06
526.93	2017.25
527.13	1856.89
527.34	2103.26
527.54	2112.27
527.74	1976.90
527.94	1857.92
528.15	1962.36
528.35	2151.60
528.55	2085.45
528.76	2011.51
528.96	1856.28
529.16	2278.37
529.36	2083.40
529.57	1865.49
529.77	2298.44
529.97	1965.85
530.18	2056.16
530.38	1939.84
530.58	2201.57
530.78	2132.55
530.99	1934.10
531.19	2028.10
531.39	2001.48
531.60	2146.07
531.80	2007.21
532.00	2115.96
532.20	2162.25
532.41	2017.25
532.61	1921.61
532.81	1907.27
533.01	2052.27
533.22	2188.46
533.42	2122.11
533.62	1833.75
533.82	2313.80
534.03	2066.40
534.23	2054.52
534.43	1893.96
534.63	2045.51
534.84	2146.48
535.04	2066.20
535.24	1978.34
535.44	2550.34
535.65	2024.01
535.85	1916.28
536.05	1858.12
536.25	2133.37
536.46	1952.12
536.66	2075.00
536.86	2006.19
537.06	2226.35
537.27	2354.14
537.47	2009.26
537.67	1955.81
537.87	2338.37
538.08	2101.83
538.28	1870.00
538.48	1864.27
538.68	2065.58
538.88	2237.82
539.09	1844.81
539.29	1981.41
539.49	2291.68
539.69	2180.47
539.90	2032.20
540.10	1888.43
540.30	2346.36
540.50	2078.48
540.70	1848.70
540.91	1932.46
541.11	2262.19
541.31	2456.74
541.51	2054.73
541.72	2109.61
541.92	2234.13
542.12	2055.34
542.32	2011.72
542.52	1981.00
542.73	1995.54
542.93	2180.68
543.13	1935.13
543.33	2099.99
543.53	2250.51
543.74	2274.27
543.94	1982.43
544.14	2092.61
544.34	2392.44
544.54	2189.89
544.75	2153.85
544.95	2269.76
545.15	2367.45
545.35	2473.95
545.55	2166.96
545.75	2028.10
545.96	2547.26
546.16	2026.47
546.36	1994.11
546.56	2033.84
546.76	2338.99
546.97	2402.88
547.17	2010.70
547.37	2052.68
547.57	2026.26
547.77	2235.15
547.97	2015.20
548.18	2023.39
548.38	2116.58
548.58	2459.20
548.78	2135.42
548.98	2313.59
549.18	2619.97
549.39	2789.74
549.59	2381.38
549.79	2291.47
549.99	2602.15
550.19	2473.33
550.39	2309.90
550.60	2115.55
550.80	2236.79
551.00	2276.32
551.20	1995.75
551.40	1988.37
551.60	2217.34
551.80	2191.94
552.01	2054.11
552.21	2020.12
552.41	2171.67
552.61	2422.13
552.81	2055.75
553.01	1910.55
553.21	2219.79
553.42	1971.58
553.62	1973.01
553.82	1897.24
554.02	2372.37
554.22	2257.27
554.42	1845.83
554.62	2080.33
554.83	2442.82
555.03	2508.15
555.23	2205.25
555.43	2503.64
555.63	2426.84
555.83	2408.21
556.03	2230.03
556.23	2022.78
556.44	2300.69
556.64	2454.49
556.84	1866.11
557.04	2120.06
557.24	2260.75
557.44	2224.09
557.64	2076.64
557.84	1953.76
558.04	2095.69
558.25	2241.50
558.45	1935.74
558.65	2020.94
558.85	2157.74
559.05	1865.29
559.25	2013.15
559.45	2116.99
559.65	2595.39
559.85	3091.20
560.05	2213.65
560.26	2264.85
560.46	2305.60
560.66	2179.65
560.86	2093.23
561.06	2035.89
561.26	2461.04
561.46	2271.20
561.66	2021.14
561.86	2130.71
562.06	2036.91
562.26	2106.95
562.47	2038.14
562.67	1885.97
562.87	2237.20
563.07	1903.59
563.27	2042.85
563.47	2022.78
563.67	2065.79
563.87	2227.78
564.07	1958.47
564.27	2021.14
564.47	2217.95
564.67	2281.03
564.87	2047.15
565.08	2101.42
565.28	2083.60
565.48	2243.55
565.68	2066.20
565.88	2133.16
566.08	2486.23
566.28	2120.88
566.48	1851.16
566.68	1977.93
566.88	2041.82
567.08	2267.72
567.28	2007.62
567.48	1994.11
567.68	2192.56
567.88	1915.47
568.08	2069.68
568.28	2187.03
568.48	2123.74
568.68	2351.27
568.89	2070.50
569.09	1881.88
569.29	2244.98
569.49	2258.09
569.69	1930.21
569.89	1898.88
570.09	1792.38
570.29	1980.59
570.49	1844.81
570.69	1937.58
570.89	2245.39
571.09	2449.17
571.29	1830.47
571.49	2132.35
571.69	2156.92
571.89	2196.04
572.09	1946.80
572.29	1979.77
572.49	2193.78
572.69	2198.49
572.89	2019.71
573.09	1732.79
573.29	2143.20
573.49	2182.73
573.69	1996.16
573.89	2078.07
574.09	2034.66
574.29	2300.07
574.49	2012.54
574.69	1878.81
574.89	1906.45
575.09	1955.61
575.29	1862.83
575.49	1954.79
575.69	2141.56
575.89	1895.19
576.09	1963.59
576.29	1984.69
576.49	1933.28
576.69	2105.93
576.89	1950.49
577.09	2047.76
577.29	1890.07
577.49	2412.51
577.69	1940.04
577.89	2108.18
578.09	2089.34
578.29	1821.05
578.49	1974.24
578.69	1844.81
578.89	2281.23
579.09	2094.25
579.29	1887.41
579.49	2081.35
579.69	2036.50
579.89	2413.33
580.09	1774.77
580.29	1831.50
580.49	1998.20
580.69	1929.39
580.89	1905.84
581.09	1940.45
581.29	2020.12
581.49	2062.30
581.69	1861.60
581.89	1882.08
582.09	1950.28
582.28	1928.98
582.48	2065.79
582.68	2132.14
582.88	2374.41
583.08	2072.75
583.28	2019.50
583.48	1993.70
583.68	1978.54
583.88	2140.74
584.08	2005.17
584.28	2017.86
584.48	2430.53
584.68	2189.28
584.88	1933.90
585.08	2170.44
585.28	2266.69
585.48	2327.31
585.68	2045.72
585.87	2110.64
586.07	2185.39
586.27	2098.76
586.47	2047.15
586.67	1949.46
586.87	2069.68
587.07	2044.69
587.27	1867.95
587.47	2066.20
587.67	2419.27
587.87	2658.26
588.07	2208.94
588.27	2131.53
588.46	2443.23
588.66	2432.37
588.86	2107.36
589.06	2135.62
589.26	2334.48
589.46	2295.16
589.66	1938.81
589.86	1881.06
590.06	2090.57
590.26	2221.84
590.46	2021.96
590.66	2111.25
590.85	2094.46
591.05	2245.39
591.25	1955.40
591.45	2044.28
591.65	2252.97
591.85	2181.70
592.05	1989.19
592.25	2121.90
592.45	2367.86
592.64	2160.40
592.84	2070.70
593.04	1961.13
593.24	2591.50
593.44	2093.02
593.64	2054.32
593.84	2090.57
594.04	2096.92
594.24	2415.17
594.43	1976.09
594.63	1999.64
594.83	2270.99
595.03	2234.95
595.23	1904.61
595.43	1831.91
595.63	1997.18
595.83	2259.93
596.02	1763.92
596.22	2007.42
596.42	2195.83
596.62	2101.63
596.82	1977.72
597.02	2019.30
597.22	2334.68
597.41	2139.72
597.61	1933.49
597.81	2094.25
598.01	2259.52
598.21	2044.69
598.41	1910.96
598.61	1924.07
598.80	2111.87
599.00	2173.51
599.20	2136.03
599.40	1989.19
599.60	2094.25
599.80	2262.19
599.99	2138.69
600.19	1965.03
600.39	2139.51
600.59	2220.00
600.79	2089.75
600.99	2002.50
601.19	2397.35
601.38	2448.35
601.58	2068.86
601.78	1791.77
601.98	2296.18
602.18	2537.23
602.37	2726.26
602.57	2659.90
602.77	2999.05
602.97	2950.30
603.17	2831.73
603.37	2704.96
603.56	2906.27
603.76	2811.25
603.96	2566.10
604.16	2509.38
604.36	2730.97
604.56	2572.66
604.75	2165.11
604.95	2211.60
605.15	2491.35
605.35	2409.03
605.55	2038.14
605.74	1994.72
605.94	2396.74
606.14	2169.21
606.34	2021.75
606.54	2086.27
606.73	2052.06
606.93	2255.22
607.13	1927.96
607.33	2066.40
607.53	2371.55
607.72	2302.53
607.92	2082.37
608.12	2108.79
608.32	2079.10
608.51	2214.06
608.71	1901.54
608.91	2059.23
609.11	2250.92
609.31	2126.20
609.50	2082.99
609.70	2316.46
609.90	2375.64
610.10	2383.63
610.29	2066.20
610.49	1982.84
610.69	2312.16
610.89	2160.81
611.09	2044.69
611.28	2197.68
611.48	2319.94
611.68	2103.67
611.88	1985.30
612.07	1909.94
612.27	2251.33
612.47	1992.26
612.67	2027.69
612.86	2104.08
613.06	2113.30
613.26	1847.68
613.46	1918.13
613.65	2077.66
613.85	2650.89
614.05	2309.49
614.25	2192.15
614.44	2055.96
614.64	2143.20
614.84	2072.75
615.04	1973.42
615.23	2007.62
615.43	2252.77
615.63	2240.48
615.83	1962.57
616.02	1881.06
616.22	2304.99
616.42	2008.65
616.62	1991.65
616.81	2116.99
617.01	2268.94
617.21	2191.94
617.41	1940.86
617.60	2065.38
617.80	2260.55
618.00	2247.24
618.19	2107.97
618.39	1995.95
618.59	2232.29
618.79	2135.62
618.98	1817.37
619.18	1952.33
619.38	2473.74
619.57	2071.93
619.77	1978.34
619.97	1945.16
620.17	2019.50
620.36	1942.50
620.56	2200.75
620.76	1923.25
620.95	2010.90
621.15	2105.11
621.35	1978.34
621.54	2056.78
621.74	2178.22
621.94	2037.11
622.14	1895.19
622.33	1837.44
622.53	2098.76
622.73	2058.82
622.92	1855.05
623.12	1941.68
623.32	2416.60
623.51	2226.96
623.71	1857.51
623.91	2118.01
624.10	1943.93
624.30	2082.17
624.50	1845.22
624.69	1833.14
624.89	2784.83
625.09	2029.95
625.29	1754.90
625.48	1817.78
625.68	2129.68
625.88	2264.03
626.07	2023.60
626.27	1866.11
626.47	1984.89
626.66	1849.11
626.86	1965.23
627.06	1941.88
627.25	2101.63
627.45	2397.56
627.64	1951.71
627.84	2127.63
628.04	1960.93
628.23	2456.74
628.43	1846.24
628.63	1900.11
628.82	2057.39
629.02	2426.64
629.22	2031.79
629.41	2169.21
629.61	2183.75
629.81	2497.29
630.00	1983.25
630.20	1941.88
630.40	2203.82
630.59	2233.31
630.79	2008.24
630.98	1968.10
631.18	2076.64
631.38	2091.80
631.57	2096.10
631.77	1847.47
631.97	2138.28
632.16	2193.58
632.36	1982.23
632.56	1997.59
632.75	2120.47
632.95	2285.53
633.14	1868.57
633.34	2130.50
633.54	1819.01
633.73	2028.51
633.93	1945.78
634.12	1788.70
634.32	2527.60
634.52	2112.89
634.71	1789.31
634.91	2021.35
635.11	1867.13
635.30	1990.63
635.50	1981.61
635.69	1875.32
635.89	2415.99
636.09	2263.21
636.28	1915.47
636.48	1894.99
636.67	2211.19
636.87	2215.70
637.07	2040.80
637.26	1939.43
637.46	2132.55
637.65	2301.10
637.85	2065.99
638.04	1964.62
638.24	2031.38
638.44	2196.04
638.63	2019.09
638.83	1955.40
639.02	2192.56
639.22	2233.92
639.42	1954.38
639.61	1974.04
639.81	2109.00
640.00	2069.06
640.20	2101.22
640.39	2034.04
640.59	2497.29
640.79	2386.70
640.98	2229.62
641.18	2138.69
641.37	2311.13
641.57	2149.75
641.76	2139.10
641.96	1874.71
642.15	2204.23
642.35	2068.04
642.55	2079.30
642.74	1890.28
642.94	2218.15
643.13	2327.11
643.33	1945.57
643.52	1927.75
643.72	2038.34
643.91	2127.02
644.11	1892.94
644.31	1894.17
644.50	1989.60
644.70	2294.95
644.89	1979.57
645.09	2046.33
645.28	2100.19
645.48	2174.33
645.67	1898.47
645.87	1794.64
646.06	2051.04
646.26	2146.48
646.45	1761.46
646.65	1745.69
646.84	2420.90
647.04	2018.89
647.24	1811.63
647.43	1923.66
647.63	2114.12
647.82	2348.00
648.02	1862.63
648.21	1906.86
648.41	2309.08
648.60	2021.96
648.80	2075.82
648.99	1976.90
649.19	1986.12
649.38	1817.16
649.58	1944.96
649.77	1995.95
649.97	2277.34
650.16	2180.47
650.36	1738.52
650.55	2092.41
650.75	2120.47
650.94	2338.99
651.14	1965.23
651.33	2001.07
651.53	2348.41
651.72	1951.10
651.92	1935.74
652.11	1763.51
652.31	2164.70
652.50	2147.30
652.70	1971.37
652.89	1821.26
653.09	2327.31
653.28	2056.78
653.48	1778.46
653.67	1769.85
653.87	2604.40
654.06	2119.85
654.25	2174.94
654.45	1883.93
654.64	2027.28
654.84	2017.25
655.03	1755.31
655.23	2101.83
655.42	2228.39
655.62	2390.80
655.81	2082.99
656.01	1891.50
656.20	2265.46
656.40	2391.00
656.59	2012.54
656.79	2095.69
656.98	2154.05
657.17	2227.78
657.37	1955.40
657.56	1911.37
657.76	2146.68
657.95	2253.18
658.15	1606.02
658.34	1972.81
658.54	2073.36
658.73	1885.16
658.92	1944.55
659.12	1943.52
659.31	2181.50
659.51	1949.87
659.70	2037.32
659.90	1923.04
660.09	2270.38
660.29	2084.63
660.48	1900.11
660.67	2120.67
660.87	1997.59
661.06	2165.32
661.26	2028.92
661.45	2081.56
661.65	2149.34
661.84	2008.24
662.03	1871.02
662.23	1914.65
662.42	2447.73
662.62	1909.73
662.81	1830.68
663.00	1905.02
663.20	2142.18
663.39	2179.24
663.59	2043.05
663.78	1939.22
663.97	2042.03
664.17	2296.39
664.36	1854.23
664.56	1881.67
664.75	2219.79
664.94	2184.36
665.14	2034.86
665.33	1968.71
665.53	2096.51
665.72	2043.05
665.91	2060.87
666.11	1981.61
666.30	2101.42
666.50	2060.26
666.69	1987.14
666.88	1905.84
667.08	2093.23
667.27	2025.65
667.47	1967.07
667.66	1923.25
667.85	2229.21
668.05	2093.23
668.24	1886.38
668.43	2138.49
668.63	2009.06
668.82	2269.56
669.02	2036.91
669.21	1931.64
669.40	1879.01
669.60	2393.46
669.79	1810.20
669.98	2551.36
670.18	1926.93
670.37	1894.17
670.56	1930.42
670.76	2022.16
670.95	2050.84
671.15	2225.12
671.34	1977.11
671.53	1964.62
671.73	1977.72
671.92	1964.21
672.11	1866.93
672.31	1896.21
672.50	2158.15
672.69	1872.87
672.89	1691.01
673.08	1923.66
673.27	2179.86
673.47	2119.65
673.66	1964.00
673.85	1830.68
674.05	2140.74
674.24	2213.04
674.43	2047.97
674.63	2298.03
674.82	2795.89
675.01	2093.64
675.21	2314.00
675.40	2141.97
675.59	2220.00
675.79	2516.95
675.98	2098.76
676.17	2240.48
676.37	2256.04
676.56	2099.17
676.75	2030.77
676.95	2005.78
677.14	2048.79
677.33	2245.60
677.52	1851.16
677.72	1916.49
677.91	2145.04
678.10	1853.41
678.30	1832.32
678.49	1846.45
678.68	2449.17
678.88	1793.00
679.07	2058.41
679.26	1912.19
679.45	2394.28
679.65	2294.34
679.84	1748.97
680.03	1809.79
680.23	2023.39
680.42	2503.64
680.61	1845.42
680.81	1903.38
681.00	2091.39
681.19	2134.80
681.38	2050.02
681.58	2006.39
681.77	2013.56
681.96	2217.75
682.15	1882.90
682.35	2021.35
682.54	2146.89
682.73	1886.38
682.93	1858.53
683.12	1853.00
683.31	2217.95
683.50	2536.61
683.70	1866.93
683.89	1981.61
684.08	1911.78
684.27	2230.85
684.47	1814.71
684.66	1937.58
684.85	2413.12
685.04	2263.21
685.24	1866.93
685.43	1937.99
685.62	1802.62
685.81	2131.73
686.01	2070.91
686.20	1978.75
686.39	2036.50
686.58	2606.45
686.78	2211.40
686.97	2164.29
687.16	2380.35
687.35	2290.86
687.55	2061.28
687.74	2113.30
687.93	2022.57
688.12	2145.86
688.32	2067.42
688.51	1833.14
688.70	2195.83
688.89	1952.33
689.08	1838.67
689.28	1918.54
689.47	2122.72
689.66	2071.52
689.85	2016.84
690.05	1895.19
690.24	1962.36
690.43	2101.42
690.62	1956.22
690.81	1891.09
691.01	2098.76
691.20	2020.94
691.39	1810.81
691.58	1969.94
691.77	2382.20
691.97	2077.25
692.16	2006.60
692.35	1919.36
692.54	1978.54
692.73	2188.05
692.93	2023.39
693.12	2066.20
693.31	2209.55
693.50	2168.80
693.69	2078.48
693.89	1949.26
694.08	2344.72
694.27	2334.89
694.46	1955.40
694.65	2013.15
694.85	2214.47
695.04	2207.92
695.23	1973.63
695.42	2345.13
695.61	2563.65
695.80	2786.88
696.00	2839.92
696.19	2879.24
696.38	2594.98
696.57	2630.82
696.76	2495.25
696.95	2332.84
697.15	2636.96
697.34	2585.15
697.53	2153.64
697.72	2237.61
697.91	2166.75
698.10	2413.33
698.30	2002.91
698.49	1972.81
698.68	2149.75
698.87	2050.63
699.06	1883.52
699.25	1962.36
699.45	2263.21
699.64	2113.91
699.83	2105.11
700.02	1869.39
700.21	2164.29
700.40	1973.83
700.59	1905.02
700.79	1962.16
700.98	2165.11
701.17	1939.22
701.36	1836.82
701.55	1898.06
701.74	2280.41
701.93	1984.48
702.12	2095.69
702.32	2054.32
702.51	2550.13
702.70	2473.74
702.89	2246.01
703.08	2101.22
703.27	2445.07
703.46	2302.74
703.65	1981.20
703.85	1934.72
704.04	2061.49
704.23	2333.87
704.42	1915.06
704.61	1915.87
704.80	2357.21
704.99	1978.95
705.18	2000.66
705.37	1936.15
705.57	2324.03
705.76	2662.36
705.95	2436.47
706.14	2897.67
706.33	3133.60
706.52	3281.05
706.71	2629.18
706.90	2454.49
707.09	2602.15
707.28	2497.70
707.47	2159.38
707.67	2322.19
707.86	2200.75
708.05	2439.95
708.24	2072.13
708.43	2078.69
708.62	2059.85
708.81	1969.33
709.00	1877.78
709.19	1879.22
709.38	2214.88
709.57	1898.47
709.76	1966.25
709.96	1911.16
710.15	2321.99
710.34	2116.58
710.53	2079.71
710.72	1950.90
710.91	2282.87
711.10	2202.59
711.29	2029.13
711.48	1928.78
711.67	1930.62
711.86	2154.26
712.05	1833.34
712.24	1853.62
712.43	2227.99
712.62	2350.04
712.81	1956.22
713.00	2121.29
713.19	1903.18
713.39	2156.51
713.58	1825.15
713.77	1999.84
713.96	2206.07
714.15	2032.81
714.34	1928.98
714.53	1807.54
714.72	2396.94
714.91	1927.96
715.10	2032.81
715.29	1876.35
715.48	2560.98
715.67	2232.29
715.86	1996.97
716.05	1911.57
716.24	2063.33
716.43	1992.88
716.62	1847.27
716.81	1836.00
717.00	2014.18
717.19	2368.68
717.38	1914.85
717.57	1945.78
717.76	1860.78
717.95	2239.86
718.14	1942.09
718.33	1960.93
718.52	1820.64
718.71	1825.97
718.90	1845.63
719.09	1872.05
719.28	2086.47
719.47	2228.39
719.66	2037.32
719.85	2090.36
720.04	2086.88
720.23	2140.13
720.42	1920.79
720.61	2054.93
720.80	1909.32
720.99	2144.43
721.18	1952.53
721.37	1870.21
721.56	1999.23
721.75	2231.26
721.94	1868.36
722.13	1944.96
722.32	2029.95
722.51	2215.49
722.70	1967.28
722.89	1993.29
723.08	2056.98
723.27	2244.57
723.46	2002.50
723.65	1959.70
723.84	1974.24
724.03	2269.56
724.22	1841.53
724.41	1915.47
724.60	2010.29
724.79	2223.68
724.98	1974.24
725.16	1920.18
725.35	2164.50
725.54	1915.26
725.73	1943.11
725.92	1967.48
726.11	2070.91
726.30	2270.58
726.49	1966.25
726.68	2040.60
726.87	2269.15
727.06	2406.77
727.25	2007.42
727.44	2070.91
727.63	2134.19
727.82	2040.19
728.01	2027.90
728.20	2055.75
728.38	2357.01
728.57	2058.62
728.76	1922.63
728.95	2078.48
729.14	1880.04
729.33	1910.75
729.52	1665.00
729.71	1852.59
729.90	1913.83
730.09	1991.04
730.28	1880.44
730.47	1912.39
730.66	2324.03
730.84	2152.82
731.03	2033.84
731.22	2010.90
731.41	2154.46
731.60	2182.32
731.79	1785.83
731.98	1858.74
732.17	2170.23
732.36	2141.36
732.55	1867.13
732.73	1793.00
732.92	2288.40
733.11	2147.50
733.30	1852.80
733.49	1815.32
733.68	2165.11
733.87	2116.99
734.06	1808.36
734.25	1904.82
734.43	2066.20
734.62	2229.01
734.81	2035.07
735.00	1983.25
735.19	2146.68
735.38	2207.71
735.57	1886.38
735.76	2083.60
735.94	2212.22
736.13	2631.23
736.32	2312.16
736.51	2269.15
736.70	2821.49
736.89	2849.75
737.08	2502.82
737.27	2791.38
737.45	3337.78
737.64	3277.77
737.83	3429.73
738.02	3532.13
738.21	3563.88
738.40	3390.62
738.59	2849.75
738.77	2802.44
738.96	2673.62
739.15	2665.23
739.34	2540.30
739.53	2430.32
739.72	2643.52
739.90	2533.54
740.09	2093.02
740.28	2108.79
740.47	2291.68
740.66	2273.25
740.85	1910.96
741.03	1961.34
741.22	1948.85
741.41	2060.26
741.60	1813.48
741.79	2020.94
741.98	2321.17
742.16	2407.18
742.35	2010.08
742.54	2043.87
742.73	2497.50
742.92	2142.99
743.10	1923.66
743.29	2020.12
743.48	2575.94
743.67	2043.67
743.86	1846.65
744.05	1873.89
744.23	1982.23
744.42	1952.12
744.61	1973.01
744.80	1818.80
744.99	2013.56
745.17	1813.89
745.36	1746.30
745.55	1994.72
745.74	2048.79
745.93	1924.89
746.11	1822.49
746.30	1791.97
746.49	2226.76
746.68	1894.37
746.86	1925.30
747.05	1890.28
747.24	2158.76
747.43	2200.34
747.62	1824.54
747.80	1877.37
747.99	2281.44
748.18	2222.66
748.37	1979.36
748.56	2013.97
748.74	2271.61
748.93	2108.38
749.12	2181.70
749.31	2692.46
749.49	3090.38
749.68	3353.96
749.87	3564.49
750.06	3460.86
750.24	3610.57
750.43	3675.69
750.62	3674.26
750.81	3876.19
750.99	4163.52
751.18	4121.95
751.37	3507.56
751.56	3367.27
751.74	3695.35
751.93	3733.86
752.12	2744.48
752.31	2626.93
752.49	2645.36
752.68	2872.48
752.87	2367.25
753.06	2260.34
753.24	2293.72
753.43	2447.32
753.62	2015.61
753.81	1971.58
753.99	2402.68
754.18	2194.40
754.37	1892.12
754.55	1953.97
754.74	2386.70
754.93	1821.67
755.12	1865.49
755.30	1827.20
755.49	2262.60
755.68	2106.34
755.86	1990.63
756.05	1772.52
756.24	2299.87
756.43	1863.65
756.61	1831.91
756.80	1959.91
756.99	2267.92
757.17	2047.35
757.36	1838.87
757.55	1888.02
757.74	2128.45
757.92	2061.28
758.11	1791.36
758.30	1743.85
758.48	2011.31
758.67	1871.02
758.86	1920.99
759.04	1794.84
759.23	1976.90
759.42	2053.70
759.60	1854.03
759.79	1934.72
759.98	2002.71
760.16	1923.66
760.35	1864.06
760.54	1815.73
760.73	2071.32
760.91	1813.27
761.10	1892.53
761.29	2000.05
761.47	2052.47
761.66	2427.87
761.85	1958.88
762.03	2119.65
762.22	2574.71
762.41	3678.56
762.59	4711.97
762.78	5299.73
762.97	6446.39
763.15	6548.99
763.34	6037.21
763.52	4755.18
763.71	4737.77
763.90	4625.13
764.08	4128.91
764.27	3958.31
764.46	4009.10
764.64	3535.00
764.83	3244.60
765.02	3044.31
765.20	2973.04
765.39	2814.11
765.58	2273.65
765.76	2205.25
765.95	2296.39
766.13	2203.00
766.32	1971.78
766.51	1937.79
766.69	2841.56
766.88	2139.51
767.07	1819.21
767.25	1723.16
767.44	2234.74
767.62	2274.06
767.81	1850.13
768.00	1922.02
768.18	2054.73
768.37	1933.28
768.56	1746.71
768.74	1859.97
768.93	1858.94
769.11	2146.68
769.30	1953.15
769.49	1855.25
769.67	2013.56
769.86	1982.23
770.04	1875.73
770.23	1827.81
770.42	2262.60
770.60	2043.87
770.79	1801.80
770.97	1866.72
771.16	2338.99
771.35	2520.44
771.53	2649.66
771.72	2862.86
771.90	3245.01
772.09	3560.80
772.27	3156.33
772.46	2675.06
772.65	3012.36
772.83	2799.78
773.02	2668.71
773.20	2396.12
773.39	2647.20
773.58	2613.62
773.76	2162.45
773.95	2137.46
774.13	2346.36
774.32	2179.86
774.50	1962.77
774.69	2034.86
774.87	2055.34
775.06	2455.72
775.25	1890.28
775.43	1916.28
775.62	2102.85
775.80	2193.37
775.99	1976.70
776.17	1896.42
776.36	2086.06
776.54	2281.23
776.73	1880.85
776.92	1982.64
777.10	2220.00
777.29	2126.00
777.47	1859.35
777.66	1883.31
777.84	2085.65
778.03	2041.62
778.21	1850.34
778.40	1978.95
778.58	2135.83
778.77	2240.07
778.95	1806.31
779.14	1863.86
779.32	2373.60
779.51	2230.03
779.70	1860.78
779.88	1772.93
780.07	1979.36
780.25	2482.14
780.44	1906.25
780.62	2009.26
780.81	2154.67
780.99	2110.64
781.18	1879.83
781.36	1849.11
781.55	2037.73
781.73	2295.57
781.92	1797.09
782.10	1807.13
782.29	2158.97
782.47	2317.69
782.66	1881.88
782.84	1734.22
783.03	1915.06
783.21	2238.43
783.40	1878.19
783.58	1850.13
783.77	1937.17
783.95	1985.30
784.14	1803.65
784.32	1930.62
784.51	2265.46
784.69	1945.16
784.88	1789.11
785.06	1906.45
785.24	1854.23
785.43	2215.29
785.61	1995.54
785.80	1829.86
785.98	2153.23
786.17	2087.08
786.35	1787.47
786.54	1998.61
786.72	2217.95
786.91	2227.78
787.09	1887.20
787.28	1780.71
787.46	2048.17
787.65	2211.81
787.83	1748.56
788.01	1912.80
788.20	1849.93
788.38	2061.08
788.57	1884.75
788.75	1867.95
788.94	2383.22
789.12	2203.82
789.31	1952.74
789.49	2018.48
789.67	1981.41
789.86	2155.69
790.04	1849.11
790.23	1759.41
790.41	2435.03
790.60	1989.40
790.78	1901.74
790.96	1939.43
791.15	2187.64
791.33	2050.63
791.52	1933.08
791.70	1790.33
791.89	2135.62
792.07	2187.23
792.25	1902.36
792.44	1744.05
792.62	2240.07
792.81	1954.99
792.99	1893.35
793.17	1852.80
793.36	1910.55
793.54	2389.77
793.73	2306.01
793.91	2443.64
794.10	2959.52
794.28	3177.63
794.46	2884.15
794.65	2886.61
794.83	2616.89
795.01	2651.30
795.20	2599.08
795.38	2503.64
795.57	2606.86
795.75	2550.13
795.93	2284.51
796.12	2210.99
796.30	2423.36
796.49	2374.82
796.67	1966.46
796.85	2125.38
797.04	2166.75
797.22	2235.15
797.40	1868.36
797.59	1961.13
797.77	2087.49
797.96	1930.21
798.14	1828.22
798.32	1847.47
798.51	2214.67
798.69	2379.74
798.87	1900.52
799.06	1903.18
799.24	1829.86
799.42	2254.61
799.61	2160.20
799.79	2207.71
799.98	2804.08
800.16	2539.07
800.34	2738.54
800.53	3129.30
800.71	3281.87
800.89	3918.79
801.08	3636.17
801.26	3657.67
801.44	3312.59
801.63	2982.87
801.81	2938.43
801.99	2743.25
802.18	2769.06
802.36	2774.59
802.54	2559.76
802.73	2286.56
802.91	2481.32
803.09	2423.57
803.28	2297.62
803.46	2227.99
803.64	2506.71
803.83	2011.51
804.01	1926.93
804.19	1855.87
804.38	2224.50
804.56	2177.81
804.74	1927.34
804.92	1946.59
805.11	1906.86
805.29	2216.52
805.47	1873.48
805.66	1807.13
805.84	1866.31
806.02	2212.83
806.21	1856.89
806.39	2114.53
806.57	2226.76
806.76	2195.22
806.94	1956.63
807.12	1891.30
807.30	1951.30
807.49	2092.61
807.67	1973.01
807.85	2044.49
808.04	2210.37
808.22	2493.81
808.40	1848.91
808.58	1776.82
808.77	2152.82
808.95	2343.90
809.13	2041.62
809.31	2691.65
809.50	3294.57
809.68	3594.80
809.86	3522.71
810.05	3733.04
810.23	4359.31
810.41	4898.54
810.59	7192.06
810.78	8647.55
810.96	9887.39
811.14	10593.12
811.32	10010.47
811.51	8284.03
811.69	7204.34
811.87	7180.59
812.05	6224.19
812.24	5907.57
812.42	5842.45
812.60	5487.53
812.78	4495.29
812.97	4063.58
813.15	4233.97
813.33	3707.64
813.51	3344.54
813.70	2810.84
813.88	2659.49
814.06	2555.87
814.24	2287.38
814.42	2000.05
814.61	2256.86
814.79	2442.82
814.97	1835.59
815.15	1886.18
815.34	2136.65
815.52	2230.03
815.70	1815.32
815.88	1920.18
816.06	1906.86
816.25	1975.88
816.43	1885.97
816.61	2018.27
816.79	2303.15
816.98	1819.21
817.16	1823.31
817.34	1845.63
817.52	2118.42
817.70	2323.83
817.89	1941.47
818.07	1821.46
818.25	2041.62
818.43	2087.70
818.61	1923.66
818.80	1875.32
818.98	2341.03
819.16	2092.41
819.34	1811.43
819.52	2133.78
819.70	1916.90
819.89	2058.41
820.07	1730.74
820.25	1766.99
820.43	2095.69
820.61	2204.84
820.80	1920.38
820.98	1767.40
821.16	1807.74
821.34	1845.02
821.52	1884.13
821.70	1987.96
821.89	2075.62
822.07	1996.97
822.25	1929.19
822.43	1830.88
822.61	2325.88
822.79	2089.34
822.98	1906.66
823.16	1748.97
823.34	2084.83
823.52	2247.24
823.70	1971.78
823.88	1739.95
824.06	2164.50
824.25	2030.36
824.43	2014.18
824.61	1816.55
824.79	2060.67
824.97	2124.77
825.15	2040.80
825.33	2276.73
825.52	2572.45
825.70	2528.42
825.88	2477.02
826.06	2574.30
826.24	2712.94
826.42	2676.29
826.60	2339.39
826.78	2370.11
826.97	2362.74
827.15	2541.94
827.33	2127.02
827.51	2179.45
827.69	2148.32
827.87	2239.45
828.05	2117.80
828.23	1954.17
828.41	2309.08
828.60	2243.96
828.78	1811.84
828.96	2049.40
829.14	1981.20
829.32	2040.39
829.50	1926.32
829.68	1870.21
829.86	1975.27
830.04	2162.25
830.22	1990.42
830.41	1812.86
830.59	1991.24
830.77	2163.68
830.95	1833.14
831.13	1873.69
831.31	1916.69
831.49	2198.90
831.67	2027.49
831.85	2029.54
832.03	2032.40
832.21	2175.97
832.39	1787.06
832.57	1820.85
832.76	2195.63
832.94	2037.52
833.12	1736.68
833.30	1859.35
833.48	2254.40
833.66	2134.60
833.84	1875.73
834.02	1914.65
834.20	2216.11
834.38	2172.49
834.56	1725.41
834.74	1809.79
834.92	1824.33
835.10	2352.30
835.28	1936.35
835.46	1917.10
835.64	2046.13
835.82	1925.30
836.01	2171.67
836.19	2069.88
836.37	1952.74
836.55	1871.64
836.73	1856.69
836.91	1796.07
837.09	2157.33
837.27	2267.72
837.45	1746.71
837.63	1777.64
837.81	1863.04
837.99	2059.44
838.17	1953.15
838.35	1824.13
838.53	2449.58
838.71	2168.18
838.89	1864.27
839.07	1880.24
839.25	2098.55
839.43	2256.45
839.61	2012.54
839.79	2511.83
839.97	3001.91
840.15	3231.29
840.33	3196.67
840.51	3444.27
840.69	3330.41
840.87	3068.47
841.05	2849.34
841.23	2857.12
841.41	3290.68
841.59	4084.26
841.77	4240.32
841.95	4485.05
842.13	5032.47
842.31	4660.15
842.49	3899.54
842.67	3608.52
842.85	3755.16
843.03	3280.44
843.21	3099.81
843.39	3188.48
843.57	3084.65
843.75	2972.01
843.93	2602.35
844.11	2497.50
844.29	2584.54
844.47	2414.56
844.65	2388.34
844.83	2182.32
845.01	2219.79
845.19	2359.26
845.36	2064.35
845.54	2035.68
845.72	2154.67
845.90	2200.95
846.08	1852.18
846.26	1962.77
846.44	2143.61
846.62	2148.52
846.80	2005.58
846.98	1832.32
847.16	2036.70
847.34	2108.79
847.52	1811.02
847.70	1752.86
847.88	2024.42
848.06	2284.51
848.24	2006.39
848.41	1795.25
848.59	2250.72
848.77	2117.60
848.95	1893.76
849.13	1852.59
849.31	2166.75
849.49	2090.98
849.67	1857.51
849.85	1801.60
850.03	2104.70
850.21	2110.64
850.39	1780.50
850.57	2000.66
850.74	2276.52
850.92	2301.71
851.10	2099.78
851.28	2120.47
851.46	2495.25
851.64	2891.53
851.82	2363.77
852.00	2426.02
852.18	2708.85
852.36	2521.05
852.53	2168.18
852.71	2246.83
852.89	2372.98
853.07	2348.00
853.25	2036.91
853.43	1930.21
853.61	2229.62
853.79	2235.56
853.97	1918.95
854.14	1930.62
854.32	2355.37
854.50	2226.55
854.68	1934.51
854.86	1881.47
855.04	1956.42
855.22	2183.13
855.40	1771.70
855.57	1844.61
855.75	2183.34
855.93	2150.57
856.11	1748.97
856.29	1847.88
856.47	1935.54
856.65	2123.74
856.82	1813.89
857.00	1772.52
857.18	2042.85
857.36	1951.71
857.54	1966.05
857.72	2028.31
857.89	2149.75
858.07	2076.03
858.25	2080.12
858.43	1784.60
858.61	2019.71
858.79	2055.75
858.97	1836.21
859.14	1958.47
859.32	2021.96
859.50	1987.55
859.68	1952.74
859.86	1854.44
860.03	2084.22
860.21	2137.67
860.39	1868.16
860.57	2009.06
860.75	2136.44
860.93	2337.35
861.10	2063.33
861.28	1825.35
861.46	2132.14
861.64	2145.04
861.82	1852.59
861.99	1988.78
862.17	2201.77
862.35	2231.26
862.53	1883.72
862.71	1903.38
862.88	2125.18
863.06	2165.73
863.24	1844.20
863.42	1848.50
863.60	2033.02
863.77	2166.96
863.95	1734.22
864.13	1878.40
864.31	1987.55
864.49	2167.37
864.66	1777.43
864.84	1862.83
865.02	2064.97
865.20	2530.27
865.37	1950.49
865.55	1813.07
865.73	1862.63
865.91	2186.82
866.09	2047.15
866.26	1963.80
866.44	2220.82
866.62	2026.47
866.80	1841.94
866.97	1903.38
867.15	2041.01
867.33	2115.76
867.51	1944.75
867.68	1908.09
867.86	1987.76
868.04	1932.67
868.22	1700.43
868.39	1855.46
868.57	2109.82
868.75	2303.15
868.93	1766.17
869.10	1850.54
869.28	2357.83
869.46	2293.73
869.64	1877.78
869.81	1833.96
869.99	2108.18
870.17	2065.38
870.35	1796.27
870.52	1871.64
870.70	2215.49
870.88	1961.34
871.05	1807.13
871.23	1716.40
871.41	2043.26
871.59	2070.09
871.76	1864.06
871.94	1783.58
872.12	2035.27
872.29	1820.64
872.47	1852.39
872.65	1778.66
872.83	2082.58
873.00	2279.39
873.18	1880.24
873.36	1838.26
873.53	2183.34
873.71	1827.40
873.89	1771.70
874.06	1848.09
874.24	2146.48
874.42	2290.24
874.60	1996.97
874.77	1953.97
874.95	1934.51
875.13	2234.95
875.30	1822.90
875.48	1831.70
875.66	2304.58
875.83	1942.70
876.01	1848.09
876.19	1966.46
876.36	1852.59
876.54	2065.79
876.72	1806.92
876.89	1958.27
877.07	2157.74
877.25	1791.15
877.42	1916.28
877.60	1870.61
877.78	2370.73
877.95	2002.71
878.13	1804.67
878.31	1992.88
878.48	2175.76
878.66	2173.10
878.84	1826.58
879.01	1896.42
879.19	2165.11
879.37	2169.41
879.54	1895.19
879.72	1755.31
879.90	1769.85
880.07	2171.67
880.25	1625.06
880.42	2002.71
880.60	2075.00
880.78	2165.11
880.95	1830.68
881.13	1911.98
881.31	2031.79
881.48	1959.09
881.66	1825.15
881.83	1988.17
882.01	1912.60
882.19	1837.44
882.36	1890.07
882.54	1833.75
882.72	2172.69
882.89	2052.68
883.07	1820.03
883.24	1841.74
883.42	2183.13
883.60	2076.44
883.77	1763.92
883.95	1889.05
884.12	2204.43
884.30	2095.07
884.48	2002.09
884.65	1918.95
884.83	2108.38
885.00	2124.36
885.18	1800.57
885.36	1881.88
885.53	2140.95
885.71	2274.47
885.88	1780.30
886.06	1856.69
886.23	2151.19
886.41	1988.99
886.59	1833.55
886.76	1788.08
886.94	2165.11
887.11	2531.49
887.29	1862.01
887.47	1784.60
887.64	2246.21
887.82	2281.44
887.99	1724.59
888.17	1868.77
888.34	2010.49
888.52	1855.46
888.69	1840.92
888.87	1748.76
889.05	1999.23
889.22	1996.77
889.40	1830.68
889.57	2082.58
889.75	2312.36
889.92	1996.36
890.10	1780.30
890.27	1895.80
890.45	1924.89
890.62	1792.18
890.80	1768.63
890.98	1690.80
891.15	2314.20
891.33	2223.27
891.50	1803.65
891.68	1714.56
891.85	2192.76
892.03	2170.85
892.20	1828.43
892.38	1781.12
892.55	2165.32
892.73	2201.98
892.90	1737.50
893.08	1822.08
893.25	1930.01
893.43	1974.65
893.60	1939.22
893.78	1687.12
893.95	2132.14
894.13	2038.75
894.30	1805.49
894.48	1860.58
894.65	2199.31
894.83	2067.01
895.00	1684.45
895.18	1682.20
895.35	2194.81
895.53	2156.51
895.70	1768.42
895.88	1950.90
896.05	2147.70
896.23	1842.97
896.40	1862.63
896.58	1892.32
896.75	2182.32
896.93	2294.54
897.10	1845.22
897.28	1738.11
897.45	2074.80
897.63	2140.13
897.80	1940.25
897.98	1829.66
898.15	2124.97
898.33	1951.30
898.50	1887.20
898.67	1850.54
898.85	2013.77
899.02	2141.77
899.20	2058.62
899.37	1857.51
899.55	2046.74
899.72	2273.45
899.90	1822.49
900.07	1781.32
900.25	2111.05
900.42	2259.52
900.59	1823.72
900.77	1941.47
900.94	2144.22
901.12	2096.71
901.29	1815.93
901.47	1983.05
901.64	2120.88
901.82	2021.96
901.99	1664.18
902.16	1780.09
902.34	2218.77
902.51	2099.58
902.69	1817.57
902.86	1890.68
903.03	2661.74
903.21	2032.40
903.38	1841.53
903.56	1783.99
903.73	2245.39
903.91	1985.30
904.08	1783.78
904.25	1650.25
904.43	1915.87
904.60	2191.53
904.78	1834.57
904.95	1784.80
905.12	2012.33
905.30	2337.76
905.47	1921.61
905.65	1993.90
905.82	2038.55
905.99	2141.56
906.17	1868.16
906.34	1832.32
906.52	1902.15
906.69	2162.45
906.86	1923.04
907.04	1930.82
907.21	2211.19
907.38	2179.24
907.56	1809.38
907.73	1805.49
907.91	2296.80
908.08	2241.71
908.25	1859.15
908.43	1728.28
908.60	2126.61
908.77	2104.70
908.95	1838.67
909.12	1774.77
909.30	2148.93
909.47	1805.69
909.64	1867.75
909.82	2050.22
909.99	2003.12
910.16	2067.83
910.34	1813.07
910.51	1812.66
910.68	2079.51
910.86	2056.57
911.03	1729.10
911.20	1878.19
911.38	2456.54
911.55	2933.51
911.72	2904.22
911.90	2863.27
912.07	3284.94
912.24	3435.26
912.42	2701.48
912.59	2357.21
912.76	2657.85
912.94	2404.52
913.11	2136.65
913.28	1989.81
913.46	2034.66
913.63	2229.21
913.80	2283.89
913.98	1924.07
914.15	2309.90
914.32	2322.40
914.49	2014.79
914.67	1819.21
914.84	2133.16
915.01	2192.76
915.19	1958.06
915.36	1877.17
915.53	2219.18
915.71	2150.98
915.88	1932.05
916.05	1861.19
916.22	2233.11
916.40	2085.65
916.57	1740.98
916.74	2004.96
916.92	2318.92
917.09	1913.42
917.26	1795.66
917.43	1756.95
917.61	1955.40
917.78	1810.61
917.95	1756.54
918.13	1760.64
918.30	2424.80
918.47	2063.94
918.64	1786.03
918.82	1754.09
918.99	2023.39
919.16	2340.01
919.33	1890.68
919.51	1853.21
919.68	2031.99
919.85	2255.02
920.02	1749.58
920.20	1863.24
920.37	2339.80
920.54	2205.25
920.71	1822.28
920.89	1821.05
921.06	2372.78
921.23	1914.85
921.40	1757.57
921.58	1972.81
921.75	2669.94
921.92	2062.92
922.09	2058.00
922.27	1996.97
922.44	2184.16
922.61	2215.29
922.78	1864.06
922.96	1882.90
923.13	2033.43
923.30	2225.12
923.47	1772.72
923.64	1800.37
923.82	2109.20
923.99	2094.05
924.16	1952.74
924.33	1769.45
924.50	2041.01
924.68	2324.85
924.85	1784.19
925.02	1843.58
925.19	2183.75
925.36	2058.62
925.54	1874.92
925.71	1905.23
925.88	2579.83
926.05	1955.61
926.22	1765.96
926.40	1930.82
926.57	2065.99
926.74	2169.00
926.91	1819.21
927.08	2007.21
927.26	2221.64
927.43	2077.66
927.60	1814.09
927.77	1885.36
927.94	2328.13
928.11	2236.38
928.29	1702.68
928.46	1896.01
928.63	1923.25
928.80	1998.82
928.97	1920.99
929.14	1789.31
929.32	2394.08
929.49	2060.87
929.66	1794.23
929.83	1736.68
930.00	1968.30
930.17	2121.90
930.35	1747.74
930.52	1822.49
930.69	2306.63
930.86	1860.78
931.03	1869.80
931.20	1657.63
931.37	2233.72
931.55	2031.38
931.72	1871.02
931.89	1771.70
932.06	1897.85
932.23	2315.64
932.40	1918.54
932.57	1936.76
932.74	2262.80
932.92	2241.91
933.09	1979.36
933.26	1586.36
933.43	1979.16
933.60	2090.57
933.77	1867.95
933.94	1932.46
934.11	2028.92
934.29	2078.07
934.46	1775.38
934.63	1909.94
934.80	1824.13
934.97	2007.62
935.14	1859.15
935.31	1669.91
935.48	1924.89
935.65	2098.55
935.82	1908.09
936.00	1758.39
936.17	2308.88
936.34	2012.95
936.51	1915.26
936.68	1739.14
936.85	2078.89
937.02	2047.35
937.19	1937.17
937.36	1857.51
937.53	2100.81
937.70	2177.20
937.87	1810.20
938.05	1944.55
938.22	2070.29
938.39	1877.17
938.56	1863.86
938.73	1747.12
938.90	1989.40
939.07	1917.51
939.24	1929.60
939.41	1671.55
939.58	2119.24
939.75	2102.24
939.92	1805.49
940.09	2090.16
940.26	1991.04
940.43	2184.57
940.60	1839.69
940.77	1848.09
940.95	2118.83
941.12	2167.37
941.29	1837.85
941.46	1866.72
941.63	2248.26
941.80	2286.56
941.97	1711.49
942.14	1700.43
942.31	2133.37
942.48	2018.48
942.65	1946.59
942.82	1879.83
942.99	2139.31
943.16	2060.26
943.33	1763.51
943.50	1814.09
943.67	2166.34
943.84	2247.44
944.01	1842.76
944.18	1791.77
944.35	2302.74
944.52	1923.66
944.69	1911.57
944.86	1756.34
945.03	2157.13
945.20	2462.27
945.37	1679.33
945.54	1868.16
945.71	2286.35
945.88	2333.87
946.05	1802.21
946.22	1773.34
946.39	2285.74
946.56	2030.56
946.73	1718.04
946.90	1777.23
947.07	1980.39
947.24	2022.37
947.41	1688.96
947.58	1928.16
947.75	2152.82
947.92	2089.75
948.09	1659.47
948.26	1730.12
948.43	2077.25
948.60	2358.03
948.77	1787.06
948.94	1828.22
949.11	2146.07
949.27	2099.58
949.44	1804.87
949.61	1720.70
949.78	2100.60
949.95	2240.07
950.12	1720.50
950.29	1714.15
950.46	1965.03
950.63	2209.14
950.80	1797.50
950.97	1827.81
951.14	2224.50
951.31	2005.58
951.48	1774.77
951.65	1722.34
951.82	2370.73
951.99	2084.01
952.15	1742.41
952.32	1810.20
952.49	1936.97
952.66	1988.99
952.83	1793.61
953.00	1770.47
953.17	2030.77
953.34	2189.28
953.51	1872.66
953.68	1874.92
953.85	2241.91
954.02	2224.30
954.18	1855.66
954.35	1827.81
954.52	1911.16
954.69	2057.59
954.86	1733.40
955.03	1887.82
955.20	2166.14
955.37	2055.75
955.54	1812.04
955.71	1780.91
955.87	2112.07
956.04	2344.11
956.21	1799.35
956.38	1759.61
956.55	2083.19
956.72	2489.10
956.89	1877.99
957.06	1754.09
957.23	1948.64
957.39	2250.10
957.56	1841.53
957.73	1729.92
957.90	1732.17
958.07	2373.60
958.24	1851.77
958.41	1814.30
958.57	2182.11
958.74	2046.54
958.91	1723.78
959.08	1761.05
959.25	2161.22
959.42	2027.49
959.59	1852.39
959.75	1815.52
959.92	2242.53
960.09	2236.59
960.26	1787.88
960.43	1851.36
960.60	2095.69
960.76	2013.36
960.93	1711.49
961.10	1895.60
961.27	2210.17
961.44	2004.14
961.61	1747.12
961.77	1714.76
961.94	2072.75
962.11	2195.83
962.28	1798.94
962.45	1741.18
962.62	2009.67
962.78	2212.22
962.95	1691.01
963.12	1781.12
963.29	2202.18
963.46	2546.85
963.62	1866.52
963.79	1804.26
963.96	2498.73
964.13	1999.43
964.30	1915.67
964.46	1800.98
964.63	1899.49
964.80	2463.30
964.97	1668.48
965.14	1956.83
965.30	2140.74
965.47	2222.25
965.64	1983.87
965.81	1940.66
965.98	2304.58
966.14	2088.72
966.31	1804.67
966.48	1793.20
966.65	2242.53
966.81	2109.20
966.98	1808.36
967.15	1825.97
967.32	2049.81
967.49	1921.81
967.65	1690.80
967.82	1667.46
967.99	2019.71
968.16	1788.70
968.32	1931.85
968.49	1794.43
968.66	2003.32
968.83	2322.40
968.99	1924.27
969.16	1744.25
969.33	2264.85
969.50	2126.41
969.66	1936.15
969.83	2053.50
970.00	2168.59
970.17	2122.11
970.33	1845.63
970.50	1754.09
970.67	2308.47
970.84	2292.50
971.00	1748.35
971.17	1715.58
971.34	2165.11
971.50	2055.96
971.67	1924.27
971.84	1828.02
972.01	1871.43
972.17	1722.75
972.34	1731.15
972.51	1926.73
972.67	2236.79
972.84	2119.03
973.01	1766.78
973.18	1795.45
973.34	2200.34
973.51	1893.76
973.68	1821.05
973.84	1843.58
974.01	2004.35
974.18	2351.68
974.34	1889.87
974.51	1906.04
974.68	1916.49
974.85	2386.70
975.01	1907.48
975.18	1813.89
975.35	2050.84
975.51	1948.44
975.68	1687.32
975.85	1951.71
976.01	1957.24
976.18	2273.25
976.35	1832.73
976.51	1841.94
976.68	2333.66
976.85	2248.26
977.01	1820.85
977.18	1888.64
977.35	2140.95
977.51	1866.52
977.68	1643.29
977.85	1737.09
978.01	2220.82
978.18	2143.20
978.35	1848.70
978.51	1873.28
978.68	2195.22
978.85	2298.84
979.01	1868.16
979.18	1828.63
979.34	2047.97
979.51	2084.83
979.68	1788.90
979.84	1860.99
980.01	2469.44
980.18	2052.68
980.34	1768.01
980.51	1890.28
980.67	2181.91
980.84	2173.10
981.01	1811.22
981.17	1865.70
981.34	1768.01
981.51	2161.63
981.67	1763.51
981.84	1920.99
982.00	2133.16
982.17	2024.01
982.34	1681.38
982.50	1555.23
982.67	2348.00
982.83	1981.20
983.00	1713.13
983.17	1620.15
983.33	2247.24
983.50	1824.33
983.66	1708.21
983.83	1595.37
984.00	1992.06
984.16	2050.02
984.33	1620.97
984.49	1583.90
984.66	1883.52
984.83	2176.99
984.99	1655.17
985.16	1599.46
985.32	2165.32
985.49	2132.35
985.65	1738.52
985.82	1609.29
985.99	2318.51
986.15	2078.28
986.32	1709.23
986.48	1672.37
986.65	1983.87
986.81	2179.45
986.98	1594.34
987.14	1686.09
987.31	2099.37
987.48	1806.72
987.64	1530.45
987.81	1578.37
987.97	2397.35
988.14	1897.44
988.30	1619.53
988.47	1525.12
988.63	2109.20
988.80	1883.31
988.96	1705.34
989.13	1725.62
989.30	2001.48
989.46	2186.62
989.63	1561.58
989.79	1562.60
989.96	2010.90
990.12	2278.57
990.29	1659.88
990.45	1671.96
990.62	2037.93
990.78	2275.70
990.95	1747.74
991.11	1658.85
991.28	1973.22
991.44	2086.06
991.61	1522.66
991.77	1695.92
991.94	2088.93
992.10	2249.90
992.27	1697.36
992.43	1670.32
992.60	2155.08
992.76	1976.29
992.93	1841.94
993.09	1564.44
993.26	2230.03
993.42	2353.12
993.59	1640.83
993.75	1550.72
993.92	1925.50
994.08	1918.95
994.25	1711.90
994.41	1601.92
994.58	2184.16
994.74	2296.18
994.91	1599.05
995.07	1751.83
995.24	2032.40
995.40	2022.37
995.56	1796.48
995.73	1719.68
995.89	2329.77
996.06	2007.83
996.22	1618.51
996.39	1577.35
996.55	2041.62
996.72	2112.89
996.88	1573.25
997.05	1588.20
997.21	2385.68
997.37	2147.30
997.54	1727.87
997.70	1677.90
997.87	2118.83
998.03	2001.68
998.20	1557.69
998.36	1563.42
998.52	2179.24
998.69	2204.43
998.85	1546.22
999.02	1668.89
999.18	2197.88
999.35	2191.53
999.51	1675.85
999.67	1638.99
999.84	1871.23
1000.00	2179.45
1000.17	1744.87
1000.33	1593.11
1000.49	1966.05
1000.66	2011.72
1000.82	1638.99
1000.99	1705.55
1001.15	2254.81
1001.31	2019.30
1001.48	1649.02
1001.64	1746.92
1001.81	1997.79
1001.97	2395.30
1002.13	1680.15
1002.30	1666.43
1002.46	2272.43
1002.63	1978.54
1002.79	1733.61
1002.95	1620.15
1003.12	2201.98
1003.28	2126.00
1003.45	1613.18
1003.61	1591.48
1003.77	2082.58
1003.94	1843.99
1004.10	1651.28
1004.26	1735.04
1004.43	2132.55
1004.59	2347.59
1004.75	1634.28
1004.92	1608.27
1005.08	1963.59
1005.25	2088.11
1005.41	1635.71
1005.57	1731.76
1005.74	2215.08
1005.90	1986.32
1006.06	1755.11
1006.23	1651.48
1006.39	2138.69
1006.55	2512.45
1006.72	1780.50
1006.88	1598.23
1007.04	1898.47
1007.21	2026.67
1007.37	1660.08
1007.53	1601.51
1007.70	2320.55
1007.86	2160.20
1008.02	1734.42
1008.19	1583.69
1008.35	2074.18
1008.51	1892.12
1008.68	1651.48
1008.84	1600.49
1009.00	1904.00
1009.17	2221.64
1009.33	1825.97
1009.49	1743.64
1009.65	1903.59
1009.82	2099.17
1009.98	1716.20
1010.14	1539.66
1010.31	2164.09
1010.47	2152.01
1010.63	1706.78
1010.80	1690.39
1010.96	2130.09
1011.12	1998.82
1011.28	1673.19
1011.45	1598.44
1011.61	2507.12
1011.77	1873.69
1011.94	1615.44
1012.10	1601.72
1012.26	1880.24
1012.42	1949.67
1012.59	1687.94
1012.75	1684.04
1012.91	1997.59
1013.07	2224.50
1013.24	1597.01
1013.40	1628.75
1013.56	2069.27
1013.72	2043.26
1013.89	1702.27
1014.05	1766.17
1014.21	2398.38
1014.37	2470.26
1014.54	1721.52
1014.70	1589.63
1014.86	2001.48
1015.02	1881.67
1015.19	1680.36
1015.35	1581.24
1015.51	1981.61
1015.67	1981.20
1015.84	1632.85
1016.00	1676.06
1016.16	2207.10
1016.32	2205.25
1016.49	1626.91
1016.65	1614.41
1016.81	2038.55
1016.97	2129.27
1017.14	1767.60
1017.30	1656.81
1017.46	1954.58
1017.62	2105.31
1017.78	1698.38
1017.95	1614.00
1018.11	2172.08
1018.27	2470.67
1018.43	1803.65
1018.59	1707.80
1018.76	2163.88
1018.92	2503.44
1019.08	1600.69
1019.24	1661.11
1019.40	2285.33
1019.57	2081.35
1019.73	1774.56
1019.89	1652.10
1020.05	2052.88
1020.21	2384.65
1020.38	1622.40
1020.54	1808.15
1020.70	2155.28
1020.86	2166.75
1021.02	1637.35
1021.18	1629.16
1021.35	1971.78
1021.51	2128.86
1021.67	1825.97
1021.83	1684.45
1021.99	2051.86
1022.15	2067.01
1022.32	1704.11
1022.48	1681.79
1022.64	2280.82
1022.80	2313.18
1022.96	1705.55
1023.12	1593.11
1023.29	2217.54
1023.45	2134.39
1023.61	1643.29
1023.77	1877.58
1023.93	2091.59
1024.09	1917.31
1024.25	1636.53
1024.42	1577.35
1024.58	1954.99
1024.74	2078.07
1024.90	1656.40
1025.06	1728.08
1025.22	1949.87
1025.38	2327.31
1025.54	1611.55
1025.71	1753.27
1025.87	2140.13
1026.03	2140.33
1026.19	1584.10
1026.35	1804.06
1026.51	2167.37
1026.67	2059.85
1026.83	1699.61
1026.99	1818.60
1027.16	2104.90
1027.32	2003.73
1027.48	1670.94
1027.64	1622.40
1027.80	2154.87
1027.96	2072.13
1028.12	1645.54
1028.28	1653.94
1028.44	2104.08
1028.60	2323.01
1028.77	1814.91
1028.93	1702.27
1029.09	1974.24
1029.25	1874.10
1029.41	1725.21
1029.57	1764.73
1029.73	2104.70
1029.89	2304.17
1030.05	1782.76
1030.21	1728.08
1030.37	2462.48
1030.53	2144.63
1030.69	1666.23
1030.85	1607.86
1031.02	1905.63
1031.18	2056.98
1031.34	1676.26
1031.50	1757.36
1031.66	1928.98
1031.82	2300.69
1031.98	1706.37
1032.14	1600.49
1032.30	1912.60
1032.46	2181.29
1032.62	1789.92
1032.78	1575.09
1032.94	1919.97
1033.10	1999.84
1033.26	1715.17
1033.42	1805.90
1033.58	2430.12
1033.74	1952.74
1033.90	1640.22
1034.06	1817.78
1034.22	2442.00
1034.38	2216.72
1034.54	1694.28
1034.70	1713.74
1034.86	2386.29
>>>>>End Processed Spectral Data<<<<<
