SpectraSuite Data File
++++++++++++++++++++++++++++++++++++
Date: Thu Mar 30 14:34:50 PDT 2017
User: UCSD _CER
Dark Spectrum Present: No
Reference Spectrum Present: No
Number of Sampled Component Spectra: 1
Spectrometers: USB4C00073
Integration Time (usec): 380000 (USB4C00073)
Spectra Averaged: 10 (USB4C00073)
Boxcar Smoothing: 0 (USB4C00073)
Correct for Electrical Dark: No (USB4C00073)
Strobe/Lamp Enabled: No (USB4C00073)
Correct for Detector Non-linearity: No (USB4C00073)
Correct for Stray Light: No (USB4C00073)
Number of Pixels in Processed Spectrum: 3648
>>>>>Begin Processed Spectral Data<<<<<
345.37	1253.15
345.58	1253.15
345.80	1253.15
346.01	1256.43
346.22	1248.65
346.43	2058.00
346.65	1911.57
346.86	2488.69
347.07	2410.05
347.28	1842.35
347.50	1841.33
347.71	2190.71
347.92	1899.90
348.13	1826.58
348.35	1830.06
348.56	2186.21
348.77	1959.29
348.98	1859.97
349.20	1702.07
349.41	2178.42
349.62	2319.32
349.83	1942.91
350.05	1847.06
350.26	2228.80
350.47	2399.60
350.68	1888.84
350.90	1795.66
351.11	2409.64
351.32	2417.63
351.53	1874.51
351.75	1803.85
351.96	2203.61
352.17	2133.98
352.38	1919.97
352.60	1943.32
352.81	2216.93
353.02	2504.67
353.23	1816.96
353.44	1869.39
353.66	2082.58
353.87	2102.04
354.08	1925.50
354.29	1850.75
354.51	2077.87
354.72	2108.79
354.93	1787.67
355.14	1840.71
355.35	1876.14
355.57	2311.13
355.78	1856.07
355.99	1947.62
356.20	2180.06
356.42	2110.64
356.63	1939.43
356.84	1834.98
357.05	2307.24
357.26	2561.19
357.48	1978.13
357.69	1887.61
357.90	2252.36
358.11	2090.36
358.32	1830.47
358.54	1905.84
358.75	2101.22
358.96	2298.84
359.17	1859.76
359.38	1856.48
359.60	2259.93
359.81	2145.25
360.02	1876.96
360.23	1772.93
360.44	2045.51
360.66	2316.66
360.87	1820.44
361.08	1800.78
361.29	2206.89
361.50	2190.30
361.72	1833.34
361.93	1937.99
362.14	2182.52
362.35	1906.86
362.56	2020.32
362.77	1733.40
362.99	2272.02
363.20	2162.25
363.41	1912.60
363.62	1736.47
363.83	2250.31
364.05	2341.44
364.26	1809.18
364.47	1816.75
364.68	2350.66
364.89	2024.01
365.10	1753.27
365.32	1854.85
365.53	1992.88
365.74	2062.30
365.95	1848.50
366.16	1743.03
366.37	2143.40
366.59	2098.55
366.80	1857.51
367.01	1746.51
367.22	2519.82
367.43	2678.13
367.64	1947.62
367.86	1862.42
368.07	2244.57
368.28	2371.75
368.49	1777.64
368.70	1906.86
368.91	2110.64
369.12	2131.94
369.34	1770.88
369.55	1789.11
369.76	2141.56
369.97	2091.80
370.18	1746.30
370.39	1814.91
370.60	1909.73
370.82	1975.27
371.03	1873.28
371.24	1818.19
371.45	2294.75
371.66	2273.65
371.87	1854.85
372.08	1846.86
372.30	1990.42
372.51	2330.38
372.72	1977.93
372.93	1853.41
373.14	2428.89
373.35	2021.55
373.56	1801.39
373.78	1871.23
373.99	2310.11
374.20	2661.74
374.41	1820.64
374.62	1851.16
374.83	2413.12
375.04	2077.46
375.25	1875.32
375.47	1876.96
375.68	2075.21
375.89	2309.90
376.10	1909.73
376.31	1945.98
376.52	2251.33
376.73	2212.83
376.94	1881.06
377.15	1788.49
377.37	2151.60
377.58	2116.78
377.79	1738.73
378.00	1789.92
378.21	2193.17
378.42	2252.56
378.63	1936.97
378.84	1942.29
379.05	2364.58
379.27	2191.53
379.48	1955.20
379.69	1798.94
379.90	2390.39
380.11	1836.00
380.32	1874.51
380.53	1999.02
380.74	2424.39
380.95	2177.61
381.16	1915.06
381.37	1901.13
381.59	2424.39
381.80	2309.29
382.01	1852.59
382.22	1764.73
382.43	2261.78
382.64	2159.58
382.85	1795.45
383.06	1909.12
383.27	2248.67
383.48	2106.13
383.69	1868.57
383.91	1813.07
384.12	2310.72
384.33	2231.06
384.54	1915.06
384.75	1818.60
384.96	2750.22
385.17	2352.09
385.38	1872.66
385.59	1842.97
385.80	2277.55
386.01	2443.02
386.22	1992.88
386.43	1868.36
386.64	2556.07
386.86	2130.71
387.07	1956.63
387.28	1775.18
387.49	2055.75
387.70	2404.93
387.91	1978.13
388.12	1881.67
388.33	2238.23
388.54	2069.47
388.75	1846.86
388.96	1928.78
389.17	2042.03
389.38	2143.20
389.59	1939.02
389.80	1965.23
390.01	2146.68
390.22	2107.16
390.43	1967.48
390.64	1749.78
390.86	2264.23
391.07	2352.09
391.28	1865.29
391.49	1923.66
391.70	1951.92
391.91	2039.37
392.12	1874.92
392.33	1913.42
392.54	2162.86
392.75	2147.70
392.96	1978.95
393.17	1804.67
393.38	2563.44
393.59	2348.20
393.80	1770.06
394.01	1910.96
394.22	2091.18
394.43	2484.39
394.64	1756.13
394.85	1937.38
395.06	2139.31
395.27	2178.83
395.48	1869.39
395.69	1738.32
395.90	2120.26
396.11	2174.33
396.32	1862.22
396.53	1948.44
396.74	2112.48
396.95	2332.84
397.16	1825.15
397.37	1735.86
397.58	2320.35
397.79	2157.13
398.00	1898.26
398.21	1883.52
398.42	2204.84
398.63	2552.79
398.84	1835.18
399.05	1846.04
399.26	2383.02
399.47	2223.68
399.68	1710.87
399.89	1777.23
400.10	1963.59
400.31	2067.01
400.52	1929.80
400.73	1839.28
400.94	1901.33
401.15	2223.48
401.36	1891.09
401.57	1894.37
401.78	2368.48
401.99	2342.47
402.20	1819.21
402.41	2016.23
402.62	2409.23
402.83	2119.44
403.04	1801.19
403.25	2064.97
403.46	2178.42
403.67	2387.11
403.88	1908.91
404.09	1832.73
404.30	2040.19
404.51	2005.58
404.72	1802.83
404.93	1993.49
405.14	2019.30
405.35	2146.27
405.56	1909.32
405.77	1819.21
405.98	2173.10
406.19	2145.86
406.40	1800.98
406.61	1865.09
406.82	2079.30
407.03	2546.24
407.24	1782.96
407.45	1900.92
407.66	2244.57
407.87	2309.08
408.08	1952.74
408.29	1961.13
408.49	2276.52
408.70	2131.94
408.91	1842.15
409.12	1975.06
409.33	1995.13
409.54	2372.78
409.75	1834.78
409.96	1880.24
410.17	2312.57
410.38	2118.83
410.59	1847.06
410.80	2002.50
411.01	2147.50
411.22	2137.87
411.43	1954.99
411.64	1840.71
411.85	2003.94
412.06	1992.67
412.27	1704.32
412.47	1807.95
412.68	2144.43
412.89	2220.20
413.10	1856.89
413.31	1793.41
413.52	2517.98
413.73	2478.45
413.94	1810.61
414.15	2029.95
414.36	2048.79
414.57	2003.94
414.78	1795.25
414.99	1798.32
415.19	2244.16
415.40	2188.25
415.61	1976.70
415.82	1963.18
416.03	2262.80
416.24	2222.46
416.45	1898.26
416.66	1777.64
416.87	1939.84
417.08	2246.62
417.29	1817.37
417.50	1931.44
417.70	2239.04
417.91	2206.28
418.12	1904.61
418.33	1860.37
418.54	2212.22
418.75	2321.99
418.96	2014.38
419.17	1935.94
419.38	2402.88
419.59	2273.86
419.79	2021.14
420.00	1924.68
420.21	2682.22
420.42	2180.47
420.63	1884.75
420.84	1931.23
421.05	2164.29
421.26	2176.58
421.47	1789.31
421.67	2228.39
421.88	2026.67
422.09	1951.71
422.30	2098.35
422.51	1899.29
422.72	2492.17
422.93	2307.65
423.14	1921.61
423.35	1770.67
423.55	1899.08
423.76	2028.92
423.97	1884.54
424.18	1748.97
424.39	2101.83
424.60	2303.15
424.81	1874.51
425.02	1947.62
425.22	2094.66
425.43	2098.76
425.64	2069.27
425.85	1923.86
426.06	2541.94
426.27	2318.92
426.48	1999.84
426.68	1976.90
426.89	2320.76
427.10	2506.30
427.31	1905.02
427.52	1827.61
427.73	2278.57
427.94	2257.27
428.14	2042.03
428.35	1918.13
428.56	2421.72
428.77	2324.03
428.98	1931.03
429.19	1885.16
429.40	2053.91
429.60	2128.86
429.81	2006.19
430.02	1925.30
430.23	2140.54
430.44	2269.97
430.65	1837.85
430.85	1900.31
431.06	2251.33
431.27	1871.02
431.48	1874.10
431.69	1933.49
431.90	2157.74
432.10	2163.68
432.31	1945.78
432.52	1856.69
432.73	2577.37
432.94	2390.39
433.15	2013.15
433.35	1843.99
433.56	2360.08
433.77	2153.03
433.98	2101.83
434.19	1965.85
434.40	2306.63
434.60	2296.18
434.81	2097.32
435.02	2013.77
435.23	2220.41
435.44	2107.56
435.64	1798.12
435.85	1833.75
436.06	2102.24
436.27	2054.32
436.48	1786.44
436.68	1868.36
436.89	2487.05
437.10	2290.45
437.31	1971.58
437.52	2057.80
437.73	2244.16
437.93	2221.02
438.14	1952.53
438.35	1770.47
438.56	2077.66
438.77	2135.83
438.97	2034.66
439.18	1872.66
439.39	2349.84
439.60	1965.23
439.80	1847.68
440.01	1900.52
440.22	2083.81
440.43	2278.37
440.64	1824.13
440.84	1940.86
441.05	1956.01
441.26	2626.93
441.47	1992.26
441.68	1917.10
441.88	2209.76
442.09	2209.96
442.30	2138.49
442.51	2150.57
442.71	2238.63
442.92	2333.46
443.13	1966.66
443.34	1899.70
443.55	2021.55
443.75	2263.62
443.96	1890.89
444.17	1835.59
444.38	2316.25
444.58	2010.70
444.79	1997.79
445.00	1969.53
445.21	2101.22
445.41	2104.70
445.62	1739.54
445.83	1977.93
446.04	2156.72
446.24	1943.11
446.45	1746.30
446.66	1882.08
446.87	2206.07
447.07	2064.76
447.28	2112.27
447.49	1919.36
447.70	2333.87
447.90	2338.17
448.11	1948.85
448.32	2015.20
448.53	2408.41
448.73	2423.16
448.94	1891.09
449.15	2046.33
449.36	2184.77
449.56	2213.65
449.77	1901.74
449.98	1800.78
450.19	2045.72
450.39	2088.72
450.60	1968.51
450.81	1956.22
451.02	2168.18
451.22	2404.52
451.43	1874.51
451.64	1879.42
451.84	2080.53
452.05	2365.40
452.26	1921.61
452.47	1937.38
452.67	2072.75
452.88	2396.53
453.09	1805.69
453.30	1798.73
453.50	2278.37
453.71	2502.82
453.92	1968.51
454.12	2122.51
454.33	2139.51
454.54	2187.44
454.75	1924.27
454.95	1892.94
455.16	2232.70
455.37	2286.35
455.57	2016.23
455.78	1901.33
455.99	2139.92
456.19	2181.50
456.40	1852.59
456.61	1907.89
456.82	2170.03
457.02	2292.09
457.23	2039.78
457.44	2184.16
457.64	2176.79
457.85	2333.05
458.06	2003.94
458.26	2066.81
458.47	2159.58
458.68	2327.93
458.89	1898.67
459.09	2056.37
459.30	2532.93
459.51	2177.61
459.71	1776.00
459.92	1881.06
460.13	2307.65
460.33	2584.74
460.54	2000.05
460.75	1976.09
460.95	2016.63
461.16	2251.54
461.37	1934.10
461.57	1922.22
461.78	2182.93
461.99	1979.57
462.19	2193.17
462.40	1842.56
462.61	2806.33
462.81	2350.45
463.02	1867.54
463.23	1875.12
463.43	2282.26
463.64	2057.59
463.85	3218.59
464.05	1903.38
464.26	2720.32
464.47	2394.69
464.67	2071.11
464.88	2054.52
465.09	2070.50
465.29	2283.08
465.50	2100.40
465.71	2022.57
465.91	2170.85
466.12	2142.58
466.33	1993.29
466.53	1883.72
466.74	2398.99
466.94	2122.92
467.15	1983.05
467.36	2117.60
467.56	2010.70
467.77	2186.62
467.98	1951.51
468.18	1921.20
468.39	2092.20
468.60	2476.40
468.80	1905.02
469.01	1839.90
469.21	2237.00
469.42	2377.28
469.63	1958.68
469.83	1843.79
470.04	2260.14
470.25	2432.58
470.45	2052.88
470.66	1906.04
470.86	2236.18
471.07	2088.72
471.28	2030.15
471.48	2001.89
471.69	2110.43
471.90	2891.32
472.10	2061.28
472.31	2032.61
472.51	2217.95
472.72	2189.89
472.93	1982.43
473.13	2110.84
473.34	2299.87
473.54	2210.58
473.75	1999.02
473.96	2141.15
474.16	2137.06
474.37	2244.37
474.57	2035.48
474.78	1885.16
474.99	2218.15
475.19	2189.89
475.40	1942.50
475.60	1867.54
475.81	2536.61
476.02	2250.92
476.22	2109.00
476.43	2196.86
476.63	2174.33
476.84	2379.13
477.05	1806.72
477.25	1908.71
477.46	2710.90
477.66	2175.76
477.87	1864.27
478.08	1926.52
478.28	2333.05
478.49	2104.08
478.69	1919.97
478.90	1939.02
479.10	2244.57
479.31	2470.87
479.52	1984.89
479.72	2063.74
479.93	2305.60
480.13	2122.72
480.34	1959.29
480.54	2038.34
480.75	2038.14
480.96	2390.59
481.16	1874.10
481.37	2033.02
481.57	2326.90
481.78	2232.49
481.98	2127.84
482.19	2030.15
482.40	2492.58
482.60	2241.71
482.81	2044.49
483.01	1831.70
483.22	2375.64
483.42	2301.51
483.63	2016.23
483.83	1965.03
484.04	2098.35
484.24	2336.94
484.45	2112.48
484.66	1858.33
484.86	2264.23
485.07	2017.45
485.27	2001.48
485.48	1911.57
485.68	2366.22
485.89	2036.09
486.09	2053.09
486.30	1904.00
486.50	2181.29
486.71	2153.03
486.91	2026.67
487.12	2145.04
487.33	2746.12
487.53	2776.84
487.74	2416.40
487.94	2295.16
488.15	2380.35
488.35	2355.16
488.56	2024.01
488.76	1952.12
488.97	2190.10
489.17	2301.10
489.38	2015.41
489.58	1960.73
489.79	2255.63
489.99	2238.43
490.20	1970.15
490.40	2046.94
490.61	2228.60
490.81	2046.94
491.02	2016.63
491.22	2002.91
491.43	2282.46
491.63	2149.14
491.84	2085.24
492.04	1837.85
492.25	2255.43
492.45	2103.88
492.66	1913.21
492.86	1841.12
493.07	2133.78
493.27	2545.22
493.48	1844.61
493.68	1914.65
493.89	2124.15
494.09	2295.77
494.30	1957.86
494.50	2182.32
494.71	2257.27
494.91	1904.41
495.12	1937.38
495.32	2013.97
495.53	2163.68
495.73	1932.87
495.94	2106.13
496.14	1924.89
496.35	2578.60
496.55	2188.46
496.76	1966.46
496.96	2023.60
497.17	2147.09
497.37	2225.73
497.58	1940.66
497.78	1845.63
497.98	2115.35
498.19	2114.32
498.39	1938.81
498.60	2013.36
498.80	1833.96
499.01	2291.68
499.21	1829.66
499.42	2027.28
499.62	2102.85
499.83	2535.18
500.03	1845.22
500.24	2063.53
500.44	2374.41
500.64	2384.45
500.85	1910.96
501.05	2051.04
501.26	1905.63
501.46	2381.38
501.67	1870.41
501.87	1856.89
502.08	2006.39
502.28	2099.58
502.48	2032.40
502.69	2053.70
502.89	1870.82
503.10	2035.27
503.30	2007.01
503.51	1990.42
503.71	1921.81
503.92	2249.28
504.12	1976.29
504.32	1901.13
504.53	2261.37
504.73	2254.20
504.94	2069.06
505.14	2184.36
505.35	2245.80
505.55	2230.85
505.75	1968.30
505.96	2125.38
506.16	2512.04
506.37	2094.05
506.57	1883.93
506.78	2059.03
506.98	2361.72
507.18	1917.10
507.39	1856.48
507.59	1937.79
507.80	2035.27
508.00	2159.79
508.20	2160.40
508.41	1933.49
508.61	2354.96
508.82	2322.81
509.02	2096.10
509.22	1892.12
509.43	1977.52
509.63	2041.01
509.84	1957.04
510.04	1801.19
510.24	2404.93
510.45	2258.30
510.65	1867.54
510.86	2010.29
511.06	1953.76
511.26	2280.00
511.47	2128.04
511.67	1897.24
511.88	2246.62
512.08	2313.39
512.28	1881.47
512.49	2018.07
512.69	2169.82
512.90	2174.33
513.10	1947.00
513.30	1990.63
513.51	2251.13
513.71	2442.61
513.91	2012.13
514.12	2030.15
514.32	2280.41
514.53	2042.85
514.73	2021.75
514.93	1959.09
515.14	2129.68
515.34	2374.82
515.54	1900.31
515.75	2028.92
515.95	2231.06
516.15	2404.32
516.36	1973.63
516.56	2031.99
516.77	1788.90
516.97	2217.13
517.17	1974.24
517.38	2058.41
517.58	2409.84
517.78	2071.52
517.99	2038.96
518.19	1941.88
518.39	2337.14
518.60	2017.86
518.80	1856.48
519.00	2021.96
519.21	2144.02
519.41	2443.64
519.61	1902.97
519.82	2065.99
520.02	2158.35
520.22	2131.53
520.43	1935.13
520.63	1973.22
520.83	2047.35
521.04	1883.11
521.24	2037.32
521.44	1961.54
521.65	2007.83
521.85	2226.96
522.05	1885.97
522.26	1902.15
522.46	2471.28
522.66	2301.51
522.87	1988.78
523.07	2132.75
523.27	2065.38
523.48	2386.29
523.68	1988.78
523.88	2017.86
524.09	2339.60
524.29	2178.83
524.49	1807.54
524.70	2022.16
524.90	2386.09
525.10	2215.29
525.31	1853.41
525.51	1863.65
525.71	2284.92
525.91	2238.84
526.12	1960.11
526.32	1866.93
526.52	2070.70
526.73	2028.31
526.93	2023.60
527.13	1840.92
527.34	2087.49
527.54	2146.89
527.74	1963.59
527.94	1875.94
528.15	1976.49
528.35	2153.44
528.55	2088.31
528.76	2017.66
528.96	1876.35
529.16	2316.87
529.36	2069.06
529.57	1889.46
529.77	2367.66
529.97	1989.19
530.18	2040.80
530.38	1930.62
530.58	2236.79
530.78	2146.89
530.99	1955.81
531.19	2054.32
531.39	2047.97
531.60	2156.92
531.80	2014.79
532.00	2138.90
532.20	2177.81
532.41	2033.22
532.61	1928.98
532.81	1922.22
533.01	2073.36
533.22	2231.88
533.42	2109.82
533.62	1847.88
533.82	2389.77
534.03	2110.02
534.23	2097.94
534.43	1926.32
534.63	2069.68
534.84	2177.20
535.04	2088.31
535.24	2001.28
535.44	2625.91
535.65	2080.74
535.85	1946.80
536.05	1915.47
536.25	2163.88
536.46	1988.78
536.66	2128.45
536.86	2001.89
537.06	2251.33
537.27	2343.70
537.47	2003.32
537.67	1943.73
537.87	2394.69
538.08	2125.59
538.28	1874.30
538.48	1838.26
538.68	2116.78
538.88	2267.72
539.09	1838.46
539.29	1959.70
539.49	2308.88
539.69	2226.14
539.90	2059.85
540.10	1891.91
540.30	2393.46
540.50	2072.54
540.70	1848.50
540.91	1912.80
541.11	2322.60
541.31	2437.29
541.51	2031.18
541.72	2056.98
541.92	2186.62
542.12	2032.40
542.32	2007.62
542.52	1978.95
542.73	2037.73
542.93	2234.74
543.13	1961.95
543.33	2064.97
543.53	2305.19
543.74	2264.64
543.94	1928.98
544.14	2029.54
544.34	2348.41
544.54	2142.79
544.75	2036.91
544.95	2141.15
545.15	2273.25
545.35	2465.55
545.55	2081.15
545.75	2007.21
545.96	2549.11
546.16	2016.84
546.36	1995.13
546.56	2014.59
546.76	2324.03
546.97	2438.11
547.17	2012.33
547.37	2106.13
547.57	2090.98
547.77	2302.12
547.97	2069.88
548.18	2087.29
548.38	2131.12
548.58	2370.93
548.78	1882.49
548.98	1957.04
549.18	2262.39
549.39	2361.10
549.59	2038.14
549.79	1978.95
549.99	2401.86
550.19	2290.65
550.39	2146.89
550.60	2007.42
550.80	2185.39
551.00	2246.42
551.20	1948.44
551.40	1988.78
551.60	2248.67
551.80	2189.69
552.01	2050.84
552.21	2001.89
552.41	2189.89
552.61	2453.06
552.81	2089.34
553.01	1914.24
553.21	2244.78
553.42	2014.59
553.62	1968.51
553.82	1897.44
554.02	2427.66
554.22	2311.95
554.42	1880.44
554.62	2121.90
554.83	2422.54
555.03	2383.22
555.23	1992.06
555.43	2234.13
555.63	2164.29
555.83	2151.80
556.03	2079.71
556.23	1869.39
556.44	2132.55
556.64	2338.58
556.84	1732.79
557.04	1993.49
557.24	2147.91
557.44	2160.20
557.64	2055.55
557.84	1911.16
558.04	2073.57
558.25	2278.57
558.45	1914.44
558.65	1995.95
558.85	2144.84
559.05	1866.31
559.25	1990.01
559.45	2044.90
559.65	2517.57
559.85	2981.84
560.05	2016.84
560.26	2082.37
560.46	2102.24
560.66	2038.14
560.86	1952.33
561.06	1912.80
561.26	2383.63
561.46	2235.97
561.66	1979.98
561.86	2118.42
562.06	1990.83
562.26	2119.65
562.47	2027.49
562.67	1878.81
562.87	2280.00
563.07	1919.77
563.27	2036.70
563.47	2007.83
563.67	2067.42
563.87	2251.95
564.07	1916.69
564.27	1985.92
564.47	2135.01
564.67	2196.24
564.87	1945.78
565.08	2042.64
565.28	2042.64
565.48	2217.75
565.68	2059.23
565.88	2138.28
566.08	2480.70
566.28	2172.28
566.48	1878.40
566.68	2009.06
566.88	2106.54
567.08	2310.31
567.28	2025.03
567.48	2007.62
567.68	2221.43
567.88	1915.67
568.08	1986.73
568.28	2164.09
568.48	2131.73
568.68	2370.32
568.89	2044.08
569.09	1875.94
569.29	2294.54
569.49	2294.13
569.69	1911.37
569.89	1947.62
570.09	1828.22
570.29	2038.96
570.49	1895.40
570.69	1965.64
570.89	2313.39
571.09	2508.97
571.29	1868.36
571.49	2152.42
571.69	2225.12
571.89	2241.50
572.09	1991.65
572.29	2067.63
572.49	2263.82
572.69	2282.05
572.89	2052.06
573.09	1734.22
573.29	2132.35
573.49	2171.46
573.69	1967.28
573.89	2046.74
574.09	2091.80
574.29	2377.28
574.49	1992.88
574.69	1932.26
574.89	1965.44
575.09	2008.24
575.29	1858.53
575.49	2005.37
575.69	2208.32
575.89	1953.35
576.09	2002.30
576.29	2015.00
576.49	1953.56
576.69	2091.39
576.89	1958.88
577.09	2038.34
577.29	1904.82
577.49	2458.18
577.69	1939.02
577.89	2118.62
578.09	2149.75
578.29	1875.73
578.49	2026.06
578.69	1916.90
578.89	2328.34
579.09	2169.62
579.29	1922.43
579.49	2119.24
579.69	2081.97
579.89	2457.56
580.09	1795.04
580.29	1838.67
580.49	2063.12
580.69	1956.42
580.89	1934.31
581.09	1987.55
581.29	2064.15
581.49	2129.48
581.69	1927.34
581.89	1933.49
582.09	1995.54
582.28	1995.13
582.48	2098.55
582.68	2129.48
582.88	2396.12
583.08	2119.03
583.28	1999.02
583.48	1993.49
583.68	2022.57
583.88	2141.15
584.08	2030.36
584.28	2057.18
584.48	2506.30
584.68	2220.41
584.88	1985.10
585.08	2185.39
585.28	2300.89
585.48	2386.91
585.68	2075.21
585.87	2151.39
586.07	2230.03
586.27	2163.27
586.47	2072.95
586.67	1996.77
586.87	2134.60
587.07	2090.57
587.27	1924.89
587.47	2075.41
587.67	2452.85
587.87	2644.13
588.07	2066.20
588.27	1970.97
588.46	2301.51
588.66	2290.86
588.86	1986.94
589.06	2049.40
589.26	2276.52
589.46	2254.81
589.66	1911.78
589.86	1912.60
590.06	2092.41
590.26	2194.60
590.46	1943.93
590.66	2053.50
590.85	2015.00
591.05	2163.68
591.25	1880.44
591.45	1986.53
591.65	2219.79
591.85	2163.27
592.05	1936.97
592.25	2039.16
592.45	2303.15
592.64	2079.51
592.84	2026.47
593.04	1937.99
593.24	2615.87
593.44	2069.68
593.64	2030.36
593.84	2071.93
594.04	2083.40
594.24	2430.94
594.43	1979.36
594.63	1993.08
594.83	2317.48
595.03	2302.33
595.23	1919.97
595.43	1869.80
595.63	2036.50
595.83	2305.40
596.02	1811.63
596.22	2029.33
596.42	2207.51
596.62	2128.45
596.82	1970.76
597.02	2043.26
597.22	2400.63
597.41	2181.29
597.61	1932.26
597.81	2126.61
598.01	2271.40
598.21	2063.12
598.41	1887.82
598.61	1905.02
598.80	2169.41
599.00	2183.54
599.20	2163.68
599.40	1995.54
599.60	2086.88
599.80	2254.40
599.99	2136.44
600.19	1959.09
600.39	2145.66
600.59	2261.78
600.79	2076.23
600.99	2001.89
601.19	2449.78
601.38	2486.44
601.58	2059.23
601.78	1773.75
601.98	2231.67
602.18	2235.15
602.37	2231.67
602.57	2009.26
602.77	2250.31
602.97	2141.36
603.17	2171.05
603.37	2060.87
603.56	2304.37
603.76	2251.95
603.96	2018.27
604.16	2056.16
604.36	2406.57
604.56	2286.35
604.75	1930.42
604.95	2021.35
605.15	2346.36
605.35	2307.45
605.55	1957.24
605.74	1914.85
605.94	2331.61
606.14	2167.16
606.34	2005.78
606.54	2062.71
606.73	2073.77
606.93	2276.73
607.13	1926.93
607.33	2074.59
607.53	2426.02
607.72	2337.35
607.92	2100.40
608.12	2185.18
608.32	2139.10
608.51	2271.81
608.71	1882.08
608.91	2080.74
609.11	2250.72
609.31	2094.05
609.50	1984.69
609.70	2223.89
609.90	2317.48
610.10	2323.22
610.29	1956.22
610.49	1882.29
610.69	2248.46
610.89	2128.04
611.09	2001.48
611.28	2189.28
611.48	2334.68
611.68	2113.91
611.88	1978.95
612.07	1911.57
612.27	2277.34
612.47	2015.82
612.67	2033.84
612.86	2114.32
613.06	2151.80
613.26	1893.96
613.46	1925.91
613.65	2077.87
613.85	2629.39
614.05	2295.77
614.25	2128.86
614.44	2006.80
614.64	2146.48
614.84	2067.42
615.04	1948.64
615.23	1960.93
615.43	2238.84
615.63	2246.21
615.83	1921.81
616.02	1824.54
616.22	2250.92
616.42	1928.57
616.62	1890.07
616.81	2008.85
617.01	2153.44
617.21	2098.96
617.41	1872.87
617.60	2050.84
617.80	2233.92
618.00	2262.39
618.19	2115.55
618.39	2008.24
618.59	2253.18
618.79	2159.79
618.98	1858.12
619.18	1999.02
619.38	2532.93
619.57	2093.43
619.77	2018.89
619.97	1988.99
620.17	2044.90
620.36	1920.59
620.56	2148.52
620.76	1882.29
620.95	1936.97
621.15	2008.65
621.35	1876.76
621.54	1971.37
621.74	2159.38
621.94	1992.47
622.14	1888.23
622.33	1859.97
622.53	2086.88
622.73	2072.95
622.92	1852.80
623.12	1993.90
623.32	2491.97
623.51	2244.78
623.71	1885.36
623.91	2149.14
624.10	1988.58
624.30	2187.23
624.50	1857.71
624.69	1836.82
624.89	2839.51
625.09	2080.12
625.29	1768.42
625.48	1871.23
625.68	2165.73
625.88	2338.58
626.07	2034.45
626.27	1899.90
626.47	2055.96
626.66	1881.26
626.86	2020.32
627.06	2015.20
627.25	2163.06
627.45	2455.92
627.64	1976.49
627.84	2180.06
628.04	2033.43
628.23	2497.29
628.43	1884.34
628.63	1907.48
628.82	2039.78
629.02	2436.88
629.22	2027.08
629.41	2108.18
629.61	2123.95
629.81	2464.53
630.00	1949.26
630.20	1888.02
630.40	2142.79
630.59	2189.28
630.79	1993.90
630.98	1960.93
631.18	2106.95
631.38	2109.00
631.57	2127.02
631.77	1849.32
631.97	2166.34
632.16	2204.43
632.36	2020.32
632.56	2043.46
632.75	2180.27
632.95	2343.08
633.14	1854.23
633.34	2166.34
633.54	1851.36
633.73	2107.36
633.93	1983.25
634.12	1793.41
634.32	2628.98
634.52	2165.32
634.71	1813.27
634.91	2025.24
635.11	1935.54
635.30	2019.91
635.50	2009.26
635.69	1911.78
635.89	2447.32
636.09	2302.33
636.28	1903.18
636.48	1906.66
636.67	2225.94
636.87	2245.19
637.07	2027.49
637.26	1922.22
637.46	2184.98
637.65	2312.36
637.85	2031.18
638.04	1924.27
638.24	2037.52
638.44	2192.56
638.63	2044.08
638.83	1970.15
639.02	2187.64
639.22	2222.25
639.42	1942.09
639.61	1971.99
639.81	2148.93
640.00	2109.41
640.20	2113.09
640.39	2019.91
640.59	2491.97
640.79	2279.39
640.98	2036.70
641.18	1943.32
641.37	2077.66
641.57	2011.92
641.76	2018.68
641.96	1764.12
642.15	2111.66
642.35	2029.33
642.55	2015.00
642.74	1880.04
642.94	2266.28
643.13	2375.85
643.33	1959.70
643.52	1938.40
643.72	2052.88
643.91	2132.75
644.11	1897.65
644.31	1922.02
644.50	2038.34
644.70	2348.20
644.89	2013.77
645.09	2085.65
645.28	2157.94
645.48	2226.14
645.67	1908.91
645.87	1838.87
646.06	2081.97
646.26	2188.87
646.45	1794.02
646.65	1760.64
646.84	2471.28
647.04	2101.22
647.24	1873.28
647.43	1949.67
647.63	2150.57
647.82	2433.81
648.02	1901.54
648.21	1947.62
648.41	2387.93
648.60	2081.97
648.80	2104.29
648.99	1984.48
649.19	2045.51
649.38	1871.23
649.58	1987.76
649.77	2080.53
649.97	2335.50
650.16	2238.84
650.36	1762.07
650.55	2145.25
650.75	2210.78
650.94	2420.70
651.14	2012.95
651.33	2064.56
651.53	2437.90
651.72	2019.30
651.92	1993.08
652.11	1808.36
652.31	2237.82
652.50	2218.97
652.70	1998.61
652.89	1884.13
653.09	2414.56
653.28	2055.75
653.48	1770.88
653.67	1834.98
653.87	2690.42
654.06	2164.91
654.25	2211.40
654.45	1926.11
654.64	2072.54
654.84	2093.84
655.03	1780.50
655.23	2125.59
655.42	2267.31
655.62	2449.37
655.81	2095.28
656.01	1938.81
656.20	2331.20
656.40	2433.19
656.59	2030.15
656.79	2139.31
656.98	2207.30
657.17	2306.01
657.37	2011.92
657.56	1981.41
657.76	2234.13
657.95	2347.38
658.15	1666.64
658.34	2042.23
658.54	2142.99
658.73	1949.05
658.92	1973.01
659.12	1987.55
659.31	2235.36
659.51	1953.15
659.70	2025.44
659.90	1889.25
660.09	2294.54
660.29	2097.73
660.48	1885.77
660.67	2152.62
660.87	2039.16
661.06	2232.08
661.26	2048.38
661.45	2126.61
661.65	2216.93
661.84	2031.99
662.03	1927.14
662.23	1953.15
662.42	2490.33
662.62	1947.62
662.81	1857.30
663.00	1962.98
663.20	2176.79
663.39	2232.70
663.59	2085.65
663.78	1933.49
663.97	2091.59
664.17	2302.53
664.36	1862.42
664.56	1923.86
664.75	2299.87
664.94	2281.64
665.14	2037.11
665.33	1997.38
665.53	2141.56
665.72	2088.31
665.91	2093.23
666.11	1990.01
666.30	2162.04
666.50	2100.40
666.69	2028.72
666.88	1914.44
667.08	2154.87
667.27	2114.73
667.47	1976.29
667.66	1949.67
667.85	2299.05
668.05	2161.02
668.24	1906.66
668.43	2192.35
668.63	2084.83
668.82	2317.89
669.02	2093.43
669.21	1968.71
669.40	1913.42
669.60	2467.39
669.79	1839.28
669.98	2620.99
670.18	1983.46
670.37	1944.96
670.56	1997.18
670.76	2034.45
670.95	2107.36
671.15	2290.24
671.34	2017.66
671.53	1996.16
671.73	2049.81
671.92	2009.06
672.11	1907.89
672.31	1941.88
672.50	2166.96
672.69	1938.20
672.89	1736.06
673.08	1981.00
673.27	2254.40
673.47	2171.67
673.66	1991.04
673.85	1855.05
674.05	2122.11
674.24	2138.90
674.43	1839.69
674.63	2027.28
674.82	2520.03
675.01	1792.18
675.21	2084.63
675.40	1958.06
675.59	2028.31
675.79	2384.86
675.98	1946.59
676.17	2112.68
676.37	2167.16
676.56	2047.15
676.75	1950.90
676.95	2009.47
677.14	2087.70
677.33	2331.41
677.52	1841.94
677.72	1941.27
677.91	2196.24
678.10	1865.29
678.30	1886.79
678.49	1882.49
678.68	2540.30
678.88	1825.35
679.07	2135.62
679.26	1952.74
679.45	2475.18
679.65	2379.33
679.84	1783.37
680.03	1832.11
680.23	2085.65
680.42	2583.92
680.61	1854.85
680.81	1918.13
681.00	2148.93
681.19	2218.56
681.38	2073.16
681.58	2037.32
681.77	2075.41
681.96	2254.20
682.15	1887.61
682.35	2038.14
682.54	2183.13
682.73	1917.72
682.93	1882.70
683.12	1873.89
683.31	2268.33
683.50	2616.48
683.70	1884.13
683.89	2017.04
684.08	1973.83
684.27	2314.82
684.47	1869.39
684.66	1938.81
684.85	2485.41
685.04	2347.79
685.24	1896.01
685.43	1946.18
685.62	1843.79
685.81	2189.48
686.01	2029.13
686.20	1890.48
686.39	1891.71
686.58	2466.16
686.78	1998.41
686.97	1955.81
687.16	2286.97
687.35	2174.33
687.55	1908.71
687.74	1994.93
687.93	1923.45
688.12	2083.40
688.32	1976.29
688.51	1789.31
688.70	2187.44
688.89	1931.44
689.08	1819.62
689.28	1924.07
689.47	2126.00
689.66	2128.25
689.85	2049.81
690.05	1868.16
690.24	2015.20
690.43	2174.74
690.62	1987.55
690.81	1928.37
691.01	2107.97
691.20	2072.95
691.39	1822.28
691.58	2032.20
691.77	2410.05
691.97	2130.09
692.16	2024.01
692.35	1938.20
692.54	2014.59
692.73	2178.01
692.93	1980.39
693.12	2023.19
693.31	2193.78
693.50	2130.50
693.69	2044.90
693.89	1919.36
694.08	2359.67
694.27	2341.03
694.46	1914.44
694.65	1945.16
694.85	2234.74
695.04	2203.20
695.23	1937.79
695.42	2225.12
695.61	2412.30
695.80	2606.86
696.00	2593.75
696.19	2655.40
696.38	2402.27
696.57	2503.03
696.76	2372.57
696.95	2201.16
697.15	2598.46
697.34	2549.93
697.53	2103.26
697.72	2161.43
697.91	2149.75
698.10	2441.59
698.30	1997.18
698.49	1984.89
698.68	2182.32
698.87	2093.64
699.06	1914.44
699.25	1962.98
699.45	2301.10
699.64	2163.47
699.83	2148.11
700.02	1918.74
700.21	2215.08
700.40	2020.12
700.59	1931.85
700.79	1998.00
700.98	2250.72
701.17	2012.54
701.36	1926.11
701.55	1929.60
701.74	2309.49
701.93	1902.36
702.12	1946.80
702.32	1852.39
702.51	2261.78
702.70	2234.74
702.89	1984.69
703.08	1948.03
703.27	2317.48
703.46	2221.23
703.65	1855.66
703.85	1847.88
704.04	1982.02
704.23	2306.83
704.42	1877.17
704.61	1894.37
704.80	2404.32
704.99	2018.89
705.18	2017.45
705.37	1969.12
705.57	2267.31
705.76	2517.57
705.95	2195.42
706.14	2548.49
706.33	2804.08
706.52	3026.90
706.71	2360.69
706.90	2201.77
707.09	2436.67
707.28	2326.70
707.47	2000.46
707.67	2196.86
707.86	2098.35
708.05	2391.82
708.24	2017.25
708.43	2031.79
708.62	2094.46
708.81	2002.50
709.00	1905.84
709.19	1934.72
709.38	2294.34
709.57	1957.04
709.76	1964.82
709.96	1893.14
710.15	2351.48
710.34	2095.89
710.53	2068.04
710.72	1925.71
710.91	2337.14
711.10	2232.90
711.29	2028.92
711.48	1917.10
711.67	1927.55
711.86	2154.87
712.05	1791.36
712.24	1862.63
712.43	2232.49
712.62	2368.89
712.81	1981.61
713.00	2145.66
713.19	1921.20
713.39	2209.76
713.58	1850.75
713.77	2015.00
713.96	2239.66
714.15	2112.68
714.34	1967.69
714.53	1813.68
714.72	2466.98
714.91	1946.18
715.10	2013.77
715.29	1864.27
715.48	2628.57
715.67	2248.46
715.86	1957.45
716.05	1964.41
716.24	2072.13
716.43	2016.43
716.62	1857.30
716.81	1826.58
717.00	2050.43
717.19	2317.89
717.38	1921.61
717.57	1922.43
717.76	1851.77
717.95	2289.83
718.14	1967.07
718.33	2022.57
718.52	1869.80
718.71	1872.25
718.90	1860.17
719.09	1877.37
719.28	2135.83
719.47	2281.23
719.66	2037.93
719.85	2043.87
720.04	2060.46
720.23	2103.06
720.42	1897.24
720.61	2021.75
720.80	1893.35
720.99	2148.11
721.18	1920.79
721.37	1860.17
721.56	2049.81
721.75	2257.89
721.94	1840.71
722.13	1915.87
722.32	2036.09
722.51	2270.58
722.70	2003.12
722.89	2035.48
723.08	2128.04
723.27	2292.70
723.46	2034.45
723.65	2007.83
723.84	2022.57
724.03	2350.66
724.22	1824.13
724.41	1927.75
724.60	2086.47
724.79	2291.88
724.98	1997.59
725.16	1905.02
725.35	2240.89
725.54	1963.80
725.73	1959.70
725.92	1984.89
726.11	2087.29
726.30	2274.27
726.49	1945.78
726.68	1995.54
726.87	2235.77
727.06	2421.72
727.25	1977.31
727.44	2087.90
727.63	2148.11
727.82	2076.03
728.01	2017.45
728.20	2078.48
728.38	2383.22
728.57	2084.01
728.76	1916.90
728.95	2098.14
729.14	1917.10
729.33	1940.45
729.52	1724.80
729.71	1874.92
729.90	1953.35
730.09	2011.11
730.28	1923.45
730.47	1915.06
730.66	2287.79
730.84	2088.11
731.03	1964.00
731.22	1987.55
731.41	2115.14
731.60	2201.16
731.79	1750.81
731.98	1827.20
732.17	2236.38
732.36	2163.68
732.55	1910.55
732.73	1812.66
732.92	2314.41
733.11	2222.87
733.30	1867.95
733.49	1822.08
733.68	2207.30
733.87	2131.53
734.06	1805.90
734.25	1861.81
734.43	1984.07
734.62	2142.18
734.81	1897.03
735.00	1867.13
735.19	2042.85
735.38	2171.26
735.57	1821.67
735.76	2010.49
735.94	2148.52
736.13	2486.23
736.32	2014.59
736.51	1948.64
736.70	2446.50
736.89	2453.26
737.08	2155.28
737.27	2433.60
737.45	2875.76
737.64	2790.77
737.83	2873.30
738.02	2883.54
738.21	3019.53
738.40	2974.88
738.59	2450.19
738.77	2468.62
738.96	2355.57
739.15	2429.30
739.34	2346.97
739.53	2233.72
739.72	2502.62
739.90	2453.67
740.09	2008.44
740.28	2040.60
740.47	2301.51
740.66	2253.58
740.85	1886.18
741.03	1924.68
741.22	1972.40
741.41	2093.43
741.60	1790.33
741.79	2015.20
741.98	2309.08
742.16	2444.66
742.35	1966.46
742.54	2000.66
742.73	2454.90
742.92	2006.39
743.10	1782.55
743.29	1905.63
743.48	2550.54
743.67	1991.04
743.86	1782.35
744.05	1836.21
744.23	1940.25
744.42	1953.15
744.61	2002.09
744.80	1805.28
744.99	2011.92
745.17	1836.82
745.36	1798.94
745.55	2047.76
745.74	2116.17
745.93	1997.79
746.11	1858.53
746.30	1862.42
746.49	2275.09
746.68	1966.25
746.86	1943.11
747.05	1904.61
747.24	2188.05
747.43	2245.19
747.62	1853.82
747.80	1878.40
747.99	2309.49
748.18	2238.63
748.37	1977.31
748.56	2018.89
748.74	2284.10
748.93	2158.35
749.12	2248.87
749.31	2873.50
749.49	3422.36
749.68	3822.53
749.87	4071.57
750.06	3923.70
750.24	3994.36
750.43	3896.67
750.62	3807.58
750.81	4026.92
750.99	4224.14
751.18	4204.48
751.37	3584.56
751.56	3471.72
751.74	3789.56
751.93	3772.77
752.12	2780.94
752.31	2629.18
752.49	2675.06
752.68	2874.32
752.87	2351.27
753.06	2253.79
753.24	2272.84
753.43	2461.04
753.62	1972.19
753.81	1948.03
753.99	2469.44
754.18	2207.92
754.37	1910.14
754.55	1969.94
754.74	2424.59
754.93	1826.58
755.12	1901.33
755.30	1844.40
755.49	2291.27
755.68	2169.21
755.86	2022.16
756.05	1823.51
756.24	2411.89
756.43	1913.42
756.61	1890.48
756.80	1971.58
756.99	2349.63
757.17	2121.49
757.36	1876.14
757.55	1930.82
757.74	2212.01
757.92	2112.27
758.11	1841.94
758.30	1775.59
758.48	2060.26
758.67	1919.77
758.86	1960.93
759.04	1825.76
759.23	2031.79
759.42	2106.75
759.60	1880.24
759.79	1956.01
759.98	2063.94
760.16	1993.49
760.35	1911.98
760.54	1856.89
760.73	2135.83
760.91	1871.43
761.10	1914.03
761.29	2013.15
761.47	2083.81
761.66	2518.18
761.85	1974.04
762.03	2151.19
762.22	2578.60
762.41	3512.06
762.59	4266.94
762.78	4808.84
762.97	5816.85
763.15	5946.48
763.34	5411.35
763.52	4350.91
763.71	4386.13
763.90	4294.59
764.08	3757.00
764.27	3633.51
764.46	3782.19
764.64	3283.71
764.83	3064.79
765.02	2884.97
765.20	2880.67
765.39	2792.41
765.58	2219.59
765.76	2189.89
765.95	2299.46
766.13	2215.70
766.32	1945.98
766.51	1946.80
766.69	2920.61
766.88	2190.10
767.07	1844.81
767.25	1702.07
767.44	2270.79
767.62	2299.46
767.81	1857.71
768.00	1930.42
768.18	2103.47
768.37	2002.71
768.56	1744.05
768.74	1877.99
768.93	1892.94
769.11	2182.11
769.30	1990.63
769.49	1899.49
769.67	2106.54
769.86	2017.25
770.04	1904.41
770.23	1866.11
770.42	2350.66
770.60	2126.82
770.79	1833.34
770.97	1893.55
771.16	2384.86
771.35	2406.16
771.53	2442.00
771.72	2576.96
771.90	2935.76
772.09	3239.89
772.27	2877.19
772.46	2487.26
772.65	2846.88
772.83	2660.72
773.02	2539.07
773.20	2264.23
773.39	2570.20
773.58	2551.36
773.76	2120.47
773.95	2070.29
774.13	2351.68
774.32	2157.13
774.50	1966.87
774.69	2040.39
774.87	2072.75
775.06	2541.12
775.25	1925.50
775.43	1939.84
775.62	2180.06
775.80	2220.82
775.99	1997.59
776.17	1898.67
776.36	2137.46
776.54	2337.76
776.73	1915.26
776.92	2014.59
777.10	2302.74
777.29	2150.37
777.47	1899.90
777.66	1942.70
777.84	2131.32
778.03	2077.05
778.21	1865.70
778.40	2004.76
778.58	2195.01
778.77	2285.12
778.95	1836.82
779.14	1893.55
779.32	2435.03
779.51	2283.49
779.70	1906.04
779.88	1790.54
780.07	2058.00
780.25	2581.67
780.44	1947.82
780.62	2016.84
780.81	2216.72
780.99	2170.03
781.18	1885.16
781.36	1859.15
781.55	2087.49
781.73	2373.80
781.92	1794.02
782.10	1859.15
782.29	2207.10
782.47	2365.40
782.66	1904.82
782.84	1793.82
783.03	1987.14
783.21	2288.20
783.40	1872.87
783.58	1875.73
783.77	2027.08
783.95	2046.54
784.14	1870.00
784.32	1927.96
784.51	2299.05
784.69	1979.57
784.88	1791.77
785.06	1899.90
785.24	1880.44
785.43	2274.06
785.61	1990.22
785.80	1851.98
785.98	2185.39
786.17	2093.02
786.35	1801.80
786.54	2012.33
786.72	2243.34
786.91	2288.61
787.09	1926.73
787.28	1831.70
787.46	2137.06
787.65	2222.46
787.83	1774.16
788.01	1903.59
788.20	1895.80
788.38	2071.73
788.57	1896.01
788.75	1858.74
788.94	2427.05
789.12	2312.16
789.31	1957.45
789.49	2060.05
789.67	1993.29
789.86	2174.94
790.04	1854.44
790.23	1775.59
790.41	2474.77
790.60	2053.70
790.78	1871.84
790.96	1914.85
791.15	2232.90
791.33	2074.39
791.52	1947.21
791.70	1824.54
791.89	2116.17
792.07	2239.86
792.25	1929.80
792.44	1804.26
792.62	2295.57
792.81	2001.68
792.99	1918.13
793.17	1881.06
793.36	1949.26
793.54	2430.53
793.73	2262.39
793.91	2324.44
794.10	2792.61
794.28	2974.67
794.46	2683.66
794.65	2711.72
794.83	2480.50
795.01	2562.42
795.20	2501.59
795.38	2392.03
795.57	2524.53
795.75	2474.77
795.93	2194.60
796.12	2173.92
796.30	2380.15
796.49	2366.63
796.67	1958.27
796.85	2086.88
797.04	2200.95
797.22	2276.52
797.40	1872.66
797.59	1997.59
797.77	2130.09
797.96	1955.40
798.14	1851.36
798.32	1907.89
798.51	2246.62
798.69	2435.85
798.87	1926.32
799.06	1906.45
799.24	1896.62
799.42	2282.46
799.61	2157.94
799.79	2179.65
799.98	2766.40
800.16	2482.75
800.34	2629.80
800.53	2886.20
800.71	3030.99
800.89	3633.92
801.08	3282.07
801.26	3304.19
801.44	3084.65
801.63	2790.77
801.81	2723.18
801.99	2551.15
802.18	2623.65
802.36	2642.29
802.54	2462.68
802.73	2220.61
802.91	2420.70
803.09	2377.69
803.28	2277.75
803.46	2169.00
803.64	2528.42
803.83	1999.43
804.01	1928.78
804.19	1865.09
804.38	2263.82
804.56	2215.29
804.74	1937.38
804.92	1966.25
805.11	1956.22
805.29	2278.37
805.47	1883.72
805.66	1812.86
805.84	1901.33
806.02	2251.13
806.21	1857.10
806.39	2128.04
806.57	2250.72
806.76	2235.15
806.94	1960.52
807.12	1904.00
807.30	1957.86
807.49	2109.20
807.67	1965.64
807.85	2039.37
808.04	2240.89
808.22	2539.28
808.40	1846.24
808.58	1790.33
808.77	2176.58
808.95	2354.96
809.13	2000.66
809.31	2508.15
809.50	2980.20
809.68	3226.78
809.86	3045.94
810.05	3224.12
810.23	3915.10
810.41	4556.53
810.59	6784.31
810.78	8160.95
810.96	9555.41
811.14	10283.67
811.32	9668.87
811.51	7991.99
811.69	6879.95
811.87	6964.12
812.05	6043.35
812.24	5706.26
812.42	5698.88
812.60	5302.81
812.78	4409.89
812.97	4014.02
813.15	4194.44
813.33	3689.83
813.51	3343.10
813.70	2791.38
813.88	2675.06
814.06	2603.58
814.24	2295.57
814.42	2008.85
814.61	2267.92
814.79	2509.58
814.97	1873.89
815.15	1916.49
815.34	2169.41
815.52	2274.06
815.70	1879.63
815.88	1963.18
816.06	1945.16
816.25	2017.86
816.43	1901.74
816.61	2028.72
816.79	2350.04
816.98	1812.25
817.16	1819.21
817.34	1823.10
817.52	2120.67
817.70	2367.66
817.89	1980.18
818.07	1817.57
818.25	2074.80
818.43	2125.18
818.61	1911.37
818.80	1857.10
818.98	2428.89
819.16	2104.90
819.34	1810.40
819.52	2186.00
819.70	1949.87
819.89	2087.29
820.07	1799.14
820.25	1796.68
820.43	2146.07
820.61	2282.87
820.80	1926.32
820.98	1819.01
821.16	1837.23
821.34	1906.86
821.52	1905.02
821.70	2071.93
821.89	2123.74
822.07	2052.27
822.25	1974.04
822.43	1883.31
822.61	2346.56
822.79	2140.95
822.98	1926.73
823.16	1754.09
823.34	2161.63
823.52	2320.55
823.70	1979.16
823.88	1766.78
824.06	2201.36
824.25	2082.99
824.43	2030.77
824.61	1809.79
824.79	2105.93
824.97	2110.43
825.15	2019.30
825.33	2235.56
825.52	2509.17
825.70	2387.73
825.88	2300.28
826.06	2385.47
826.24	2543.78
826.42	2606.04
826.60	2244.37
826.78	2273.86
826.97	2286.56
827.15	2538.46
827.33	2059.64
827.51	2117.39
827.69	2130.91
827.87	2277.96
828.05	2092.41
828.23	1916.49
828.41	2318.71
828.60	2263.01
828.78	1839.28
828.96	2042.03
829.14	2020.12
829.32	2090.98
829.50	1913.83
829.68	1910.55
829.86	2016.02
830.04	2196.04
830.22	2035.48
830.41	1828.63
830.59	2082.78
830.77	2236.18
830.95	1887.82
831.13	1903.79
831.31	1958.06
831.49	2239.45
831.67	2077.05
831.85	2053.29
832.03	2071.52
832.21	2216.72
832.39	1813.27
832.57	1832.52
832.76	2270.79
832.94	2068.86
833.12	1747.12
833.30	1883.93
833.48	2313.80
833.66	2169.21
833.84	1899.29
834.02	1944.75
834.20	2242.94
834.38	2225.53
834.56	1774.56
834.74	1863.86
834.92	1890.89
835.10	2394.89
835.28	1928.57
835.46	1954.58
835.64	2083.40
835.82	1973.42
836.01	2208.12
836.19	2118.21
836.37	2019.71
836.55	1936.56
836.73	1867.54
836.91	1820.23
837.09	2224.30
837.27	2357.21
837.45	1772.72
837.63	1806.92
837.81	1885.36
837.99	2119.03
838.17	2024.21
838.35	1829.45
838.53	2478.45
838.71	2181.09
838.89	1842.35
839.07	1845.83
839.25	2111.46
839.43	2253.58
839.61	1963.39
839.79	2335.30
839.97	2747.15
840.15	2917.54
840.33	2786.26
840.51	3014.20
840.69	2933.51
840.87	2777.86
841.05	2591.50
841.23	2568.77
841.41	2980.20
841.59	3701.29
841.77	3658.29
841.95	3871.07
842.13	4391.87
842.31	4054.36
842.49	3456.36
842.67	3245.62
842.85	3432.60
843.03	3007.03
843.21	2815.14
843.39	2888.86
843.57	2874.32
843.75	2784.62
843.93	2411.28
844.11	2417.83
844.29	2504.05
844.47	2381.99
844.65	2343.49
844.83	2152.21
845.01	2234.33
845.19	2375.64
845.36	2054.73
845.54	2041.82
845.72	2173.92
845.90	2257.07
846.08	1894.37
846.26	2006.60
846.44	2194.19
846.62	2211.60
846.80	2019.09
846.98	1891.71
847.16	2076.64
847.34	2162.86
847.52	1892.32
847.70	1788.70
847.88	2081.76
848.06	2370.73
848.24	2054.11
848.41	1822.90
848.59	2272.02
848.77	2165.73
848.95	1885.16
849.13	1891.09
849.31	2215.70
849.49	2138.69
849.67	1873.48
849.85	1806.10
850.03	2155.49
850.21	2144.22
850.39	1806.92
850.57	2053.29
850.74	2385.68
850.92	2354.55
851.10	2110.64
851.28	2101.22
851.46	2460.22
851.64	2831.93
851.82	2277.75
852.00	2351.48
852.18	2669.94
852.36	2477.63
852.53	2184.16
852.71	2218.36
852.89	2375.44
853.07	2396.94
853.25	2031.99
853.43	1931.23
853.61	2234.13
853.79	2255.84
853.97	1919.36
854.14	1947.82
854.32	2366.84
854.50	2275.50
854.68	1949.87
854.86	1925.50
855.04	2007.01
855.22	2251.13
855.40	1787.67
855.57	1879.22
855.75	2224.71
855.93	2198.90
856.11	1784.60
856.29	1906.66
856.47	1984.89
856.65	2156.72
856.82	1874.51
857.00	1794.02
857.18	2090.36
857.36	2002.30
857.54	1975.88
857.72	2062.71
857.89	2216.31
858.07	2165.73
858.25	2104.49
858.43	1834.37
858.61	2088.11
858.79	2090.77
858.97	1856.89
859.14	1998.61
859.32	2076.64
859.50	2030.15
859.68	1975.27
859.86	1858.53
860.03	2098.96
860.21	2198.70
860.39	1874.10
860.57	2055.75
860.75	2194.40
860.93	2402.27
861.10	2073.36
861.28	1859.15
861.46	2162.66
861.64	2184.77
861.82	1875.32
861.99	2007.01
862.17	2270.58
862.35	2282.26
862.53	1947.21
862.71	1937.17
862.88	2154.46
863.06	2229.21
863.24	1878.81
863.42	1870.61
863.60	2046.54
863.77	2198.49
863.95	1763.51
864.13	1911.37
864.31	2055.75
864.49	2235.36
864.66	1849.32
864.84	1862.42
865.02	2145.45
865.20	2528.01
865.37	2005.58
865.55	1862.22
865.73	1907.48
865.91	2212.83
866.09	2074.18
866.26	1983.25
866.44	2269.56
866.62	2103.06
866.80	1854.03
866.97	1916.08
867.15	2089.75
867.33	2148.32
867.51	1976.09
867.68	1927.96
867.86	2034.04
868.04	1988.37
868.22	1704.11
868.39	1934.10
868.57	2177.81
868.75	2366.63
868.93	1769.24
869.10	1862.01
869.28	2407.18
869.46	2330.59
869.64	1922.22
869.81	1890.89
869.99	2139.72
870.17	2156.92
870.35	1825.76
870.52	1907.07
870.70	2298.03
870.88	2003.73
871.05	1826.99
871.23	1737.50
871.41	2088.52
871.59	2085.45
871.76	1889.46
871.94	1828.22
872.12	2114.53
872.29	1869.59
872.47	1902.56
872.65	1842.15
872.83	2146.27
873.00	2369.91
873.18	1905.63
873.36	1842.35
873.53	2215.49
873.71	1883.11
873.89	1801.60
874.06	1898.88
874.24	2169.41
874.42	2330.79
874.60	2042.64
874.77	2001.89
874.95	2005.37
875.13	2290.04
875.30	1875.32
875.48	1830.27
875.66	2389.16
875.83	1969.33
876.01	1842.15
876.19	1988.78
876.36	1931.23
876.54	2100.19
876.72	1823.72
876.89	1985.30
877.07	2234.13
877.25	1813.89
877.42	1926.52
877.60	1882.08
877.78	2449.78
877.95	2035.89
878.13	1827.61
878.31	2013.97
878.48	2272.02
878.66	2227.17
878.84	1887.82
879.01	1899.70
879.19	2162.65
879.37	2242.12
879.54	1897.85
879.72	1768.22
879.90	1780.09
880.07	2241.30
880.25	1674.42
880.42	2037.73
880.60	2165.32
880.78	2233.72
880.95	1879.63
881.13	1956.42
881.31	2128.86
881.48	2034.45
881.66	1839.69
881.83	1995.54
882.01	1977.31
882.19	1899.70
882.36	1912.19
882.54	1863.04
882.72	2217.54
882.89	2122.51
883.07	1826.99
883.24	1877.58
883.42	2255.02
883.60	2120.67
883.77	1829.66
883.95	1906.66
884.12	2229.62
884.30	2168.39
884.48	2020.12
884.65	1894.99
884.83	2121.49
885.00	2139.31
885.18	1788.70
885.36	1856.07
885.53	2202.59
885.71	2339.19
885.88	1798.32
886.06	1885.77
886.23	2209.76
886.41	2006.80
886.59	1895.80
886.76	1816.96
886.94	2229.83
887.11	2623.24
887.29	1935.13
887.47	1803.24
887.64	2304.58
887.82	2328.54
887.99	1722.55
888.17	1931.64
888.34	2050.63
888.52	1911.98
888.69	1855.46
888.87	1795.45
889.05	2053.91
889.22	2051.04
889.40	1881.06
889.57	2141.77
889.75	2388.75
889.92	2057.59
890.10	1808.56
890.27	1965.85
890.45	1980.39
890.62	1823.51
890.80	1798.32
890.98	1710.87
891.15	2397.97
891.33	2286.35
891.50	1838.67
891.68	1759.61
891.85	2268.33
892.03	2224.30
892.20	1838.26
892.38	1809.79
892.55	2218.56
892.73	2223.48
892.90	1750.81
893.08	1848.29
893.25	1978.13
893.43	2008.44
893.60	1941.27
893.78	1701.66
893.95	2175.35
894.13	2094.25
894.30	1835.39
894.48	1899.49
894.65	2238.02
894.83	2138.49
895.00	1719.88
895.18	1731.97
895.35	2295.77
895.53	2235.97
895.70	1805.08
895.88	1977.11
896.05	2185.18
896.23	1873.28
896.40	1875.32
896.58	1931.23
896.75	2226.55
896.93	2339.80
897.10	1897.03
897.28	1758.18
897.45	2161.63
897.63	2232.29
897.80	1982.23
897.98	1835.18
898.15	2198.90
898.33	2010.90
898.50	1899.90
898.67	1889.87
898.85	2051.86
899.02	2184.16
899.20	2094.05
899.37	1889.66
899.55	2113.50
899.72	2350.04
899.90	1852.80
900.07	1808.56
900.25	2217.13
900.42	2306.42
900.59	1837.85
900.77	1981.41
900.94	2193.37
901.12	2158.35
901.29	1895.60
901.47	2010.49
901.64	2194.19
901.82	2096.30
901.99	1676.67
902.16	1834.57
902.34	2308.88
902.51	2169.21
902.69	1861.60
902.86	1908.71
903.03	2735.88
903.21	2102.24
903.38	1879.63
903.56	1848.91
903.73	2278.98
903.91	2030.15
904.08	1803.44
904.25	1693.67
904.43	1969.53
904.60	2263.82
904.78	1887.00
904.95	1807.74
905.12	2057.59
905.30	2385.27
905.47	1952.12
905.65	2031.59
905.82	2080.12
905.99	2209.55
906.17	1884.54
906.34	1832.52
906.52	1932.46
906.69	2195.63
906.86	1917.10
907.04	1952.94
907.21	2264.03
907.38	2266.69
907.56	1799.96
907.73	1815.32
907.91	2356.19
908.08	2291.68
908.25	1882.29
908.43	1779.28
908.60	2184.16
908.77	2134.80
908.95	1889.46
909.12	1783.37
909.30	2216.31
909.47	1853.62
909.64	1893.76
909.82	2077.46
909.99	2052.88
910.16	2115.55
910.34	1838.05
910.51	1845.42
910.68	2147.09
910.86	2092.61
911.03	1772.72
911.20	1873.48
911.38	2489.10
911.55	2975.08
911.72	2950.10
911.90	2929.21
912.07	3419.90
912.24	3522.71
912.42	2799.37
912.59	2431.35
912.76	2721.55
912.94	2512.45
913.11	2185.18
913.28	2063.74
913.46	2085.04
913.63	2291.27
913.80	2324.44
913.98	1938.40
914.15	2354.55
914.32	2403.70
914.49	2029.95
914.67	1870.21
914.84	2181.70
915.01	2273.86
915.19	2010.29
915.36	1886.38
915.53	2290.04
915.71	2215.49
915.88	1951.51
916.05	1854.85
916.22	2278.98
916.40	2126.41
916.57	1788.90
916.74	2002.71
916.92	2385.88
917.09	1919.97
917.26	1819.62
917.43	1786.03
917.61	2034.04
917.78	1846.45
917.95	1816.14
918.13	1789.52
918.30	2506.92
918.47	2120.88
918.64	1786.65
918.82	1792.38
918.99	2062.71
919.16	2375.23
919.33	1906.45
919.51	1870.61
919.68	2039.16
919.85	2288.81
920.02	1760.84
920.20	1906.25
920.37	2378.10
920.54	2249.08
920.71	1826.17
920.89	1856.48
921.06	2403.70
921.23	1968.71
921.40	1794.64
921.58	1962.57
921.75	2712.94
921.92	2089.34
922.09	2041.82
922.27	1996.56
922.44	2178.83
922.61	2243.34
922.78	1888.43
922.96	1879.01
923.13	2089.34
923.30	2278.77
923.47	1796.68
923.64	1823.51
923.82	2194.19
923.99	2138.49
924.16	1977.31
924.33	1800.57
924.50	2126.82
924.68	2396.12
924.85	1821.05
925.02	1880.44
925.19	2211.40
925.36	2134.60
925.54	1912.60
925.71	1912.19
925.88	2650.07
926.05	2046.54
926.22	1816.34
926.40	1961.54
926.57	2145.45
926.74	2227.99
926.91	1865.09
927.08	2044.69
927.26	2260.96
927.43	2110.84
927.60	1860.99
927.77	1894.37
927.94	2403.29
928.11	2288.81
928.29	1739.34
928.46	1897.44
928.63	1965.85
928.80	2046.74
928.97	1934.92
929.14	1841.53
929.32	2502.62
929.49	2131.53
929.66	1810.61
929.83	1771.29
930.00	2027.08
930.17	2187.03
930.35	1792.38
930.52	1845.63
930.69	2375.03
930.86	1934.92
931.03	1882.08
931.20	1671.35
931.37	2291.47
931.55	2101.83
931.72	1902.77
931.89	1760.64
932.06	1917.31
932.23	2389.16
932.40	1960.11
932.57	1999.84
932.74	2331.82
932.92	2292.50
933.09	2007.21
933.26	1597.62
933.43	2026.87
933.60	2148.32
933.77	1893.76
933.94	1971.37
934.11	2054.73
934.29	2132.14
934.46	1799.35
934.63	1956.22
934.80	1869.18
934.97	2071.73
935.14	1867.34
935.31	1719.06
935.48	1965.23
935.65	2149.34
935.82	1904.41
936.00	1752.86
936.17	2362.13
936.34	2051.04
936.51	1941.06
936.68	1748.76
936.85	2137.46
937.02	2141.15
937.19	1961.13
937.36	1897.24
937.53	2149.96
937.70	2251.13
937.87	1850.95
938.05	1999.64
938.22	2121.90
938.39	1914.65
938.56	1900.72
938.73	1769.24
938.90	2044.28
939.07	1987.76
939.24	1976.49
939.41	1696.54
939.58	2168.80
939.75	2176.58
939.92	1824.54
940.09	2110.84
940.26	2049.20
940.43	2272.63
940.60	1899.08
940.77	1877.37
940.95	2164.29
941.12	2225.12
941.29	1882.70
941.46	1882.90
941.63	2321.37
941.80	2356.39
941.97	1739.95
942.14	1728.49
942.31	2208.12
942.48	2096.71
942.65	1959.70
942.82	1949.67
942.99	2210.78
943.16	2127.63
943.33	1783.17
943.50	1839.69
943.67	2241.91
943.84	2314.41
944.01	1831.09
944.18	1804.06
944.35	2367.25
944.52	1978.75
944.69	1936.97
944.86	1777.84
945.03	2229.62
945.20	2531.90
945.37	1674.21
945.54	1913.21
945.71	2310.72
945.88	2391.82
946.05	1834.98
946.22	1774.77
946.39	2347.38
946.56	2080.53
946.73	1719.68
946.90	1781.73
947.07	2009.06
947.24	2070.91
947.41	1713.33
947.58	1972.60
947.75	2236.59
947.92	2147.50
948.09	1657.42
948.26	1763.51
948.43	2129.89
948.60	2438.93
948.77	1827.20
948.94	1883.31
949.11	2255.43
949.27	2203.82
949.44	1827.20
949.61	1767.60
949.78	2142.58
949.95	2317.69
950.12	1742.62
950.29	1736.88
950.46	2029.54
950.63	2286.56
950.80	1793.82
950.97	1851.36
951.14	2290.04
951.31	2059.85
951.48	1805.69
951.65	1743.85
951.82	2448.14
951.99	2149.55
952.15	1775.59
952.32	1859.15
952.49	2009.47
952.66	2022.98
952.83	1828.22
953.00	1768.22
953.17	2092.82
953.34	2260.96
953.51	1914.85
953.68	1900.11
953.85	2281.03
954.02	2317.69
954.18	1909.73
954.35	1833.96
954.52	1950.08
954.69	2144.63
954.86	1731.35
955.03	1918.74
955.20	2241.30
955.37	2095.48
955.54	1843.17
955.71	1817.57
955.87	2173.92
956.04	2411.89
956.21	1824.13
956.38	1794.23
956.55	2139.92
956.72	2598.05
956.89	1908.09
957.06	1791.97
957.23	2002.50
957.39	2343.49
957.56	1883.11
957.73	1787.26
957.90	1762.89
958.07	2441.59
958.24	1864.88
958.41	1840.92
958.57	2245.80
958.74	2110.43
958.91	1759.00
959.08	1827.81
959.25	2231.26
959.42	2072.95
959.59	1879.63
959.75	1868.57
959.92	2292.09
960.09	2272.84
960.26	1806.51
960.43	1898.26
960.60	2165.73
960.76	2064.56
960.93	1741.80
961.10	1918.33
961.27	2295.16
961.44	2077.87
961.61	1741.59
961.77	1751.63
961.94	2143.20
962.11	2226.14
962.28	1823.10
962.45	1775.79
962.62	2090.36
962.78	2277.75
962.95	1730.74
963.12	1840.10
963.29	2190.10
963.46	2606.04
963.62	1912.39
963.79	1821.67
963.96	2582.90
964.13	2018.68
964.30	1943.73
964.46	1840.92
964.63	1937.17
964.80	2574.50
964.97	1677.70
965.14	1977.52
965.30	2160.20
965.47	2267.72
965.64	2044.28
965.81	1970.35
965.98	2375.23
966.14	2154.46
966.31	1825.97
966.48	1829.86
966.65	2341.65
966.81	2167.77
966.98	1864.68
967.15	1838.46
967.32	2127.23
967.49	1960.52
967.65	1687.94
967.82	1681.59
967.99	2090.57
968.16	1828.84
968.32	1994.72
968.49	1812.86
968.66	2078.07
968.83	2399.60
968.99	1943.32
969.16	1775.79
969.33	2337.14
969.50	2181.09
969.66	1959.09
969.83	2110.43
970.00	2239.45
970.17	2209.35
970.33	1864.27
970.50	1761.46
970.67	2374.62
970.84	2392.85
971.00	1750.81
971.17	1745.07
971.34	2199.93
971.50	2109.20
971.67	1930.62
971.84	1846.45
972.01	1920.99
972.17	1779.48
972.34	1738.93
972.51	1974.65
972.67	2329.77
972.84	2166.55
973.01	1783.78
973.18	1803.24
973.34	2239.45
973.51	1957.45
973.68	1859.76
973.84	1865.70
974.01	2034.66
974.18	2404.52
974.34	1903.79
974.51	1925.71
974.68	1976.49
974.85	2482.55
975.01	1953.56
975.18	1838.26
975.35	2112.68
975.51	2001.48
975.68	1728.90
975.85	2002.09
976.01	2025.24
976.18	2375.44
976.35	1862.01
976.51	1888.23
976.68	2378.51
976.85	2320.76
977.01	1860.58
977.18	1909.94
977.35	2245.39
977.51	1906.45
977.68	1671.76
977.85	1745.28
978.01	2300.48
978.18	2220.82
978.35	1876.96
978.51	1897.03
978.68	2285.12
978.85	2382.61
979.01	1881.88
979.18	1871.64
979.34	2048.58
979.51	2127.23
979.68	1788.49
979.84	1906.86
980.01	2537.23
980.18	2133.16
980.34	1787.26
980.51	1924.68
980.67	2247.44
980.84	2261.37
981.01	1850.34
981.17	1893.35
981.34	1807.13
981.51	2215.49
981.67	1771.49
981.84	1964.00
982.00	2205.66
982.17	2089.13
982.34	1700.22
982.50	1578.37
982.67	2389.77
982.83	2014.59
983.00	1736.88
983.17	1633.26
983.33	2321.99
983.50	1837.85
983.66	1733.40
983.83	1616.26
984.00	2058.21
984.16	2131.12
984.33	1658.45
984.49	1616.67
984.66	1973.83
984.83	2250.10
984.99	1654.35
985.16	1596.19
985.32	2187.44
985.49	2245.80
985.65	1783.17
985.82	1631.62
985.99	2355.16
986.15	2134.19
986.32	1758.80
986.48	1671.14
986.65	2028.72
986.81	2251.13
986.98	1648.00
987.14	1736.88
987.31	2128.66
987.48	1837.03
987.64	1566.90
987.81	1601.92
987.97	2485.41
988.14	1951.30
988.30	1649.23
988.47	1533.52
988.63	2167.77
988.80	1935.74
988.96	1727.46
989.13	1755.31
989.30	2063.33
989.46	2263.42
989.63	1598.64
989.79	1601.31
989.96	2116.17
990.12	2352.09
990.29	1646.36
990.45	1751.63
990.62	2098.96
990.78	2318.51
990.95	1764.73
991.11	1676.67
991.28	2029.74
991.44	2159.99
991.61	1571.61
991.77	1730.12
991.94	2125.79
992.10	2311.13
992.27	1705.96
992.43	1711.90
992.60	2199.52
992.76	2044.08
992.93	1903.59
993.09	1596.19
993.26	2266.08
993.42	2431.14
993.59	1676.06
993.75	1575.50
993.92	1995.34
994.08	1974.04
994.25	1724.59
994.41	1637.35
994.58	2215.90
994.74	2371.96
994.91	1603.76
995.07	1794.43
995.24	2076.23
995.40	2090.36
995.56	1817.57
995.73	1744.05
995.89	2428.28
996.06	2084.83
996.22	1633.87
996.39	1600.49
996.55	2085.86
996.72	2179.45
996.88	1627.73
997.05	1610.32
997.21	2473.54
997.37	2215.08
997.54	1763.71
997.70	1684.66
997.87	2167.57
998.03	2096.10
998.20	1559.12
998.36	1564.24
998.52	2239.86
998.69	2251.33
998.85	1587.38
999.02	1682.61
999.18	2271.61
999.35	2268.74
999.51	1708.83
999.67	1683.84
999.84	1917.72
1000.00	2228.80
1000.17	1761.87
1000.33	1635.10
1000.49	2021.96
1000.66	2073.77
1000.82	1667.87
1000.99	1713.95
1001.15	2307.65
1001.31	2053.09
1001.48	1664.38
1001.64	1742.41
1001.81	2071.93
1001.97	2439.54
1002.13	1697.97
1002.30	1695.72
1002.46	2354.55
1002.63	2050.63
1002.79	1756.75
1002.95	1638.78
1003.12	2268.33
1003.28	2178.42
1003.45	1660.90
1003.61	1632.85
1003.77	2140.13
1003.94	1885.56
1004.10	1689.16
1004.26	1731.15
1004.43	2216.72
1004.59	2398.58
1004.75	1661.52
1004.92	1598.03
1005.08	2034.86
1005.25	2129.89
1005.41	1654.14
1005.57	1736.27
1005.74	2302.53
1005.90	2008.85
1006.06	1805.49
1006.23	1680.36
1006.39	2224.91
1006.55	2596.01
1006.72	1813.89
1006.88	1609.70
1007.04	1954.58
1007.21	2076.23
1007.37	1705.34
1007.53	1663.57
1007.70	2388.34
1007.86	2253.79
1008.02	1763.92
1008.19	1618.71
1008.35	2124.36
1008.51	1948.44
1008.68	1657.83
1008.84	1603.97
1009.00	1956.42
1009.17	2294.95
1009.33	1858.33
1009.49	1786.03
1009.65	1978.75
1009.82	2177.40
1009.98	1737.09
1010.14	1593.11
1010.31	2220.20
1010.47	2196.86
1010.63	1749.37
1010.80	1733.81
1010.96	2181.29
1011.12	2056.57
1011.28	1679.95
1011.45	1642.47
1011.61	2607.06
1011.77	1940.25
1011.94	1619.33
1012.10	1643.90
1012.26	1931.03
1012.42	2017.66
1012.59	1751.22
1012.75	1702.48
1012.91	2037.52
1013.07	2241.50
1013.24	1653.12
1013.40	1661.52
1013.56	2121.90
1013.72	2079.30
1013.89	1721.73
1014.05	1751.83
1014.21	2451.01
1014.37	2545.63
1014.54	1728.08
1014.70	1606.22
1014.86	2081.15
1015.02	1935.74
1015.19	1693.87
1015.35	1620.35
1015.51	2067.63
1015.67	2033.84
1015.84	1680.36
1016.00	1698.38
1016.16	2296.59
1016.32	2231.88
1016.49	1686.91
1016.65	1618.10
1016.81	2080.53
1016.97	2209.76
1017.14	1789.92
1017.30	1666.02
1017.46	1983.66
1017.62	2123.13
1017.78	1740.16
1017.95	1657.63
1018.11	2239.86
1018.27	2547.06
1018.43	1819.42
1018.59	1765.14
1018.76	2238.63
1018.92	2620.99
1019.08	1620.35
1019.24	1704.32
1019.40	2329.15
1019.57	2154.05
1019.73	1768.01
1019.89	1689.57
1020.05	2160.20
1020.21	2456.54
1020.38	1674.21
1020.54	1849.93
1020.70	2238.84
1020.86	2232.49
1021.02	1658.04
1021.18	1677.70
1021.35	2001.28
1021.51	2179.45
1021.67	1842.97
1021.83	1746.71
1021.99	2098.14
1022.15	2149.75
1022.32	1743.03
1022.48	1728.49
1022.64	2323.42
1022.80	2375.64
1022.96	1749.17
1023.12	1606.84
1023.29	2302.12
1023.45	2158.35
1023.61	1665.41
1023.77	1888.02
1023.93	2150.16
1024.09	1983.46
1024.25	1652.92
1024.42	1587.99
1024.58	2020.53
1024.74	2164.29
1024.90	1693.87
1025.06	1776.00
1025.22	2029.54
1025.38	2418.86
1025.54	1613.59
1025.71	1808.15
1025.87	2201.98
1026.03	2179.65
1026.19	1622.81
1026.35	1874.51
1026.51	2216.93
1026.67	2103.88
1026.83	1748.15
1026.99	1827.20
1027.16	2195.42
1027.32	2081.35
1027.48	1706.37
1027.64	1659.26
1027.80	2243.34
1027.96	2142.38
1028.12	1681.18
1028.28	1683.02
1028.44	2157.54
1028.60	2368.48
1028.77	1814.71
1028.93	1738.32
1029.09	2027.90
1029.25	1963.18
1029.41	1719.47
1029.57	1785.42
1029.73	2171.05
1029.89	2389.37
1030.05	1809.99
1030.21	1761.05
1030.37	2511.42
1030.53	2224.50
1030.69	1726.85
1030.85	1626.50
1031.02	1945.98
1031.18	2108.79
1031.34	1700.43
1031.50	1785.21
1031.66	1970.76
1031.82	2385.68
1031.98	1732.17
1032.14	1638.78
1032.30	1953.15
1032.46	2235.15
1032.62	1808.36
1032.78	1601.31
1032.94	2011.92
1033.10	2047.15
1033.26	1747.12
1033.42	1843.99
1033.58	2497.09
1033.74	2035.07
1033.90	1693.47
1034.06	1836.00
1034.22	2491.76
1034.38	2290.86
1034.54	1736.68
1034.70	1744.87
1034.86	2465.96
>>>>>End Processed Spectral Data<<<<<
