SpectraSuite Data File
++++++++++++++++++++++++++++++++++++
Date: Thu Mar 30 16:10:08 PDT 2017
User: UCSD _CER
Dark Spectrum Present: No
Reference Spectrum Present: No
Number of Sampled Component Spectra: 1
Spectrometers: USB4C00073
Integration Time (usec): 250000 (USB4C00073)
Spectra Averaged: 10 (USB4C00073)
Boxcar Smoothing: 0 (USB4C00073)
Correct for Electrical Dark: No (USB4C00073)
Strobe/Lamp Enabled: No (USB4C00073)
Correct for Detector Non-linearity: No (USB4C00073)
Correct for Stray Light: No (USB4C00073)
Number of Pixels in Processed Spectrum: 3648
>>>>>Begin Processed Spectral Data<<<<<
345.37	1287.35
345.58	1287.35
345.80	1287.35
346.01	1262.16
346.22	1277.32
346.43	2001.48
346.65	1785.62
346.86	2128.45
347.07	2073.98
347.28	1784.40
347.50	1790.54
347.71	1932.46
347.92	1719.68
348.13	1807.33
348.35	1719.47
348.56	1944.14
348.77	1780.30
348.98	1802.83
349.20	1659.67
349.41	1936.15
349.62	1957.24
349.83	1857.92
350.05	1722.14
350.26	1948.64
350.47	2094.66
350.68	1781.53
350.90	1704.11
351.11	2102.65
351.32	2068.04
351.53	1802.42
351.75	1742.21
351.96	1943.11
352.17	1907.68
352.38	1851.77
352.60	1880.65
352.81	1919.56
353.02	2109.82
353.23	1761.46
353.44	1807.33
353.66	1862.63
353.87	1831.70
354.08	1888.84
354.29	1799.96
354.51	1837.44
354.72	1858.33
354.93	1760.64
355.14	1685.68
355.35	1706.78
355.57	2001.89
355.78	1758.59
355.99	1830.88
356.20	1878.40
356.42	1856.69
356.63	1858.74
356.84	1809.18
357.05	1988.17
357.26	2171.26
357.48	1875.53
357.69	1839.08
357.90	1935.94
358.11	1854.64
358.32	1789.92
358.54	1831.09
358.75	1840.10
358.96	1992.47
359.17	1772.31
359.38	1768.01
359.60	1996.16
359.81	1903.79
360.02	1803.65
360.23	1729.30
360.44	1807.54
360.66	2011.31
360.87	1744.46
361.08	1748.76
361.29	1957.65
361.50	1913.83
361.72	1780.30
361.93	1860.58
362.14	1908.30
362.35	1746.92
362.56	1917.51
362.77	1679.95
362.99	2000.87
363.20	1898.67
363.41	1843.99
363.62	1699.20
363.83	1994.93
364.05	1975.88
364.26	1669.50
364.47	1782.14
364.68	2073.98
364.89	1815.52
365.10	1701.45
365.32	1830.47
365.53	1814.50
365.74	1828.84
365.95	1783.99
366.16	1697.56
366.37	1879.01
366.59	1870.41
366.80	1798.32
367.01	1657.22
367.22	2148.93
367.43	2266.49
367.64	1830.27
367.86	1774.77
368.07	1960.73
368.28	2048.38
368.49	1742.21
368.70	1810.40
368.91	1860.99
369.12	1880.65
369.34	1691.83
369.55	1724.59
369.76	1902.56
369.97	1836.62
370.18	1732.58
370.39	1723.57
370.60	1731.97
370.82	1746.71
371.03	1784.19
371.24	1758.39
371.45	1970.76
371.66	1960.93
371.87	1780.50
372.08	1760.84
372.30	1768.42
372.51	1975.88
372.72	1875.32
372.93	1744.05
373.14	2084.22
373.35	1808.97
373.56	1748.76
373.78	1810.81
373.99	2013.36
374.20	2258.91
374.41	1794.84
374.62	1810.40
374.83	2090.36
375.04	1869.59
375.25	1800.16
375.47	1771.90
375.68	1870.21
375.89	2012.95
376.10	1783.78
376.31	1882.70
376.52	1980.39
376.73	1920.59
376.94	1823.51
377.15	1780.91
377.37	1879.01
377.58	1855.46
377.79	1664.38
378.00	1709.44
378.21	1940.66
378.42	1969.53
378.63	1816.34
378.84	1858.74
379.05	2020.73
379.27	1909.12
379.48	1892.12
379.69	1740.36
379.90	2057.59
380.11	1666.02
380.32	1792.38
380.53	1907.48
380.74	2069.68
380.95	1920.18
381.16	1815.32
381.37	1774.56
381.59	2074.18
381.80	1979.98
382.01	1735.45
382.22	1683.84
382.43	1961.95
382.64	1903.59
382.85	1722.55
383.06	1828.84
383.27	1979.57
383.48	1874.10
383.69	1807.74
383.91	1730.74
384.12	1962.77
384.33	1949.46
384.54	1802.42
384.75	1669.30
384.96	2263.82
385.17	2008.44
385.38	1761.87
385.59	1769.65
385.80	2005.99
386.01	2089.54
386.22	1873.07
386.43	1791.15
386.64	2169.62
386.86	1877.58
387.07	1899.29
387.28	1707.80
387.49	1853.62
387.70	2055.75
387.91	1857.30
388.12	1730.74
388.33	1965.64
388.54	1829.04
388.75	1773.54
388.96	1843.38
389.17	1839.69
389.38	1849.93
389.59	1864.88
389.80	1802.01
390.01	1882.70
390.22	1835.80
390.43	1879.01
390.64	1684.66
390.86	1939.63
391.07	2005.37
391.28	1807.95
391.49	1827.20
391.70	1749.78
391.91	1810.40
392.12	1774.16
392.33	1773.95
392.54	1896.01
392.75	1838.87
392.96	1871.43
393.17	1732.38
393.38	2171.46
393.59	2029.74
393.80	1688.76
394.01	1783.99
394.22	1880.44
394.43	2136.24
394.64	1752.65
394.85	1886.79
395.06	1886.18
395.27	1910.35
395.48	1797.71
395.69	1730.33
395.90	1885.56
396.11	1888.84
396.32	1765.96
396.53	1892.73
396.74	1874.10
396.95	1997.38
397.16	1750.19
397.37	1697.56
397.58	2012.33
397.79	1908.71
398.00	1836.41
398.21	1792.18
398.42	1920.99
398.63	2178.22
398.84	1790.95
399.05	1761.66
399.26	2036.91
399.47	1943.11
399.68	1619.33
399.89	1745.28
400.10	1738.32
400.31	1841.53
400.52	1831.29
400.73	1767.19
400.94	1722.96
401.15	1923.66
401.36	1777.43
401.57	1841.74
401.78	2053.09
401.99	2014.59
402.20	1715.58
402.41	1921.61
402.62	2079.10
402.83	1868.77
403.04	1739.34
403.25	1938.81
403.46	1931.23
403.67	2078.89
403.88	1803.44
404.09	1765.96
404.30	1806.31
404.51	1830.06
404.72	1729.51
404.93	1887.41
405.14	1795.04
405.35	1885.56
405.56	1823.51
405.77	1791.56
405.98	1920.38
406.19	1889.05
406.40	1763.51
406.61	1769.85
406.82	1799.96
407.03	2193.17
407.24	1709.44
407.45	1804.26
407.66	1941.47
407.87	1994.72
408.08	1848.09
408.29	1868.77
408.49	1971.58
408.70	1890.07
408.91	1792.79
409.12	1884.95
409.33	1795.04
409.54	2062.51
409.75	1787.26
409.96	1797.50
410.17	2016.84
410.38	1881.26
410.59	1777.64
410.80	1885.16
411.01	1881.47
411.22	1883.31
411.43	1847.68
411.64	1748.97
411.85	1803.24
412.06	1785.62
412.27	1631.21
412.47	1766.78
412.68	1904.41
412.89	1935.13
413.10	1782.96
413.31	1690.80
413.52	2134.19
413.73	2121.49
413.94	1754.29
414.15	1888.43
414.36	1839.28
414.57	1788.90
414.78	1683.43
414.99	1781.73
415.19	2043.46
415.40	2005.37
415.61	2046.74
415.82	1907.89
416.03	2049.20
416.24	2017.86
416.45	1817.57
416.66	1780.91
416.87	1751.83
417.08	1982.84
417.29	1741.39
417.50	1825.76
417.70	2013.56
417.91	1944.75
418.12	1835.59
418.33	1827.61
418.54	1963.18
418.75	2073.57
418.96	1992.67
419.17	1917.31
419.38	2204.43
419.59	2134.60
419.79	1998.61
420.00	1914.03
420.21	2346.77
420.42	1948.03
420.63	1821.26
420.84	1864.68
421.05	1893.14
421.26	1900.72
421.47	1747.12
421.67	2053.09
421.88	1791.77
422.09	1735.04
422.30	1920.99
422.51	1825.56
422.72	2103.88
422.93	1983.05
423.14	1791.36
423.35	1695.31
423.55	1732.17
423.76	1817.37
423.97	1843.58
424.18	1683.43
424.39	1872.25
424.60	2004.55
424.81	1812.66
425.02	1915.26
425.22	1906.45
425.43	1907.89
425.64	1977.72
425.85	1872.87
426.06	2198.29
426.27	2034.45
426.48	1920.79
426.68	1897.85
426.89	2039.37
427.10	2177.40
427.31	1820.23
427.52	1763.10
427.73	1981.61
427.94	1950.90
428.14	1852.18
428.35	1795.04
428.56	2067.22
428.77	2054.93
428.98	1871.23
429.19	1834.57
429.40	1869.80
429.60	1886.59
429.81	1933.69
430.02	1866.11
430.23	1882.90
430.44	1985.51
430.65	1778.66
430.85	1838.87
431.06	1956.01
431.27	1716.61
431.48	1804.87
431.69	1857.71
431.90	1907.68
432.10	1940.66
432.31	1865.09
432.52	1743.23
432.73	2212.01
432.94	2102.44
433.15	1913.62
433.35	1827.20
433.56	2091.59
433.77	1896.83
433.98	1931.23
434.19	1808.15
434.40	1893.14
434.60	1889.66
434.81	1769.04
435.02	1858.94
435.23	1904.82
435.44	1834.98
435.64	1677.08
435.85	1741.18
436.06	1859.56
436.27	1820.03
436.48	1723.16
436.68	1760.84
436.89	2089.95
437.10	1934.72
437.31	1831.91
437.52	1861.81
437.73	1913.42
437.93	1892.53
438.14	1875.94
438.35	1684.66
438.56	1869.39
438.77	1897.65
438.97	1930.42
439.18	1747.53
439.39	2013.56
439.60	1747.53
439.80	1696.54
440.01	1807.74
440.22	1856.07
440.43	1996.36
440.64	1715.99
440.84	1840.30
441.05	1762.69
441.26	2251.33
441.47	1841.94
441.68	1773.75
441.88	1832.93
442.09	1896.21
442.30	1944.75
442.51	1873.69
442.71	1844.81
442.92	1892.94
443.13	1740.57
443.34	1737.29
443.55	1786.85
443.75	1964.21
443.96	1749.37
444.17	1732.38
444.38	2022.57
444.58	1773.13
444.79	1864.47
445.00	1837.03
445.21	1862.83
445.41	1850.95
445.62	1615.44
445.83	1841.12
446.04	1890.89
446.24	1750.19
446.45	1653.73
446.66	1772.11
446.87	1946.39
447.07	1842.15
447.28	1988.58
447.49	1820.44
447.70	2017.25
447.90	2004.14
448.11	1798.73
448.32	1870.41
448.53	2084.63
448.73	2065.58
448.94	1794.02
449.15	1916.69
449.36	1888.84
449.56	1945.78
449.77	1760.02
449.98	1734.63
450.19	1834.98
450.39	1871.23
450.60	1866.52
450.81	1855.05
451.02	1935.33
451.22	2112.27
451.43	1775.18
451.64	1792.18
451.84	1864.06
452.05	2034.66
452.26	1867.13
452.47	1800.98
452.67	1835.39
452.88	2095.28
453.09	1737.50
453.30	1688.14
453.50	2008.44
453.71	2094.66
453.92	1766.78
454.12	1895.40
454.33	1796.89
454.54	1868.16
454.75	1761.87
454.95	1713.13
455.16	1895.60
455.37	1984.69
455.57	1827.81
455.78	1817.37
455.99	1881.26
456.19	1911.16
456.40	1744.66
456.61	1798.94
456.82	1908.30
457.02	1986.32
457.23	1864.68
457.44	1973.42
457.64	1817.37
457.85	1965.03
458.06	1795.04
458.26	1965.03
458.47	1873.69
458.68	1993.49
458.89	1738.52
459.09	1915.67
459.30	2195.22
459.51	1913.42
459.71	1696.74
459.92	1794.64
460.13	1989.60
460.33	2166.14
460.54	1792.59
460.75	1785.62
460.95	1770.47
461.16	1954.58
461.37	1802.21
461.57	1863.86
461.78	1876.14
461.99	1751.42
462.19	2012.33
462.40	1777.02
462.61	2338.37
462.81	2021.75
463.02	1734.02
463.23	1799.75
463.43	1996.97
463.64	1836.00
463.85	2753.08
464.05	1778.66
464.26	2308.88
464.47	2060.05
464.67	1932.46
464.88	1864.47
465.09	1776.20
465.29	1900.92
465.50	1917.31
465.71	1817.37
465.91	1799.35
466.12	1869.59
466.33	1861.81
466.53	1802.01
466.74	2063.53
466.94	1846.04
467.15	1797.71
467.36	1988.17
467.56	1779.28
467.77	1943.52
467.98	1849.11
468.18	1769.45
468.39	1864.47
468.60	2127.63
468.80	1840.92
469.01	1751.01
469.21	1947.41
469.42	1999.43
469.63	1833.14
469.83	1738.52
470.04	2001.68
470.25	2082.78
470.45	1875.73
470.66	1783.17
470.86	1940.86
471.07	1859.97
471.28	1876.76
471.48	1913.01
471.69	1920.38
471.90	2327.93
472.10	1791.56
472.31	1811.43
472.51	1805.08
472.72	1793.00
472.93	1742.62
473.13	1926.52
473.34	1918.33
473.54	1875.12
473.75	1799.75
473.96	1974.45
474.16	1848.29
474.37	1956.63
474.57	1866.52
474.78	1755.52
474.99	1935.74
475.19	1917.31
475.40	1779.48
475.60	1720.70
475.81	2063.53
476.02	1860.99
476.22	1850.13
476.43	1940.45
476.63	1877.99
476.84	2044.08
477.05	1666.02
477.25	1783.17
477.46	2267.31
477.66	1899.90
477.87	1697.36
478.08	1811.84
478.28	2033.63
478.49	1873.07
478.69	1754.70
478.90	1803.24
479.10	1929.60
479.31	2094.87
479.52	1855.05
479.72	1913.21
479.93	1946.18
480.13	1834.98
480.34	1765.76
480.54	1862.42
480.75	1814.91
480.96	2024.83
481.16	1780.91
481.37	1911.57
481.57	2017.86
481.78	1960.32
481.98	1998.61
482.19	1870.00
482.40	2120.26
482.60	1955.61
482.81	1886.38
483.01	1785.01
483.22	1994.11
483.42	2045.10
483.63	1881.06
483.83	1882.29
484.04	1842.76
484.24	1980.59
484.45	1873.48
484.66	1725.41
484.86	1947.41
485.07	1822.08
485.27	1856.89
485.48	1775.59
485.68	2044.28
485.89	1794.43
486.09	1872.05
486.30	1776.41
486.50	1888.64
486.71	1893.14
486.91	1837.03
487.12	1919.36
487.33	2141.36
487.53	2099.37
487.74	1877.58
487.94	1812.45
488.15	1913.42
488.35	1978.75
488.56	1837.03
488.76	1808.56
488.97	1928.57
489.17	2006.39
489.38	1837.23
489.58	1817.98
489.79	1962.98
489.99	1920.99
490.20	1867.75
490.40	1928.78
490.61	1939.84
490.81	1852.80
491.02	1836.62
491.22	1924.48
491.43	1992.06
491.63	1891.50
491.84	1970.56
492.04	1716.61
492.25	1959.70
492.45	1841.53
492.66	1797.91
492.86	1712.92
493.07	1841.33
493.27	2164.29
493.48	1721.32
493.68	1847.06
493.89	1885.36
494.09	2036.70
494.30	1794.43
494.50	2071.73
494.71	1988.99
494.91	1739.34
495.12	1822.90
495.32	1928.78
495.53	1888.64
495.73	1701.25
495.94	1813.07
496.14	1679.33
496.35	2122.11
496.55	1823.72
496.76	1796.48
496.96	1846.65
497.17	1894.78
497.37	1960.93
497.58	1789.31
497.78	1750.60
497.98	1862.22
498.19	1879.63
498.39	1860.99
498.60	1884.95
498.80	1697.77
499.01	1962.77
499.21	1744.46
499.42	1852.80
499.62	1856.89
499.83	2188.05
500.03	1710.26
500.24	1899.90
500.44	2061.49
500.64	2025.24
500.85	1811.43
501.05	1937.58
501.26	1713.54
501.46	2063.12
501.67	1776.20
501.87	1745.48
502.08	1793.20
502.28	1834.37
502.48	1895.19
502.69	1976.49
502.89	1709.64
503.10	1846.45
503.30	1867.95
503.51	1860.99
503.71	1746.10
503.92	1962.57
504.12	1880.85
504.32	1819.83
504.53	1993.29
504.73	1986.94
504.94	1951.10
505.14	2016.63
505.35	2005.78
505.55	1991.85
505.75	1874.71
505.96	1990.42
506.16	2164.91
506.37	1844.40
506.57	1770.06
506.78	1878.60
506.98	2023.19
507.18	1761.25
507.39	1744.87
507.59	1832.52
507.80	1792.18
508.00	1915.87
508.20	1968.10
508.41	1849.73
508.61	2078.69
508.82	2029.54
509.02	1965.85
509.22	1747.94
509.43	1750.81
509.63	1832.93
509.84	1830.68
510.04	1712.10
510.24	2104.29
510.45	1984.69
510.65	1756.34
510.86	1834.78
511.06	1760.64
511.26	2011.31
511.47	1935.54
511.67	1788.70
511.88	1970.56
512.08	2004.35
512.28	1723.16
512.49	1921.81
512.69	1883.52
512.90	1893.76
513.10	1798.32
513.30	1872.66
513.51	1931.23
513.71	2070.09
513.91	1884.34
514.12	1909.53
514.32	1977.52
514.53	1832.73
514.73	1927.96
514.93	1844.20
515.14	1906.45
515.34	2086.06
515.54	1889.05
515.75	1931.23
515.95	2014.38
516.15	2096.10
516.36	1926.93
516.56	1954.79
516.77	1675.03
516.97	1969.94
517.17	1835.18
517.38	1903.79
517.58	2075.62
517.78	1857.30
517.99	1902.56
518.19	1925.91
518.39	2124.15
518.60	1919.36
518.80	1813.07
519.00	1978.34
519.21	1899.49
519.41	2151.39
519.61	1803.03
519.82	1914.85
520.02	1916.69
520.22	1940.45
520.43	1862.83
520.63	1866.31
520.83	1815.73
521.04	1739.54
521.24	1936.15
521.44	1895.40
521.65	1884.54
521.85	2050.84
522.05	1845.42
522.26	1853.62
522.46	2158.15
522.66	2012.33
522.87	1808.97
523.07	1967.69
523.27	1843.58
523.48	2094.46
523.68	1900.11
523.88	1900.92
524.09	2069.47
524.29	1946.59
524.49	1729.30
524.70	1998.41
524.90	2106.13
525.10	2011.51
525.31	1790.54
525.51	1776.82
525.71	2007.42
525.91	1991.24
526.12	1823.31
526.32	1751.42
526.52	1830.27
526.73	1825.56
526.93	1899.29
527.13	1707.39
527.34	1878.40
527.54	1904.82
527.74	1824.54
527.94	1747.12
528.15	1774.97
528.35	1892.73
528.55	1931.03
528.76	1904.41
528.96	1702.27
529.16	2014.59
529.36	1988.78
529.57	1764.53
529.77	2042.44
529.97	1768.83
530.18	1918.33
530.38	1848.29
530.58	1977.72
530.78	1885.56
530.99	1805.08
531.19	1935.54
531.39	1806.31
531.60	1902.15
531.80	1829.66
532.00	1970.35
532.20	1919.77
532.41	1786.03
532.61	1816.55
532.81	1835.80
533.01	1872.05
533.22	1915.67
533.42	1957.65
533.62	1672.37
533.82	2068.24
534.03	1891.30
534.23	1898.06
534.43	1778.05
534.63	1854.64
534.84	1910.96
535.04	1868.77
535.24	1885.56
535.44	2230.65
535.65	1834.16
535.85	1781.32
536.05	1793.82
536.25	1902.15
536.46	1772.93
536.66	1998.20
536.86	1880.85
537.06	1974.86
537.27	2056.98
537.47	1961.95
537.67	1832.93
537.87	2070.70
538.08	1872.25
538.28	1749.78
538.48	1768.42
538.68	1892.73
538.88	1957.04
539.09	1753.27
539.29	1853.21
539.49	2014.18
539.69	1945.57
539.90	1906.45
540.10	1764.73
540.30	2066.61
540.50	1841.94
540.70	1763.51
540.91	1857.51
541.11	1990.83
541.31	2129.27
541.51	1923.25
541.72	1950.08
541.92	1988.17
542.12	1860.58
542.32	1837.85
542.52	1812.04
542.73	1842.76
542.93	1956.83
543.13	1871.02
543.33	1940.04
543.53	2014.79
543.74	1981.61
543.94	1830.27
544.14	1981.41
544.34	2052.68
544.54	1942.29
544.75	1952.74
544.95	2109.20
545.15	2039.37
545.35	2114.73
545.55	2005.99
545.75	1858.12
545.96	2178.22
546.16	1768.22
546.36	1875.73
546.56	1868.36
546.76	2028.51
546.97	2121.90
547.17	1874.51
547.37	1925.50
547.57	1833.34
547.77	1996.36
547.97	1888.43
548.18	1896.83
548.38	1913.42
548.58	2114.73
548.78	1893.76
548.98	2016.84
549.18	2156.31
549.39	2256.86
549.59	2072.13
549.79	2002.30
549.99	2195.22
550.19	2103.88
550.39	2020.94
550.60	1912.80
550.80	1974.45
551.00	2012.54
551.20	1831.50
551.40	1828.84
551.60	1948.03
551.80	1940.66
552.01	1988.37
552.21	1874.71
552.41	1940.04
552.61	2107.56
552.81	1895.60
553.01	1796.27
553.21	1954.17
553.42	1789.72
553.62	1805.49
553.82	1799.96
554.02	2105.31
554.22	1991.85
554.42	1810.81
554.62	1960.11
554.83	2099.37
555.03	2160.61
555.23	1967.28
555.43	2150.16
555.63	2046.54
555.83	2051.86
556.03	1932.46
556.23	1829.04
556.44	1965.85
556.64	2095.48
556.84	1686.50
557.04	1891.09
557.24	1984.69
557.44	1956.22
557.64	1904.41
557.84	1785.62
558.04	1869.80
558.25	1998.00
558.45	1816.14
558.65	1875.12
558.85	1929.60
559.05	1715.99
559.25	1863.45
559.45	1961.95
559.65	2206.07
559.85	2565.49
560.05	1970.15
560.26	2014.18
560.46	2018.07
560.66	1935.13
560.86	1870.61
561.06	1830.68
561.26	2142.99
561.46	2002.71
561.66	1894.99
561.86	1987.96
562.06	1813.89
562.26	1879.22
562.47	1890.07
562.67	1780.91
562.87	1982.64
563.07	1763.71
563.27	1900.11
563.47	1902.56
563.67	1876.35
563.87	1981.82
564.07	1851.77
564.27	1905.02
564.47	1943.73
564.67	1978.13
564.87	1838.67
565.08	1956.83
565.28	1842.15
565.48	1982.23
565.68	1940.86
565.88	1967.07
566.08	2153.03
566.28	1898.88
566.48	1749.58
566.68	1872.25
566.88	1870.41
567.08	2017.45
567.28	1854.23
567.48	1866.52
567.68	1958.27
567.88	1775.38
568.08	1942.50
568.28	2050.02
568.48	1893.55
568.68	2061.89
568.89	1916.69
569.09	1726.64
569.29	2008.65
569.49	2003.94
569.69	1760.64
569.89	1802.62
570.09	1691.62
570.29	1807.54
570.49	1723.57
570.69	1788.08
570.89	1977.72
571.09	2146.68
571.29	1734.22
571.49	2007.01
571.69	1934.10
571.89	1964.82
572.09	1830.47
572.29	1818.39
572.49	2001.28
572.69	1954.38
572.89	1859.35
573.09	1632.85
573.29	1867.13
573.49	1922.43
573.69	1875.32
573.89	1977.52
574.09	1854.64
574.29	2049.40
574.49	1851.98
574.69	1807.74
574.89	1769.85
575.09	1788.49
575.29	1793.82
575.49	1884.34
575.69	1928.37
575.89	1752.04
576.09	1899.49
576.29	1885.77
576.49	1768.63
576.69	1878.60
576.89	1808.97
577.09	1870.41
577.29	1724.80
577.49	2129.48
577.69	1808.97
577.89	1939.84
578.09	1922.22
578.29	1730.94
578.49	1856.48
578.69	1791.36
578.89	2004.14
579.09	1897.03
579.29	1795.66
579.49	1989.40
579.69	1858.74
579.89	2132.14
580.09	1695.10
580.29	1719.68
580.49	1838.87
580.69	1779.48
580.89	1851.57
581.09	1835.39
581.29	1857.30
581.49	1862.83
581.69	1773.34
581.89	1780.09
582.09	1813.89
582.28	1801.19
582.48	1950.69
582.68	2034.86
582.88	2088.11
583.08	1923.25
583.28	1885.77
583.48	1890.28
583.68	1797.71
583.88	1900.11
584.08	1901.33
584.28	1885.77
584.48	2142.99
584.68	1968.10
584.88	1863.45
585.08	1981.82
585.28	2011.11
585.48	2066.81
585.68	1937.58
585.87	1976.49
586.07	1934.72
586.27	1879.63
586.47	1964.41
586.67	1893.14
586.87	1889.05
587.07	1875.32
587.27	1751.63
587.47	1895.40
587.67	2125.79
587.87	2270.79
588.07	1988.17
588.27	1907.48
588.46	2091.39
588.66	2109.00
588.86	1930.82
589.06	2007.21
589.26	2044.69
589.46	2009.88
589.66	1788.29
589.86	1797.50
590.06	1863.86
590.26	1956.42
590.46	1842.56
590.66	2004.35
590.85	1855.25
591.05	1978.75
591.25	1828.84
591.45	1872.05
591.65	1987.96
591.85	1938.20
592.05	1859.76
592.25	1993.70
592.45	2059.44
592.64	1914.44
592.84	1915.87
593.04	1816.34
593.24	2270.38
593.44	1874.51
593.64	1953.35
593.84	1986.94
594.04	1861.19
594.24	2108.59
594.43	1799.75
594.63	1903.38
594.83	2042.23
595.03	1997.79
595.23	1790.13
595.43	1740.57
595.63	1806.31
595.83	2033.84
596.02	1691.42
596.22	1855.66
596.42	1932.26
596.62	1899.70
596.82	1832.73
597.02	1971.37
597.22	2076.23
597.41	1925.91
597.61	1828.43
597.81	1981.41
598.01	2007.01
598.21	1873.48
598.41	1807.74
598.61	1799.35
598.80	1902.15
599.00	1901.95
599.20	2025.24
599.40	1870.41
599.60	1888.43
599.80	1988.99
599.99	2015.00
600.19	1856.07
600.39	1917.10
600.59	1981.82
600.79	1910.96
600.99	1944.14
601.19	2115.35
601.38	2155.69
601.58	1925.71
601.78	1697.15
601.98	2006.19
602.18	2067.22
602.37	2317.28
602.57	2201.36
602.77	2351.48
602.97	2313.80
603.17	2373.19
603.37	2245.80
603.56	2319.53
603.76	2250.92
603.96	2200.95
604.16	2198.08
604.36	2225.12
604.56	2167.37
604.75	1904.82
604.95	1949.67
605.15	2127.84
605.35	2063.12
605.55	1895.80
605.74	1859.15
605.94	2068.45
606.14	1917.10
606.34	1943.93
606.54	1874.51
606.73	1855.46
606.93	1981.41
607.13	1808.56
607.33	1885.77
607.53	2104.49
607.72	2019.91
607.92	1959.91
608.12	2003.12
608.32	1893.35
608.51	1978.34
608.71	1829.25
608.91	1954.38
609.11	1983.05
609.31	1873.89
609.50	1936.56
609.70	2100.60
609.90	2065.58
610.10	2039.78
610.29	1893.14
610.49	1837.23
610.69	2010.90
610.89	1937.17
611.09	1932.26
611.28	2022.98
611.48	2013.15
611.68	1885.97
611.88	1825.56
612.07	1800.37
612.27	1996.56
612.47	1822.49
612.67	1929.19
612.86	2002.09
613.06	1910.35
613.26	1725.41
613.46	1865.29
613.65	1903.59
613.85	2261.57
614.05	2055.96
614.25	1962.57
614.44	1898.06
614.64	1941.27
614.84	1892.53
615.04	1826.17
615.23	1863.24
615.43	1984.28
615.63	1992.67
615.83	1799.55
616.02	1757.36
616.22	1987.96
616.42	1793.41
616.62	1809.18
616.81	1905.63
617.01	1977.31
617.21	1903.79
617.41	1827.40
617.60	1895.40
617.80	1961.95
618.00	2026.67
618.19	1957.45
618.39	1924.07
618.59	1956.42
618.79	1898.88
618.98	1709.03
619.18	1876.35
619.38	2146.89
619.57	1869.59
619.77	1849.32
619.97	1862.42
620.17	1830.47
620.36	1782.14
620.56	2004.96
620.76	1773.54
620.95	1801.39
621.15	1889.66
621.35	1812.45
621.54	1898.06
621.74	1934.51
621.94	1820.64
622.14	1767.40
622.33	1739.14
622.53	1893.35
622.73	1841.94
622.92	1708.21
623.12	1873.69
623.32	2123.33
623.51	1995.75
623.71	1760.02
623.91	2008.85
624.10	1763.10
624.30	1894.99
624.50	1755.52
624.69	1747.53
624.89	2359.46
625.09	1861.81
625.29	1665.20
625.48	1755.72
625.68	1908.71
625.88	2008.03
626.07	1909.94
626.27	1778.87
626.47	1835.80
626.66	1699.40
626.86	1835.18
627.06	1841.12
627.25	1876.35
627.45	2099.17
627.64	1858.94
627.84	2039.98
628.04	1787.06
628.23	2146.27
628.43	1775.38
628.63	1807.13
628.82	1827.81
629.02	2121.08
629.22	1969.33
629.41	2045.31
629.61	1932.26
629.81	2152.42
630.00	1807.95
630.20	1772.11
630.40	1954.17
630.59	1964.82
630.79	1883.52
630.98	1872.66
631.18	1896.62
631.38	1871.43
631.57	2009.88
631.77	1724.18
631.97	1909.32
632.16	1935.54
632.36	1891.09
632.56	1891.09
632.75	1908.30
632.95	2009.06
633.14	1748.97
633.34	2038.34
633.54	1668.89
633.73	1862.01
633.93	1839.69
634.12	1699.61
634.32	2231.26
634.52	1876.76
634.71	1774.36
634.91	1920.18
635.11	1754.49
635.30	1797.09
635.50	1887.20
635.69	1776.41
635.89	2126.41
636.09	1999.43
636.28	1786.65
636.48	1787.47
636.67	1987.35
636.87	1982.02
637.07	1940.04
637.26	1798.73
637.46	1922.63
637.65	2019.91
637.85	1889.25
638.04	1805.90
638.24	1846.04
638.44	1951.92
638.63	1867.75
638.83	1844.61
639.02	1958.47
639.22	1966.46
639.42	1848.50
639.61	1850.13
639.81	1901.74
640.00	1908.30
640.20	1970.76
640.39	1939.22
640.59	2174.74
640.79	2057.59
640.98	1982.64
641.18	1914.65
641.37	1949.67
641.57	1888.23
641.76	1870.21
641.96	1715.38
642.15	1911.16
642.35	1843.58
642.55	1891.09
642.74	1738.11
642.94	1974.04
643.13	2060.67
643.33	1846.86
643.52	1816.75
643.72	1805.90
643.91	1879.63
644.11	1815.93
644.31	1744.46
644.50	1825.97
644.70	2045.92
644.89	1866.72
645.09	1961.34
645.28	1900.92
645.48	1935.94
645.67	1776.41
645.87	1664.18
646.06	1860.99
646.26	1929.80
646.45	1660.70
646.65	1665.82
646.84	2143.61
647.04	1822.69
647.24	1728.28
647.43	1881.47
647.63	1895.80
647.82	2079.51
648.02	1736.06
648.21	1796.48
648.41	2060.67
648.60	1841.33
648.80	2012.74
648.99	1879.22
649.19	1819.62
649.38	1705.75
649.58	1876.55
649.77	1895.19
649.97	1986.12
650.16	1948.64
650.36	1652.71
650.55	1955.81
650.75	1919.77
650.94	2087.49
651.14	1843.99
651.33	1873.28
651.53	2092.82
651.72	1812.25
651.92	1863.86
652.11	1675.24
652.31	1932.26
652.50	1928.16
652.70	1888.23
652.89	1753.88
653.09	2060.87
653.28	1857.92
653.48	1668.68
653.67	1705.96
653.87	2303.15
654.06	1899.08
654.25	2021.55
654.45	1815.11
654.64	1849.11
654.84	1856.69
655.03	1656.60
655.23	1958.88
655.42	1950.08
655.62	2057.39
655.81	1889.05
656.01	1747.94
656.20	1962.77
656.40	2077.66
656.59	1870.21
656.79	2007.01
656.98	1920.18
657.17	2005.99
657.37	1883.93
657.56	1810.40
657.76	1930.62
657.95	2004.14
658.15	1573.04
658.34	1866.93
658.54	1879.63
658.73	1749.99
658.92	1817.37
659.12	1877.78
659.31	1968.51
659.51	1773.54
659.70	1931.64
659.90	1848.70
660.09	2001.68
660.29	1886.79
660.48	1773.75
660.67	2023.60
660.87	1809.38
661.06	1926.52
661.26	1921.20
661.45	1936.35
661.65	1926.32
661.84	1841.74
662.03	1805.90
662.23	1812.86
662.42	2159.17
662.62	1762.07
662.81	1768.42
663.00	1825.76
663.20	1903.38
663.39	1931.44
663.59	1926.32
663.78	1823.51
663.97	1828.63
664.17	1979.57
664.36	1694.49
664.56	1775.38
664.75	1974.24
664.94	1929.39
665.14	1878.81
665.33	1828.02
665.53	1902.15
665.72	1848.29
665.91	1949.05
666.11	1864.68
666.30	1907.48
666.50	1830.68
666.69	1889.87
666.88	1829.04
667.08	1897.03
667.27	1846.04
667.47	1889.05
667.66	1833.34
667.85	1977.72
668.05	1892.12
668.24	1772.11
668.43	1992.88
668.63	1810.20
668.82	2029.33
669.02	1928.57
669.21	1838.46
669.40	1721.11
669.60	2131.73
669.79	1713.74
669.98	2300.89
670.18	1783.99
670.37	1746.30
670.56	1839.08
670.76	1874.10
670.95	1852.59
671.15	2004.35
671.34	1905.02
671.53	1876.35
671.73	1825.15
671.92	1802.21
672.11	1757.57
672.31	1822.08
672.50	1934.92
672.69	1756.95
672.89	1624.24
673.08	1812.45
673.27	1956.83
673.47	1898.67
673.66	1907.68
673.85	1748.56
674.05	1905.23
674.24	1930.21
674.43	1861.19
674.63	2046.33
674.82	2320.96
675.01	1782.14
675.21	2087.90
675.40	1968.71
675.59	1924.07
675.79	2150.37
675.98	1892.73
676.17	2022.57
676.37	1969.33
676.56	1885.36
676.75	1894.17
676.95	1911.57
677.14	1850.34
677.33	2044.28
677.52	1747.53
677.72	1809.99
677.91	1911.57
678.10	1723.16
678.30	1758.39
678.49	1730.74
678.68	2171.46
678.88	1683.02
679.07	1991.04
679.26	1823.72
679.45	2103.67
679.65	2041.21
679.84	1686.09
680.03	1720.29
680.23	1846.86
680.42	2183.54
680.61	1736.27
680.81	1824.13
681.00	1875.94
681.19	1930.82
681.38	1970.56
681.58	1922.22
681.77	1857.30
681.96	1994.31
682.15	1805.69
682.35	1902.56
682.54	1932.87
682.73	1741.39
682.93	1778.25
683.12	1769.24
683.31	1979.57
683.50	2217.75
683.70	1806.51
683.89	1877.58
684.08	1750.40
684.27	1996.56
684.47	1706.98
684.66	1884.54
684.85	2104.49
685.04	2001.68
685.24	1798.53
685.43	1857.30
685.62	1665.20
685.81	1923.04
686.01	1880.44
686.20	1819.83
686.39	1796.07
686.58	2253.58
686.78	1975.06
686.97	2008.85
687.16	2064.97
687.35	1957.24
687.55	1885.36
687.74	1926.32
687.93	1808.36
688.12	1907.27
688.32	1895.80
688.51	1730.74
688.70	1938.20
688.89	1788.29
689.08	1730.33
689.28	1800.16
689.47	1892.32
689.66	1867.54
689.85	1947.21
690.05	1827.81
690.24	1791.97
690.43	1914.03
690.62	1899.70
690.81	1791.56
691.01	1902.15
691.20	1847.68
691.39	1783.58
691.58	1888.23
691.77	2095.69
691.97	1886.59
692.16	1907.07
692.35	1853.41
692.54	1806.92
692.73	1959.91
692.93	1898.88
693.12	1923.86
693.31	1954.99
693.50	1918.33
693.69	1980.59
693.89	1853.62
694.08	2057.80
694.27	2071.73
694.46	1817.37
694.65	1868.16
694.85	1958.88
695.04	1953.35
695.23	1839.90
695.42	2053.70
695.61	2132.35
695.80	2279.80
696.00	2393.67
696.19	2372.98
696.38	2125.18
696.57	2193.17
696.76	2161.22
696.95	2028.92
697.15	2207.51
697.34	2209.76
697.53	1958.27
697.72	1984.48
697.91	1913.42
698.10	2117.60
698.30	1875.73
698.49	1872.87
698.68	1961.75
698.87	1858.12
699.06	1763.71
699.25	1859.76
699.45	2026.87
699.64	1883.31
699.83	1977.31
700.02	1765.96
700.21	1938.61
700.40	1818.39
700.59	1855.46
700.79	1806.31
700.98	1973.83
701.17	1801.60
701.36	1798.32
701.55	1794.43
701.74	2038.34
701.93	1777.64
702.12	1912.39
702.32	1862.83
702.51	2109.82
702.70	2068.45
702.89	1969.33
703.08	1876.96
703.27	2100.81
703.46	1985.10
703.65	1880.65
703.85	1797.30
704.04	1854.64
704.23	2050.63
704.42	1806.31
704.61	1845.22
704.80	2090.57
704.99	1794.43
705.18	1898.88
705.37	1809.18
705.57	2013.77
705.76	2208.12
705.95	2045.92
706.14	2397.97
706.33	2481.11
706.52	2642.29
706.71	2228.19
706.90	2074.39
707.09	2137.87
707.28	2108.59
707.47	1903.38
707.67	2076.64
707.86	1917.10
708.05	2121.90
708.24	1922.22
708.43	1913.83
708.62	1874.10
708.81	1809.79
709.00	1766.99
709.19	1806.10
709.38	1995.34
709.57	1760.84
709.76	1926.93
709.96	1826.38
710.15	2064.15
710.34	1888.84
710.53	1968.51
710.72	1891.30
710.91	2026.87
711.10	1969.74
711.29	1952.12
711.48	1819.83
711.67	1738.52
711.86	1938.20
712.05	1741.39
712.24	1815.32
712.43	1957.45
712.62	2040.39
712.81	1881.88
713.00	1998.82
713.19	1769.65
713.39	1951.51
713.58	1715.99
713.77	1849.11
713.96	1957.65
714.15	1835.59
714.34	1836.82
714.53	1736.27
714.72	2145.04
714.91	1811.02
715.10	1854.23
715.29	1747.12
715.48	2277.34
715.67	2001.89
715.86	1899.49
716.05	1845.22
716.24	1866.52
716.43	1824.33
716.62	1748.35
716.81	1740.16
717.00	1832.32
717.19	2093.43
717.38	1875.73
717.57	1842.35
717.76	1711.49
717.95	1998.61
718.14	1896.83
718.33	1814.30
718.52	1664.59
718.71	1713.74
718.90	1747.33
719.09	1815.11
719.28	1892.53
719.47	1990.42
719.66	1972.81
719.85	1928.16
720.04	1875.94
720.23	1930.82
720.42	1837.44
720.61	1951.30
720.80	1749.17
720.99	1908.09
721.18	1842.76
721.37	1784.19
721.56	1826.99
721.75	1974.04
721.94	1771.08
722.13	1835.80
722.32	1833.14
722.51	1975.27
722.70	1866.93
722.89	1906.66
723.08	1855.87
723.27	2000.25
723.46	1862.63
723.65	1833.55
723.84	1807.95
724.03	2033.02
724.22	1744.05
724.41	1912.19
724.60	1840.51
724.79	1991.44
724.98	1916.28
725.16	1833.96
725.35	1942.09
725.54	1761.25
725.73	1877.17
725.92	1835.80
726.11	1874.30
726.30	2014.18
726.49	1821.67
726.68	1899.90
726.87	1984.48
727.06	2082.99
727.25	1862.01
727.44	1958.47
727.63	1908.09
727.82	1870.41
728.01	1890.07
728.20	1947.62
728.38	2059.85
728.57	1856.48
728.76	1889.25
728.95	1962.77
729.14	1729.92
729.33	1747.33
729.52	1659.88
729.71	1774.16
729.90	1747.12
730.09	1813.68
730.28	1854.44
730.47	1801.19
730.66	2010.29
730.84	1914.03
731.03	1885.77
731.22	1941.27
731.41	1923.25
731.60	1946.59
731.79	1710.46
731.98	1799.55
732.17	1959.50
732.36	1919.15
732.55	1781.94
732.73	1727.05
732.92	2037.73
733.11	1915.26
733.30	1794.64
733.49	1718.66
733.68	1931.03
733.87	1901.54
734.06	1762.28
734.25	1791.77
734.43	1849.11
734.62	1946.39
734.81	1925.09
735.00	1880.24
735.19	1875.94
735.38	1962.98
735.57	1769.04
735.76	1914.65
735.94	2005.37
736.13	2224.50
736.32	2100.40
736.51	2045.92
736.70	2306.22
736.89	2332.64
737.08	2197.47
737.27	2302.74
737.45	2563.44
737.64	2488.90
737.83	2690.01
738.02	2630.82
738.21	2704.75
738.40	2624.06
738.59	2310.72
738.77	2338.99
738.96	2162.45
739.15	2197.27
739.34	2223.89
739.53	2112.68
739.72	2205.87
739.90	2137.26
740.09	1885.16
740.28	1958.47
740.47	2016.63
740.66	2001.68
740.85	1806.51
741.03	1880.65
741.22	1785.21
741.41	1845.22
741.60	1731.97
741.79	1927.14
741.98	2036.30
742.16	2118.83
742.35	1937.99
742.54	1870.41
742.73	2175.97
742.92	1868.77
743.10	1730.33
743.29	1827.20
743.48	2211.81
743.67	1830.06
743.86	1698.38
744.05	1758.18
744.23	1760.84
744.42	1777.02
744.61	1840.51
744.80	1751.42
744.99	1811.22
745.17	1693.06
745.36	1688.55
745.55	1901.95
745.74	1845.42
745.93	1759.21
746.11	1793.41
746.30	1757.77
746.49	1968.10
746.68	1724.18
746.86	1850.54
747.05	1810.61
747.24	1945.57
747.43	1965.85
747.62	1735.65
747.80	1775.59
747.99	2044.69
748.18	1968.30
748.37	1924.89
748.56	1922.84
748.74	2000.46
748.93	1904.00
749.12	2020.12
749.31	2429.91
749.49	2705.16
749.68	2929.21
749.87	3189.51
750.06	3106.56
750.24	3143.02
750.43	3097.35
750.62	3169.03
750.81	3251.36
750.99	3380.58
751.18	3363.99
751.37	3006.42
751.56	2883.95
751.74	3043.49
751.93	3079.74
752.12	2410.66
752.31	2331.00
752.49	2277.14
752.68	2427.66
752.87	2181.29
753.06	2011.51
753.24	2036.30
753.43	2126.41
753.62	1875.32
753.81	1883.72
753.99	2110.64
754.18	1968.30
754.37	1781.32
754.55	1892.32
754.74	2101.42
754.93	1659.06
755.12	1820.23
755.30	1769.44
755.49	1991.85
755.68	1887.20
755.86	1911.98
756.05	1752.45
756.24	2058.82
756.43	1747.53
756.61	1733.40
756.80	1910.35
756.99	2041.42
757.17	1871.02
757.36	1740.57
757.55	1834.57
757.74	1930.21
757.92	1868.16
758.11	1703.91
758.30	1653.33
758.48	1834.98
758.67	1715.99
758.86	1814.91
759.04	1747.53
759.23	1801.60
759.42	1868.98
759.60	1747.94
759.79	1848.50
759.98	1807.74
760.16	1759.61
760.35	1767.19
760.54	1750.60
760.73	1868.36
760.91	1711.28
761.10	1853.62
761.29	1873.89
761.47	1860.37
761.66	2149.75
761.85	1872.46
762.03	1965.85
762.22	2163.47
762.41	2777.05
762.59	3397.99
762.78	3766.01
762.97	4431.19
763.15	4469.49
763.34	4203.25
763.52	3536.84
763.71	3468.03
763.90	3385.70
764.08	3080.35
764.27	3061.71
764.46	3035.29
764.64	2705.57
764.83	2601.13
765.02	2525.35
765.20	2443.02
765.39	2355.78
765.58	2012.74
765.76	2069.06
765.95	2039.37
766.13	1942.09
766.32	1892.73
766.51	1897.85
766.69	2414.35
766.88	1887.82
767.07	1749.58
767.25	1688.14
767.44	1978.13
767.62	2039.37
767.81	1805.49
768.00	1883.11
768.18	1861.60
768.37	1780.09
768.56	1711.90
768.74	1779.07
768.93	1712.31
769.11	1928.37
769.30	1862.22
769.49	1779.28
769.67	1861.40
769.86	1800.78
770.04	1797.09
770.23	1785.42
770.42	2026.67
770.60	1904.00
770.79	1758.59
770.97	1777.02
771.16	2082.58
771.35	2107.56
771.53	2236.38
771.72	2283.49
771.90	2536.41
772.09	2725.64
772.27	2561.39
772.46	2267.92
772.65	2439.34
772.83	2319.73
773.02	2258.91
773.20	2076.44
773.39	2221.02
773.58	2201.57
773.76	1948.85
773.95	1975.88
774.13	2041.01
774.32	1936.56
774.50	1847.47
774.69	1908.91
774.87	1842.76
775.06	2176.17
775.25	1785.83
775.43	1857.92
775.62	1922.43
775.80	1970.76
775.99	1896.42
776.17	1800.16
776.36	1823.31
776.54	1957.24
776.73	1748.97
776.92	1824.33
777.10	1907.89
777.29	1900.31
777.47	1755.31
777.66	1798.53
777.84	1842.56
778.03	1818.80
778.21	1742.41
778.40	1837.85
778.58	1885.56
778.77	1987.55
778.95	1715.17
779.14	1766.78
779.32	2092.61
779.51	1976.49
779.70	1839.90
779.88	1734.02
780.07	1808.15
780.25	2233.51
780.44	1834.16
780.62	1945.98
780.81	1968.51
780.99	1940.25
781.18	1765.96
781.36	1793.82
781.55	1873.48
781.73	2067.22
781.92	1743.64
782.10	1757.36
782.29	1931.44
782.47	2060.87
782.66	1857.92
782.84	1700.02
783.03	1805.28
783.21	2017.45
783.40	1825.76
783.58	1798.32
783.77	1791.77
783.95	1869.59
784.14	1745.28
784.32	1866.31
784.51	2012.95
784.69	1781.12
784.88	1703.91
785.06	1825.56
785.24	1715.99
785.43	1988.58
785.61	1936.35
785.80	1757.16
785.98	1939.63
786.17	1857.10
786.35	1781.73
786.54	1919.77
786.72	1979.57
786.91	1980.59
787.09	1823.51
787.28	1746.92
787.46	1866.52
787.65	1974.65
787.83	1726.44
788.01	1862.63
788.20	1722.96
788.38	1859.56
788.57	1803.03
788.75	1819.42
788.94	2094.87
789.12	2055.75
789.31	1848.70
789.49	1941.88
789.67	1791.77
789.86	1929.60
790.04	1769.65
790.23	1685.68
790.41	2137.67
790.60	1823.72
790.78	1814.50
790.96	1837.64
791.15	1946.39
791.33	1847.88
791.52	1852.18
791.70	1756.95
791.89	1930.82
792.07	1985.10
792.25	1846.86
792.44	1695.31
792.62	1998.82
792.81	1797.30
792.99	1840.51
793.17	1760.64
793.36	1751.42
793.54	2138.69
793.73	2105.72
793.91	2086.47
794.10	2395.10
794.28	2512.45
794.46	2337.55
794.65	2395.30
794.83	2138.49
795.01	2214.26
795.20	2324.24
795.38	2148.32
795.57	2146.27
795.75	2186.41
795.93	2003.53
796.12	2051.25
796.30	2096.71
796.49	2074.59
796.67	1874.10
796.85	1981.20
797.04	1927.96
797.22	1971.78
797.40	1741.59
797.59	1886.59
797.77	1861.81
797.96	1779.48
798.14	1799.75
798.32	1798.73
798.51	1958.06
798.69	2102.65
798.87	1847.47
799.06	1832.93
799.24	1724.18
799.42	1982.23
799.61	1994.11
799.79	2049.20
799.98	2385.68
800.16	2133.16
800.34	2346.15
800.53	2551.15
800.71	2611.98
800.89	3017.07
801.08	2881.70
801.26	2874.32
801.44	2636.15
801.63	2414.35
801.81	2406.36
801.99	2365.61
802.18	2272.22
802.36	2294.95
802.54	2265.46
802.73	2025.44
802.91	2123.95
803.09	2097.32
803.28	2073.16
803.46	2071.32
803.64	2181.70
803.83	1823.72
804.01	1808.56
804.19	1762.07
804.38	2000.25
804.56	1950.90
804.74	1845.42
804.92	1856.48
805.11	1753.68
805.29	1980.80
805.47	1815.52
805.66	1704.93
805.84	1729.30
806.02	1984.48
806.21	1811.22
806.39	1916.08
806.57	1991.24
806.76	1962.16
806.94	1858.33
807.12	1764.12
807.30	1777.43
807.49	1887.00
807.67	1876.35
807.85	1944.34
808.04	1987.76
808.22	2159.38
808.40	1733.20
808.58	1738.73
808.77	1937.38
808.95	2029.33
809.13	1908.09
809.31	2323.01
809.50	2589.04
809.68	2811.45
809.86	2698.81
810.05	2856.10
810.23	3270.20
810.41	3628.39
810.59	5188.32
810.78	6092.71
810.96	6886.91
811.14	7390.71
811.32	7006.51
811.51	5997.48
811.69	5191.19
811.87	5211.67
812.05	4678.38
812.24	4421.97
812.42	4343.54
812.60	4126.86
812.78	3502.23
812.97	3231.49
813.15	3286.17
813.33	3027.31
813.51	2796.91
813.70	2399.81
813.88	2258.30
814.06	2210.99
814.24	2118.21
814.42	1890.48
814.61	1988.58
814.79	2174.12
814.97	1742.41
815.15	1830.27
815.34	1922.22
815.52	1972.19
815.70	1748.97
815.88	1818.19
816.06	1758.18
816.25	1816.14
816.43	1756.54
816.61	1910.75
816.79	2055.34
816.98	1689.98
817.16	1789.52
817.34	1737.70
817.52	1925.91
817.70	2073.36
817.89	1798.12
818.07	1777.64
818.25	1856.07
818.43	1868.36
818.61	1821.05
818.80	1769.65
818.98	2098.96
819.16	1883.11
819.34	1747.12
819.52	2048.79
819.70	1747.12
819.89	1869.59
820.07	1697.36
820.25	1703.71
820.43	1904.82
820.61	1983.25
820.80	1839.90
820.98	1746.71
821.16	1693.26
821.34	1735.04
821.52	1826.79
821.70	1857.30
821.89	1857.51
822.07	1857.71
822.25	1809.38
822.43	1768.42
822.61	2058.41
822.79	1904.20
822.98	1829.66
823.16	1652.10
823.34	1882.49
823.52	2010.08
823.70	1918.13
823.88	1677.70
824.06	1949.87
824.25	1874.30
824.43	1960.73
824.61	1739.54
824.79	1851.57
824.97	1891.71
825.15	1973.22
825.33	2080.53
825.52	2187.44
825.70	2129.27
825.88	2110.02
826.06	2204.84
826.24	2228.80
826.42	2222.46
826.60	2115.35
826.78	2140.33
826.97	2049.81
827.15	2143.81
827.33	1908.50
827.51	2027.49
827.69	1897.24
827.87	1982.02
828.05	1970.56
828.23	1846.45
828.41	2037.11
828.60	2000.87
828.78	1715.17
828.96	1926.52
829.14	1808.56
829.32	1837.03
829.50	1801.39
829.68	1784.40
829.86	1809.59
830.04	1943.52
830.22	1876.96
830.41	1717.84
830.59	1864.06
830.77	1955.81
830.95	1791.56
831.13	1802.83
831.31	1779.48
831.49	1969.74
831.67	1980.59
831.85	1937.17
832.03	1843.58
832.21	1931.23
832.39	1715.58
832.57	1746.51
832.76	2001.68
832.94	1875.94
833.12	1666.64
833.30	1835.39
833.48	2014.59
833.66	1918.13
833.84	1771.90
834.02	1847.27
834.20	1988.99
834.38	1973.01
834.56	1678.31
834.74	1730.74
834.92	1706.57
835.10	2073.16
835.28	1884.13
835.46	1821.87
835.64	1856.28
835.82	1769.04
836.01	2090.98
836.19	1975.27
836.37	1820.23
836.55	1756.13
836.73	1755.31
836.91	1724.39
837.09	1968.10
837.27	2054.93
837.45	1694.69
837.63	1741.18
837.81	1744.25
837.99	1852.18
838.17	1807.95
838.35	1743.85
838.53	2171.26
838.71	1968.30
838.89	1801.39
839.07	1787.67
839.25	1900.72
839.43	1979.16
839.61	1842.56
839.79	2211.19
839.97	2382.20
840.15	2474.36
840.33	2489.51
840.51	2739.16
840.69	2559.14
840.87	2404.11
841.05	2415.99
841.23	2315.43
841.41	2553.20
841.59	3072.36
841.77	3220.23
841.95	3314.02
842.13	3641.29
842.31	3412.74
842.49	2984.10
842.67	2907.09
842.85	2898.49
843.03	2588.63
843.21	2530.47
843.39	2630.21
843.57	2477.02
843.75	2404.93
843.93	2287.38
844.11	2191.74
844.29	2184.36
844.47	2085.24
844.65	2208.12
844.83	2002.09
845.01	1979.57
845.19	2071.32
845.36	1899.49
845.54	1952.53
845.72	1917.72
845.90	1963.59
846.08	1758.59
846.26	1850.34
846.44	1940.04
846.62	1932.46
846.80	1851.57
846.98	1790.95
847.16	1863.24
847.34	1892.53
847.52	1744.87
847.70	1761.25
847.88	1839.69
848.06	2067.83
848.24	1920.18
848.41	1708.01
848.59	1990.01
848.77	1907.27
848.95	1818.60
849.13	1793.61
849.31	1936.15
849.49	1918.95
849.67	1757.36
849.85	1730.94
850.03	1912.80
850.21	1894.58
850.39	1780.30
850.57	1913.83
850.74	2063.74
850.92	2046.54
851.10	1953.35
851.28	1986.32
851.46	2141.97
851.64	2396.12
851.82	2103.06
852.00	2139.92
852.18	2276.52
852.36	2175.56
852.53	1958.88
852.71	2051.86
852.89	2068.65
853.07	2059.64
853.25	1866.72
853.43	1818.80
853.61	1968.30
853.79	1981.41
853.97	1834.37
854.14	1803.85
854.32	2079.51
854.50	1972.81
854.68	1817.57
854.86	1833.14
855.04	1789.11
855.22	2006.19
855.40	1693.47
855.57	1798.32
855.75	1969.53
855.93	1939.02
856.11	1696.95
856.29	1766.17
856.47	1798.32
856.65	1894.37
856.82	1771.08
857.00	1717.22
857.18	1860.78
857.36	1796.48
857.54	1873.07
857.72	1918.13
857.89	1967.28
858.07	1907.68
858.25	1967.07
858.43	1716.81
858.61	1822.28
858.79	1890.68
858.97	1757.98
859.14	1885.97
859.32	1848.50
859.50	1803.85
859.68	1868.98
859.86	1777.84
860.03	1867.54
860.21	1954.38
860.39	1777.84
860.57	1883.52
860.75	1912.60
860.93	2121.08
861.10	1953.15
861.28	1772.52
861.46	1883.11
861.64	1929.39
861.82	1803.65
861.99	1897.65
862.17	1990.01
862.35	1990.42
862.53	1847.06
862.71	1843.99
862.88	1914.85
863.06	1952.94
863.24	1825.56
863.42	1776.82
863.60	1851.16
863.77	1930.62
863.95	1665.00
864.13	1841.33
864.31	1815.52
864.49	1984.89
864.66	1719.27
864.84	1793.20
865.02	1902.97
865.20	2209.76
865.37	1875.73
865.55	1785.01
865.73	1722.34
865.91	1991.85
866.09	1905.02
866.26	1892.73
866.44	1964.62
866.62	1875.94
866.80	1770.47
866.97	1848.29
867.15	1849.73
867.33	1870.00
867.51	1902.56
867.68	1828.22
867.86	1825.97
868.04	1808.36
868.22	1661.11
868.39	1782.35
868.57	1893.96
868.75	2032.20
868.93	1709.23
869.10	1762.07
869.28	2102.24
869.46	2049.81
869.64	1825.97
869.81	1810.81
869.99	1897.65
870.17	1892.94
870.35	1757.77
870.52	1769.24
870.70	1971.99
870.88	1795.04
871.05	1743.44
871.23	1619.12
871.41	1847.68
871.59	1844.40
871.76	1808.36
871.94	1770.67
872.12	1880.85
872.29	1740.98
872.47	1796.07
872.65	1740.77
872.83	1927.75
873.00	2043.67
873.18	1808.36
873.36	1768.83
873.53	1954.79
873.71	1723.98
873.89	1765.35
874.06	1835.59
874.24	1918.54
874.42	2032.40
874.60	1945.57
874.77	1877.17
874.95	1777.02
875.13	1980.18
875.30	1772.72
875.48	1800.57
875.66	2045.10
875.83	1797.50
876.01	1811.02
876.19	1940.66
876.36	1738.73
876.54	1867.34
876.72	1740.57
876.89	1906.04
877.07	1951.51
877.25	1663.97
877.42	1868.77
877.60	1822.49
877.78	2110.84
877.95	1822.90
878.13	1766.58
878.31	1896.83
878.48	1978.13
878.66	1961.75
878.84	1772.93
879.01	1843.58
879.19	1926.52
879.37	1938.61
879.54	1798.53
879.72	1717.43
879.90	1654.35
880.07	1942.09
880.25	1581.44
880.42	1917.92
880.60	1881.06
880.78	1977.52
880.95	1808.97
881.13	1824.33
881.31	1889.05
881.48	1796.07
881.66	1758.80
881.83	1847.88
882.01	1762.89
882.19	1737.50
882.36	1856.28
882.54	1831.70
882.72	1953.56
882.89	1879.83
883.07	1740.98
883.24	1808.97
883.42	1980.59
883.60	1875.73
883.77	1743.23
883.95	1787.88
884.12	1967.07
884.30	1898.67
884.48	1936.56
884.65	1854.85
884.83	1904.61
885.00	1898.67
885.18	1746.92
885.36	1781.94
885.53	1930.82
885.71	2033.22
885.88	1723.78
886.06	1791.15
886.23	1940.45
886.41	1814.09
886.59	1794.64
886.76	1793.82
886.94	1933.90
887.11	2244.98
887.29	1837.44
887.47	1722.96
887.64	2016.63
887.82	2030.15
887.99	1659.47
888.17	1855.46
888.34	1825.35
888.52	1739.95
888.69	1846.86
888.87	1734.63
889.05	1836.21
889.22	1842.76
889.40	1772.31
889.57	1919.77
889.75	2069.68
889.92	1827.61
890.10	1740.16
890.27	1801.39
890.45	1795.45
890.62	1667.05
890.80	1740.36
890.98	1675.85
891.15	2085.45
891.33	1977.52
891.50	1778.87
891.68	1685.89
891.85	1954.58
892.03	1947.21
892.20	1791.97
892.38	1730.33
892.55	1961.75
892.73	1974.04
892.90	1715.38
893.08	1778.05
893.25	1804.47
893.43	1828.43
893.60	1964.41
893.78	1643.49
893.95	1915.26
894.13	1868.36
894.30	1749.17
894.48	1848.91
894.65	1948.85
894.83	1900.92
895.00	1643.49
895.18	1682.00
895.35	1961.95
895.53	1960.52
895.70	1691.62
895.88	1931.03
896.05	1940.25
896.23	1705.75
896.40	1780.30
896.58	1865.70
896.75	1968.92
896.93	2031.38
897.10	1744.25
897.28	1700.02
897.45	1912.80
897.63	1942.70
897.80	1911.57
897.98	1816.34
898.15	1908.50
898.33	1798.32
898.50	1860.78
898.67	1817.57
898.85	1836.62
899.02	1927.34
899.20	1979.36
899.37	1795.86
899.55	1888.64
899.72	2024.21
899.90	1765.35
900.07	1756.75
900.25	1921.81
900.42	1990.42
900.59	1772.93
900.77	1902.97
900.94	1953.76
901.12	1906.45
901.29	1766.37
901.47	1894.78
901.64	1936.76
901.82	1858.33
901.99	1587.18
902.16	1738.11
902.34	2006.19
902.51	1900.11
902.69	1775.38
902.86	1824.54
903.03	2319.32
903.21	1885.16
903.38	1846.24
903.56	1773.95
903.73	1979.57
903.91	1831.29
904.08	1732.38
904.25	1667.87
904.43	1749.37
904.60	1939.63
904.78	1805.90
904.95	1773.95
905.12	1841.33
905.30	2058.62
905.47	1914.85
905.65	1909.32
905.82	1883.93
905.99	1952.94
906.17	1833.75
906.34	1752.24
906.52	1774.56
906.69	1928.16
906.86	1907.27
907.04	1835.59
907.21	1970.15
907.38	1977.93
907.56	1757.16
907.73	1771.49
907.91	2047.56
908.08	1996.97
908.25	1757.77
908.43	1764.73
908.60	1924.27
908.77	1869.39
908.95	1773.95
909.12	1720.91
909.30	1939.22
909.47	1698.38
909.64	1806.51
909.82	1921.20
909.99	1882.70
910.16	1868.98
910.34	1783.58
910.51	1791.15
910.68	1896.21
910.86	1864.06
911.03	1694.49
911.20	1790.54
911.38	2083.81
911.55	2455.51
911.72	2583.10
911.90	2455.72
912.07	2682.43
912.24	2846.27
912.42	2341.65
912.59	2136.44
912.76	2294.95
912.94	2133.78
913.11	1996.16
913.28	1914.03
913.46	1867.34
913.63	1994.11
913.80	2143.81
913.98	1855.46
914.15	2066.40
914.32	2078.48
914.49	1904.82
914.67	1781.94
914.84	1933.69
915.01	1972.81
915.19	1872.46
915.36	1812.66
915.53	2028.10
915.71	1943.52
915.88	1911.16
916.05	1777.02
916.22	2002.91
916.40	1909.12
916.57	1760.43
916.74	1901.74
916.92	2051.25
917.09	1754.70
917.26	1756.13
917.43	1739.34
917.61	1813.89
917.78	1691.42
917.95	1660.70
918.13	1710.05
918.30	2135.62
918.47	1891.50
918.64	1716.81
918.82	1730.33
918.99	1856.89
919.16	2092.20
919.33	1798.73
919.51	1728.49
919.68	1879.83
919.85	2018.89
920.02	1685.68
920.20	1802.62
920.37	2077.87
920.54	1966.46
920.71	1773.75
920.89	1785.21
921.06	2089.54
921.23	1817.78
921.40	1722.34
921.58	1882.49
921.75	2312.98
921.92	1890.68
922.09	1919.15
922.27	1941.27
922.44	1948.44
922.61	1982.23
922.78	1871.02
922.96	1810.40
923.13	1848.09
923.30	2000.87
923.47	1713.74
923.64	1790.74
923.82	1914.24
923.99	1902.97
924.16	1867.34
924.33	1720.50
924.50	1873.48
924.68	2062.30
924.85	1693.06
925.02	1796.07
925.19	1957.45
925.36	1878.81
925.54	1860.37
925.71	1832.32
925.88	2249.08
926.05	1830.68
926.22	1744.87
926.40	1842.35
926.57	1890.07
926.74	1975.88
926.91	1776.20
927.08	1965.64
927.26	1981.20
927.43	1874.71
927.60	1753.68
927.77	1836.62
927.94	2069.27
928.11	1999.23
928.29	1692.24
928.46	1825.15
928.63	1784.60
928.80	1830.68
928.97	1881.26
929.14	1755.93
929.32	2143.20
929.49	1887.20
929.66	1734.22
929.83	1689.57
930.00	1805.69
930.17	1935.94
930.35	1687.32
930.52	1783.78
930.69	2049.40
930.86	1728.69
931.03	1852.80
931.20	1624.65
931.37	1996.77
931.55	1883.72
931.72	1862.01
931.89	1706.37
932.06	1746.10
932.23	2059.85
932.40	1899.90
932.57	1851.36
932.74	2023.60
932.92	2015.41
933.09	1911.98
933.26	1575.09
933.43	1817.57
933.60	1893.35
933.77	1827.40
933.94	1859.97
934.11	1828.63
934.29	1879.63
934.46	1706.57
934.63	1840.30
934.80	1716.81
934.97	1838.05
935.14	1793.20
935.31	1654.35
935.48	1756.95
935.65	1930.62
935.82	1847.06
936.00	1716.40
936.17	2057.59
936.34	1862.42
936.51	1915.87
936.68	1699.20
936.85	1917.51
937.02	1892.94
937.19	1843.58
937.36	1814.30
937.53	1915.47
937.70	1963.59
937.87	1820.85
938.05	1897.65
938.22	1864.88
938.39	1753.47
938.56	1814.30
938.73	1725.82
938.90	1834.37
939.07	1797.30
939.24	1843.58
939.41	1651.07
939.58	1907.89
939.75	1917.51
939.92	1741.18
940.09	1954.58
940.26	1816.55
940.43	1956.63
940.60	1768.83
940.77	1788.49
940.95	1904.82
941.12	1943.73
941.29	1770.47
941.46	1839.69
941.63	2020.12
941.80	2062.71
941.97	1689.57
942.14	1681.79
942.31	1945.78
942.48	1841.53
942.65	1876.14
942.82	1830.06
942.99	1946.39
943.16	1865.29
943.33	1707.60
943.50	1756.34
943.67	1972.19
943.84	2007.21
944.01	1783.78
944.18	1731.76
944.35	2045.92
944.52	1757.36
944.69	1844.40
944.86	1710.67
945.03	1962.98
945.20	2191.94
945.37	1652.10
945.54	1823.72
945.71	2031.18
945.88	2066.20
946.05	1740.57
946.22	1705.75
946.39	2038.55
946.56	1842.76
946.73	1708.62
946.90	1754.49
947.07	1807.33
947.24	1830.88
947.41	1655.17
947.58	1909.12
947.75	1918.74
947.92	1907.68
948.09	1592.50
948.26	1671.55
948.43	1902.56
948.60	2114.32
948.77	1739.54
948.94	1767.60
949.11	1940.86
949.27	1912.80
949.44	1757.77
949.61	1740.57
949.78	1933.69
949.95	2018.27
950.12	1717.43
950.29	1711.28
950.46	1819.42
950.63	1979.36
950.80	1760.23
950.97	1821.87
951.14	2011.72
951.31	1849.73
951.48	1757.98
951.65	1723.98
951.82	2094.25
951.99	1911.37
952.15	1686.30
952.32	1766.78
952.49	1796.48
952.66	1831.50
952.83	1748.15
953.00	1720.09
953.17	1850.54
953.34	1971.17
953.51	1807.95
953.68	1805.08
953.85	1985.92
954.02	1986.73
954.18	1816.75
954.35	1836.21
954.52	1748.35
954.69	1889.05
954.86	1634.89
955.03	1812.66
955.20	1940.04
955.37	1849.52
955.54	1788.70
955.71	1742.62
955.87	1919.77
956.04	2113.91
956.21	1779.07
956.38	1747.74
956.55	1882.49
956.72	2171.05
956.89	1803.03
957.06	1757.57
957.23	1806.51
957.39	2025.44
957.56	1754.09
957.73	1710.05
957.90	1626.91
958.07	2093.02
958.24	1825.56
958.41	1756.34
958.57	1979.57
958.74	1876.96
958.91	1701.45
959.08	1754.90
959.25	1930.21
959.42	1854.03
959.59	1829.25
959.75	1767.19
959.92	2021.35
960.09	2026.26
960.26	1759.00
960.43	1830.68
960.60	1909.73
960.76	1853.62
960.93	1678.31
961.10	1846.86
961.27	2009.67
961.44	1849.11
961.61	1684.25
961.77	1733.20
961.94	1915.87
962.11	1986.73
962.28	1759.41
962.45	1714.56
962.62	1877.58
962.78	1987.14
962.95	1700.84
963.12	1763.30
963.29	1951.92
963.46	2248.87
963.62	1828.43
963.79	1771.29
963.96	2167.16
964.13	1841.33
964.30	1849.73
964.46	1754.70
964.63	1750.81
964.80	2180.68
964.97	1609.09
965.14	1865.49
965.30	1915.67
965.47	1987.96
965.64	1924.68
965.81	1867.75
965.98	2066.20
966.14	1887.20
966.31	1795.45
966.48	1762.28
966.65	2038.14
966.81	1913.01
966.98	1755.31
967.15	1815.32
967.32	1890.48
967.49	1763.10
967.65	1630.59
967.82	1623.83
967.99	1861.81
968.16	1669.91
968.32	1931.03
968.49	1776.00
968.66	1828.43
968.83	2060.87
968.99	1824.33
969.16	1668.07
969.33	2021.14
969.50	1922.43
969.66	1897.85
969.83	1988.37
970.00	1976.29
970.17	1957.45
970.33	1769.65
970.50	1699.61
970.67	2064.97
970.84	2033.63
971.00	1715.79
971.17	1685.68
971.34	1943.93
971.50	1884.95
971.67	1882.90
971.84	1814.50
972.01	1713.74
972.17	1646.16
972.34	1711.28
972.51	1858.12
972.67	2037.11
972.84	1917.31
973.01	1739.54
973.18	1757.36
973.34	1996.56
973.51	1760.02
973.68	1778.87
973.84	1800.98
974.01	1832.52
974.18	2071.52
974.34	1856.48
974.51	1889.87
974.68	1770.26
974.85	2133.16
975.01	1875.12
975.18	1801.60
975.35	1872.46
975.51	1783.99
975.68	1650.87
975.85	1899.08
976.01	1788.49
976.18	2052.68
976.35	1784.60
976.51	1749.17
976.68	2074.59
976.85	2029.33
977.01	1798.53
977.18	1866.31
977.35	1943.32
977.51	1743.64
977.68	1613.80
977.85	1691.42
978.01	1975.27
978.18	1948.44
978.35	1817.98
978.51	1806.10
978.68	2012.95
978.85	2069.06
979.01	1776.61
979.18	1807.74
979.34	1855.87
979.51	1893.55
979.68	1710.26
979.84	1825.76
980.01	2216.72
980.18	1924.27
980.34	1736.68
980.51	1843.58
980.67	1965.64
980.84	1977.72
981.01	1802.01
981.17	1845.42
981.34	1662.95
981.51	1958.88
981.67	1745.89
981.84	1896.62
982.00	1964.00
982.17	1869.80
982.34	1668.48
982.50	1563.01
982.67	2047.15
982.83	1809.59
983.00	1685.89
983.17	1602.54
983.33	2000.25
983.50	1687.12
983.66	1698.79
983.83	1608.68
984.00	1834.78
984.16	1871.02
984.33	1634.07
984.49	1614.82
984.66	1748.56
984.83	1952.53
984.99	1663.57
985.16	1616.46
985.32	1932.05
985.49	1994.31
985.65	1742.82
985.82	1600.90
985.99	2045.72
986.15	1902.56
986.32	1694.49
986.48	1670.53
986.65	1832.73
986.81	1960.73
986.98	1609.29
987.14	1698.38
987.31	1896.01
987.48	1702.07
987.64	1541.51
987.81	1589.22
987.97	2141.36
988.14	1743.23
988.30	1624.04
988.47	1498.70
988.63	1931.85
988.80	1746.30
988.96	1680.77
989.13	1711.49
989.30	1859.56
989.46	1958.88
989.63	1562.40
989.79	1575.91
989.96	1845.83
990.12	2055.75
990.29	1654.96
990.45	1691.01
990.62	1860.17
990.78	2012.33
990.95	1743.64
991.11	1644.93
991.28	1799.35
991.44	1892.73
991.61	1521.64
991.77	1696.13
991.94	1899.29
992.10	2017.86
992.27	1680.56
992.43	1658.85
992.60	1904.41
992.76	1813.48
992.93	1774.97
993.09	1603.76
993.26	1982.43
993.42	2090.36
993.59	1617.90
993.75	1563.21
993.92	1796.07
994.08	1775.38
994.25	1753.88
994.41	1613.80
994.58	1939.02
994.74	2034.04
994.91	1606.02
995.07	1721.52
995.24	1854.85
995.40	1840.51
995.56	1751.22
995.73	1725.62
995.89	2087.70
996.06	1872.46
996.22	1639.60
996.39	1571.00
996.55	1847.47
996.72	1924.89
996.88	1584.10
997.05	1649.64
997.21	2113.71
997.37	1950.90
997.54	1731.56
997.70	1663.57
997.87	1925.50
998.03	1857.51
998.20	1569.56
998.36	1581.44
998.52	1961.75
998.69	1982.64
998.85	1546.83
999.02	1649.43
999.18	1990.63
999.35	1967.89
999.51	1699.81
999.67	1659.26
999.84	1760.23
1000.00	1960.73
1000.17	1717.22
1000.33	1607.86
1000.49	1804.47
1000.66	1855.05
1000.82	1644.11
1000.99	1692.44
1001.15	2010.29
1001.31	1819.01
1001.48	1661.93
1001.64	1716.20
1001.81	1838.26
1001.97	2112.07
1002.13	1646.77
1002.30	1649.02
1002.46	2045.31
1002.63	1834.98
1002.79	1720.09
1002.95	1622.81
1003.12	2002.71
1003.28	1908.50
1003.45	1625.06
1003.61	1611.55
1003.77	1886.38
1003.94	1706.78
1004.10	1672.99
1004.26	1701.45
1004.43	1972.60
1004.59	2082.17
1004.75	1652.10
1004.92	1595.57
1005.08	1800.16
1005.25	1915.87
1005.41	1645.34
1005.57	1720.50
1005.74	1995.95
1005.90	1810.20
1006.06	1743.03
1006.23	1635.71
1006.39	1944.55
1006.55	2206.48
1006.72	1837.03
1006.88	1597.21
1007.04	1757.16
1007.21	1871.84
1007.37	1676.67
1007.53	1651.07
1007.70	2051.45
1007.86	1974.04
1008.02	1686.09
1008.19	1617.90
1008.35	1873.69
1008.51	1759.82
1008.68	1676.88
1008.84	1588.61
1009.00	1759.61
1009.17	2013.77
1009.33	1780.91
1009.49	1741.80
1009.65	1757.57
1009.82	1919.97
1009.98	1705.96
1010.14	1575.71
1010.31	1948.23
1010.47	1916.90
1010.63	1717.02
1010.80	1720.70
1010.96	1907.07
1011.12	1829.25
1011.28	1680.36
1011.45	1662.13
1011.61	2195.22
1011.77	1742.41
1011.94	1638.99
1012.10	1576.73
1012.26	1717.02
1012.42	1811.22
1012.59	1700.22
1012.75	1693.67
1012.91	1851.16
1013.07	1984.89
1013.24	1597.62
1013.40	1646.16
1013.56	1885.36
1013.72	1848.70
1013.89	1720.29
1014.05	1734.02
1014.21	2112.68
1014.37	2198.70
1014.54	1679.54
1014.70	1589.22
1014.86	1841.94
1015.02	1731.56
1015.19	1665.82
1015.35	1588.81
1015.51	1848.29
1015.67	1816.96
1015.84	1640.22
1016.00	1640.42
1016.16	2000.25
1016.32	1956.42
1016.49	1642.06
1016.65	1605.61
1016.81	1840.30
1016.97	1934.92
1017.14	1741.18
1017.30	1628.95
1017.46	1811.84
1017.62	1909.53
1017.78	1727.46
1017.95	1615.23
1018.11	1969.33
1018.27	2155.90
1018.43	1744.87
1018.59	1720.91
1018.76	1968.10
1018.92	2175.76
1019.08	1633.46
1019.24	1665.20
1019.40	2022.98
1019.57	1885.97
1019.73	1719.27
1019.89	1648.00
1020.05	1901.54
1020.21	2122.11
1020.38	1624.86
1020.54	1798.73
1020.70	1932.46
1020.86	1953.35
1021.02	1649.43
1021.18	1634.69
1021.35	1807.54
1021.51	1932.67
1021.67	1782.14
1021.83	1637.97
1021.99	1869.80
1022.15	1911.98
1022.32	1739.95
1022.48	1710.87
1022.64	2031.38
1022.80	2044.49
1022.96	1695.92
1023.12	1586.56
1023.29	1969.74
1023.45	1926.11
1023.61	1660.08
1023.77	1802.62
1023.93	1889.66
1024.09	1784.40
1024.25	1630.18
1024.42	1611.34
1024.58	1816.14
1024.74	1921.81
1024.90	1655.37
1025.06	1726.85
1025.22	1764.73
1025.38	2058.00
1025.54	1610.32
1025.71	1734.42
1025.87	1938.40
1026.03	1916.28
1026.19	1615.64
1026.35	1766.17
1026.51	1939.02
1026.67	1873.69
1026.83	1689.57
1026.99	1771.70
1027.16	1914.44
1027.32	1857.71
1027.48	1687.94
1027.64	1615.64
1027.80	1961.54
1027.96	1877.78
1028.12	1650.25
1028.28	1641.65
1028.44	1895.80
1028.60	2072.54
1028.77	1764.53
1028.93	1699.81
1029.09	1836.21
1029.25	1752.45
1029.41	1696.95
1029.57	1736.27
1029.73	1911.98
1029.89	2088.31
1030.05	1773.13
1030.21	1718.25
1030.37	2196.24
1030.53	1942.91
1030.69	1700.43
1030.85	1595.37
1031.02	1774.97
1031.18	1855.25
1031.34	1657.63
1031.50	1741.80
1031.66	1805.49
1031.82	2071.73
1031.98	1725.00
1032.14	1612.57
1032.30	1763.30
1032.46	1987.96
1032.62	1764.94
1032.78	1590.66
1032.94	1786.65
1033.10	1823.72
1033.26	1728.90
1033.42	1734.63
1033.58	2158.35
1033.74	1799.55
1033.90	1638.17
1034.06	1811.22
1034.22	2127.84
1034.38	1991.65
1034.54	1696.74
1034.70	1701.45
1034.86	2090.36
>>>>>End Processed Spectral Data<<<<<
