SpectraSuite Data File
++++++++++++++++++++++++++++++++++++
Date: Thu Mar 30 16:05:53 PDT 2017
User: UCSD _CER
Dark Spectrum Present: No
Reference Spectrum Present: No
Number of Sampled Component Spectra: 1
Spectrometers: USB4C00073
Integration Time (usec): 250000 (USB4C00073)
Spectra Averaged: 10 (USB4C00073)
Boxcar Smoothing: 0 (USB4C00073)
Correct for Electrical Dark: No (USB4C00073)
Strobe/Lamp Enabled: No (USB4C00073)
Correct for Detector Non-linearity: No (USB4C00073)
Correct for Stray Light: No (USB4C00073)
Number of Pixels in Processed Spectrum: 3648
>>>>>Begin Processed Spectral Data<<<<<
345.37	1262.98
345.58	1262.98
345.80	1262.98
346.01	1282.03
346.22	1277.93
346.43	1988.37
346.65	1770.88
346.86	2114.94
347.07	2089.75
347.28	1794.43
347.50	1794.64
347.71	1907.48
347.92	1727.26
348.13	1798.53
348.35	1724.18
348.56	1935.94
348.77	1772.11
348.98	1811.02
349.20	1664.79
349.41	1919.77
349.62	1993.29
349.83	1856.48
350.05	1709.44
350.26	1943.73
350.47	2085.24
350.68	1784.80
350.90	1727.05
351.11	2091.59
351.32	2047.15
351.53	1834.37
351.75	1723.78
351.96	1941.68
352.17	1893.14
352.38	1851.57
352.60	1852.59
352.81	1925.50
353.02	2128.66
353.23	1769.85
353.44	1784.60
353.66	1841.33
353.87	1874.92
354.08	1911.57
354.29	1815.73
354.51	1854.64
354.72	1892.73
354.93	1795.86
355.14	1738.93
355.35	1740.16
355.57	2049.40
355.78	1828.63
355.99	1892.94
356.20	1924.07
356.42	1896.01
356.63	1913.62
356.84	1865.09
357.05	2025.24
357.26	2190.30
357.48	1903.59
357.69	1816.75
357.90	1961.75
358.11	1858.94
358.32	1795.45
358.54	1849.52
358.75	1870.21
358.96	1979.57
359.17	1768.42
359.38	1801.80
359.60	1987.55
359.81	1898.67
360.02	1809.59
360.23	1771.90
360.44	1853.41
360.66	2039.57
360.87	1756.75
361.08	1759.41
361.29	1946.18
361.50	1905.63
361.72	1788.90
361.93	1856.48
362.14	1945.98
362.35	1753.88
362.56	1901.54
362.77	1728.28
362.99	1985.51
363.20	1896.21
363.41	1881.67
363.62	1697.36
363.83	1963.59
364.05	2007.83
364.26	1684.04
364.47	1753.68
364.68	2051.25
364.89	1815.11
365.10	1735.45
365.32	1782.96
365.53	1796.68
365.74	1852.18
365.95	1809.38
366.16	1685.89
366.37	1890.07
366.59	1848.50
366.80	1816.14
367.01	1683.43
367.22	2146.48
367.43	2283.28
367.64	1796.68
367.86	1823.10
368.07	1955.81
368.28	2064.35
368.49	1714.76
368.70	1839.49
368.91	1859.15
369.12	1887.41
369.34	1701.86
369.55	1749.99
369.76	1898.26
369.97	1862.42
370.18	1730.12
370.39	1747.33
370.60	1746.30
370.82	1763.71
371.03	1828.84
371.24	1742.21
371.45	1986.32
371.66	1986.73
371.87	1786.44
372.08	1761.66
372.30	1773.13
372.51	1987.76
372.72	1866.11
372.93	1763.92
373.14	2085.65
373.35	1797.71
373.56	1774.36
373.78	1812.25
373.99	2002.71
374.20	2261.37
374.41	1789.11
374.62	1804.06
374.83	2097.12
375.04	1867.75
375.25	1787.06
375.47	1759.61
375.68	1856.28
375.89	2002.09
376.10	1787.06
376.31	1884.95
376.52	1952.12
376.73	1934.92
376.94	1826.38
377.15	1797.91
377.37	1921.40
377.58	1850.95
377.79	1665.82
378.00	1725.82
378.21	1953.35
378.42	1974.86
378.63	1828.22
378.84	1871.23
379.05	2046.13
379.27	1888.23
379.48	1918.74
379.69	1725.62
379.90	2051.25
380.11	1666.23
380.32	1785.62
380.53	1881.88
380.74	2075.82
380.95	1933.49
381.16	1796.27
381.37	1775.38
381.59	2075.41
381.80	1998.00
382.01	1742.41
382.22	1679.95
382.43	1963.18
382.64	1917.92
382.85	1730.33
383.06	1847.27
383.27	1998.82
383.48	1906.66
383.69	1840.92
383.91	1738.52
384.12	1986.32
384.33	1963.39
384.54	1808.36
384.75	1679.33
384.96	2248.46
385.17	2011.31
385.38	1768.22
385.59	1786.44
385.80	1992.06
386.01	2105.72
386.22	1866.11
386.43	1813.68
386.64	2197.06
386.86	1874.51
387.07	1928.57
387.28	1710.67
387.49	1824.74
387.70	2035.48
387.91	1882.49
388.12	1748.35
388.33	1953.56
388.54	1839.08
388.75	1796.68
388.96	1864.88
389.17	1832.52
389.38	1881.47
389.59	1877.99
389.80	1820.85
390.01	1902.36
390.22	1868.16
390.43	1875.32
390.64	1654.55
390.86	1937.38
391.07	2021.96
391.28	1809.59
391.49	1822.28
391.70	1734.63
391.91	1769.24
392.12	1821.67
392.33	1785.42
392.54	1896.83
392.75	1863.45
392.96	1851.16
393.17	1730.53
393.38	2171.67
393.59	2051.66
393.80	1740.77
394.01	1865.49
394.22	1954.17
394.43	2245.39
394.64	1841.12
394.85	1994.11
395.06	1987.96
395.27	1978.75
395.48	1845.63
395.69	1731.35
395.90	1878.60
396.11	1921.61
396.32	1765.96
396.53	1902.97
396.74	1863.86
396.95	2015.20
397.16	1764.53
397.37	1698.18
397.58	1997.38
397.79	1898.88
398.00	1838.05
398.21	1799.75
398.42	1947.62
398.63	2162.45
398.84	1779.48
399.05	1756.75
399.26	2061.89
399.47	1954.38
399.68	1635.51
399.89	1756.54
400.10	1760.64
400.31	1851.98
400.52	1807.54
400.73	1786.44
400.94	1718.66
401.15	1917.92
401.36	1785.83
401.57	1847.06
401.78	2071.52
401.99	2038.55
402.20	1725.41
402.41	1891.91
402.62	2110.23
402.83	1864.88
403.04	1769.04
403.25	1924.68
403.46	1982.64
403.67	2150.16
403.88	1921.61
404.09	1929.60
404.30	1976.90
404.51	1943.93
404.72	1842.97
404.93	1941.27
405.14	1843.99
405.35	1923.66
405.56	1818.39
405.77	1788.29
405.98	1906.25
406.19	1892.12
406.40	1772.72
406.61	1759.61
406.82	1841.33
407.03	2188.87
407.24	1726.85
407.45	1810.61
407.66	1928.37
407.87	2003.53
408.08	1879.22
408.29	1870.82
408.49	2000.66
408.70	1895.60
408.91	1826.99
409.12	1872.87
409.33	1790.13
409.54	2043.26
409.75	1780.91
409.96	1798.53
410.17	1988.58
410.38	1889.25
410.59	1778.66
410.80	1888.02
411.01	1896.62
411.22	1878.81
411.43	1837.03
411.64	1776.61
411.85	1795.66
412.06	1804.67
412.27	1625.47
412.47	1804.67
412.68	1910.75
412.89	1947.82
413.10	1800.16
413.31	1671.55
413.52	2128.66
413.73	2164.50
413.94	1775.18
414.15	1904.00
414.36	1835.18
414.57	1814.91
414.78	1785.42
414.99	2171.87
415.19	2647.41
415.40	2733.83
415.61	2915.90
415.82	2763.53
416.03	2676.08
416.24	2437.08
416.45	2156.72
416.66	1938.40
416.87	1835.18
417.08	2067.63
417.29	1830.47
417.50	1959.70
417.70	2111.46
417.91	2122.92
418.12	2066.61
418.33	2156.72
418.54	2309.70
418.75	2482.55
418.96	2505.08
419.17	2747.15
419.38	3287.40
419.59	3305.83
419.79	3154.69
420.00	3019.93
420.21	3052.91
420.42	2461.45
420.63	2127.63
420.84	2046.74
421.05	1941.27
421.26	1948.64
421.47	1754.09
421.67	2038.34
421.88	1802.62
422.09	1762.48
422.30	1946.80
422.51	1812.86
422.72	2118.83
422.93	1992.47
423.14	1798.12
423.35	1683.84
423.55	1711.90
423.76	1806.72
423.97	1798.53
424.18	1712.72
424.39	1915.67
424.60	2082.58
424.81	1889.87
425.02	2063.12
425.22	2146.89
425.43	2191.33
425.64	2372.78
425.85	2316.25
426.06	2618.94
426.27	2468.42
426.48	2475.38
426.68	2447.94
426.89	2547.88
427.10	2622.22
427.31	2166.96
427.52	1934.51
427.73	2111.25
427.94	2031.79
428.14	1916.90
428.35	1815.93
428.56	2091.59
428.77	2027.90
428.98	1893.76
429.19	2015.41
429.40	2151.80
429.60	2203.61
429.81	2254.40
430.02	2164.09
430.23	2077.05
430.44	2146.48
430.65	1905.84
430.85	1892.73
431.06	1982.23
431.27	1718.86
431.48	1796.27
431.69	1841.33
431.90	1907.27
432.10	1921.20
432.31	1875.32
432.52	1911.98
432.73	2511.63
432.94	2471.49
433.15	2344.92
433.35	2233.31
433.56	2395.51
433.77	2157.33
433.98	2093.02
434.19	1981.20
434.40	2032.40
434.60	1979.36
434.81	1863.45
435.02	1884.54
435.23	1919.97
435.44	1859.97
435.64	1710.26
435.85	1756.13
436.06	1879.42
436.27	1837.23
436.48	1715.58
436.68	1750.81
436.89	2122.72
437.10	2009.26
437.31	1819.42
437.52	1894.99
437.73	1912.39
437.93	1925.30
438.14	1864.68
438.35	1722.96
438.56	1847.47
438.77	1863.45
438.97	1931.64
439.18	1754.09
439.39	2052.06
439.60	1754.09
439.80	1678.31
440.01	1801.80
440.22	1826.99
440.43	1986.73
440.64	1716.40
440.84	1825.15
441.05	1753.27
441.26	2249.49
441.47	1847.06
441.68	1782.76
441.88	1880.85
442.09	1872.25
442.30	1954.17
442.51	1859.15
442.71	1853.82
442.92	1923.04
443.13	1767.81
443.34	1749.78
443.55	1810.81
443.75	1942.50
443.96	1759.82
444.17	1748.35
444.38	2028.31
444.58	1789.11
444.79	1890.89
445.00	1856.28
445.21	1885.77
445.41	1857.92
445.62	1617.69
445.83	1867.34
446.04	1935.13
446.24	1764.94
446.45	1644.31
446.66	1790.54
446.87	1941.27
447.07	1840.51
447.28	1983.25
447.49	1814.30
447.70	1991.85
447.90	2032.20
448.11	1798.53
448.32	1887.82
448.53	2077.46
448.73	2060.05
448.94	1797.30
449.15	1948.64
449.36	1892.32
449.56	1960.93
449.77	1791.56
449.98	1730.74
450.19	1912.19
450.39	1993.29
450.60	2008.65
450.81	1986.94
451.02	2053.70
451.22	2189.89
451.43	1840.51
451.64	1877.99
451.84	1958.68
452.05	2144.43
452.26	1939.63
452.47	1858.12
452.67	1845.42
452.88	2106.13
453.09	1789.92
453.30	1739.75
453.50	1992.67
453.71	2062.51
453.92	1787.47
454.12	1911.57
454.33	1825.97
454.54	1884.13
454.75	1739.95
454.95	1736.47
455.16	1931.03
455.37	1953.56
455.57	1836.21
455.78	1809.59
455.99	1883.11
456.19	1935.54
456.40	1766.17
456.61	1854.23
456.82	1903.79
457.02	1980.59
457.23	1881.88
457.44	1979.98
457.64	1838.87
457.85	1999.84
458.06	1840.51
458.26	1980.39
458.47	1919.36
458.68	2054.32
458.89	1792.59
459.09	1984.48
459.30	2247.44
459.51	1986.32
459.71	1771.70
459.92	1846.65
460.13	2008.03
460.33	2191.12
460.54	1822.08
460.75	1821.87
460.95	1761.66
461.16	1961.95
461.37	1806.31
461.57	1856.69
461.78	1911.37
461.99	1789.31
462.19	2068.45
462.40	1811.43
462.61	2381.99
462.81	2079.71
463.02	1764.94
463.23	1827.61
463.43	2028.92
463.64	1884.13
463.85	2761.28
464.05	1834.98
464.26	2352.09
464.47	2102.65
464.67	2004.76
464.88	1891.30
465.09	1817.57
465.29	1933.08
465.50	1923.25
465.71	1822.49
465.91	1847.88
466.12	1863.65
466.33	1891.09
466.53	1820.85
466.74	2055.75
466.94	1879.01
467.15	1834.57
467.36	2025.03
467.56	1815.32
467.77	1948.23
467.98	1850.34
468.18	1783.78
468.39	1829.86
468.60	2145.45
468.80	1864.47
469.01	1775.18
469.21	1996.56
469.42	2072.95
469.63	1903.79
469.83	1842.56
470.04	2084.42
470.25	2213.44
470.45	1943.32
470.66	1810.40
470.86	1995.13
471.07	1894.99
471.28	1924.68
471.48	1970.35
471.69	1961.13
471.90	2366.02
472.10	1816.14
472.31	1836.41
472.51	1837.85
472.72	1822.49
472.93	1736.06
473.13	1939.22
473.34	1961.75
473.54	1886.18
473.75	1839.90
473.96	2013.15
474.16	1909.73
474.37	2010.29
474.57	1928.37
474.78	1850.75
474.99	2016.02
475.19	2023.39
475.40	1849.93
475.60	1766.99
475.81	2103.26
476.02	1900.92
476.22	1916.49
476.43	2036.91
476.63	1965.44
476.84	2139.51
477.05	1734.22
477.25	1814.71
477.46	2327.31
477.66	1927.75
477.87	1716.40
478.08	1823.72
478.28	2042.03
478.49	1901.54
478.69	1776.82
478.90	1821.67
479.10	2008.85
479.31	2090.57
479.52	1897.65
479.72	1957.24
479.93	2024.62
480.13	1855.46
480.34	1805.69
480.54	1906.45
480.75	1812.66
480.96	2062.51
481.16	1765.35
481.37	1918.95
481.57	2008.44
481.78	1932.26
481.98	2025.24
482.19	1870.41
482.40	2145.25
482.60	2015.00
482.81	1925.50
483.01	1859.76
483.22	2070.09
483.42	2058.21
483.63	1978.95
483.83	1917.10
484.04	1868.77
484.24	2023.39
484.45	1899.90
484.66	1754.70
484.86	1962.16
485.07	1837.64
485.27	1910.35
485.48	1787.47
485.68	2075.62
485.89	1855.66
486.09	1924.48
486.30	1816.96
486.50	1950.08
486.71	1966.25
486.91	1982.23
487.12	2038.75
487.33	2283.28
487.53	2298.64
487.74	2025.85
487.94	2029.33
488.15	2111.25
488.35	2234.33
488.56	2095.89
488.76	2064.56
488.97	2072.34
489.17	2116.17
489.38	1948.44
489.58	1884.75
489.79	2008.24
489.99	2000.46
490.20	1913.83
490.40	1954.17
490.61	1996.97
490.81	1855.87
491.02	1887.82
491.22	1919.15
491.43	2026.87
491.63	1926.93
491.84	2005.99
492.04	1760.02
492.25	2011.92
492.45	1901.13
492.66	1819.01
492.86	1738.93
493.07	1892.94
493.27	2198.29
493.48	1713.33
493.68	1884.75
493.89	1909.12
494.09	2027.90
494.30	1813.68
494.50	2095.89
494.71	2031.38
494.91	1822.69
495.12	1953.15
495.32	2013.56
495.53	2011.51
495.73	1801.60
495.94	1849.32
496.14	1730.12
496.35	2161.63
496.55	1891.91
496.76	1834.57
496.96	1924.68
497.17	1935.74
497.37	2011.51
497.58	1819.01
497.78	1769.04
497.98	1907.27
498.19	1922.63
498.39	1925.09
498.60	1969.94
498.80	1746.30
499.01	2048.79
499.21	1777.02
499.42	1872.05
499.62	1881.47
499.83	2221.43
500.03	1736.88
500.24	1918.95
500.44	2086.88
500.64	2044.49
500.85	1842.56
501.05	1959.50
501.26	1759.21
501.46	2080.94
501.67	1812.04
501.87	1763.71
502.08	1831.29
502.28	1903.18
502.48	1940.04
502.69	2000.05
502.89	1797.09
503.10	1883.52
503.30	1924.48
503.51	1912.39
503.71	1773.54
503.92	2067.22
504.12	2005.58
504.32	1946.18
504.53	2109.82
504.73	2185.59
504.94	2134.80
505.14	2243.55
505.35	2233.51
505.55	2229.21
505.75	2153.44
505.96	2223.27
506.16	2334.68
506.37	2001.07
506.57	1904.00
506.78	1994.72
506.98	2162.04
507.18	1861.60
507.39	1847.06
507.59	1935.33
507.80	1907.27
508.00	1997.59
508.20	2087.70
508.41	1950.08
508.61	2151.80
508.82	2078.69
509.02	2015.82
509.22	1800.78
509.43	1821.46
509.63	1870.00
509.84	1864.88
510.04	1749.17
510.24	2103.47
510.45	2028.51
510.65	1793.00
510.86	1918.95
511.06	1830.27
511.26	2080.74
511.47	2012.13
511.67	1882.49
511.88	2043.26
512.08	2109.82
512.28	1784.60
512.49	1951.71
512.69	1938.20
512.90	1957.86
513.10	1828.84
513.30	1899.29
513.51	1995.13
513.71	2113.91
513.91	1937.38
514.12	1914.44
514.32	2076.85
514.53	1950.28
514.73	2087.49
514.93	2039.16
515.14	2137.67
515.34	2364.58
515.54	2217.75
515.75	2348.61
515.95	2456.95
516.15	2508.56
516.36	2238.23
516.56	2153.23
516.77	1820.85
516.97	2139.10
517.17	1977.11
517.38	2073.57
517.58	2226.35
517.78	2091.80
517.99	2239.25
518.19	2370.52
518.39	2604.20
518.60	2463.09
518.80	2250.10
519.00	2246.62
519.21	2115.35
519.41	2314.82
519.61	1933.90
519.82	2030.97
520.02	2011.11
520.22	1998.00
520.43	1991.24
520.63	1966.66
520.83	1938.20
521.04	1881.26
521.24	2223.68
521.44	2210.37
521.65	2307.24
521.85	2512.86
522.05	2269.76
522.26	2188.25
522.46	2383.22
522.66	2168.80
522.87	1939.02
523.07	2126.61
523.27	1942.50
523.48	2208.53
523.68	2040.19
523.88	2022.57
524.09	2188.87
524.29	2089.34
524.49	1936.76
524.70	2242.94
524.90	2375.03
525.10	2294.95
525.31	2004.14
525.51	1946.59
525.71	2123.13
525.91	2045.92
526.12	1880.44
526.32	1797.71
526.52	1876.55
526.73	1862.63
526.93	1937.38
527.13	1755.72
527.34	1941.47
527.54	1957.86
527.74	1866.52
527.94	1835.80
528.15	1845.63
528.35	2000.87
528.55	2010.08
528.76	1960.11
528.96	1741.18
529.16	2043.26
529.36	2027.90
529.57	1779.68
529.77	2076.85
529.97	1844.81
530.18	1977.31
530.38	1879.42
530.58	2041.82
530.78	1956.83
530.99	1860.78
531.19	1983.05
531.39	1890.68
531.60	1949.46
531.80	1871.23
532.00	2019.09
532.20	1978.95
532.41	1874.51
532.61	1862.42
532.81	1862.42
533.01	1888.02
533.22	1959.29
533.42	1972.40
533.62	1733.81
533.82	2090.57
534.03	1928.57
534.23	1970.97
534.43	1807.54
534.63	1906.04
534.84	1943.93
535.04	1935.54
535.24	1902.36
535.44	2249.08
535.65	1863.86
535.85	1823.51
536.05	1839.49
536.25	1919.56
536.46	1862.83
536.66	2076.85
536.86	1982.84
537.06	2084.01
537.27	2143.61
537.47	2010.29
537.67	1889.25
537.87	2147.30
538.08	1930.01
538.28	1803.03
538.48	1815.93
538.68	1935.54
538.88	2026.26
539.09	1807.54
539.29	1908.50
539.49	2064.56
539.69	1963.80
539.90	1964.82
540.10	1836.62
540.30	2128.25
540.50	1927.55
540.70	1841.53
540.91	1976.09
541.11	2120.06
541.31	2308.27
541.51	2157.94
541.72	2195.63
541.92	2227.17
542.12	2058.82
542.32	2018.89
542.52	1957.65
542.73	1937.58
542.93	2050.84
543.13	1937.17
543.33	2075.00
543.53	2178.22
543.74	2212.01
543.94	2045.51
544.14	2217.34
544.34	2391.00
544.54	2277.96
544.75	2399.81
544.95	2522.69
545.15	2427.46
545.35	2460.22
545.55	2272.43
545.75	2066.40
545.96	2398.99
546.16	1991.24
546.36	1995.75
546.56	2003.53
546.76	2154.46
546.97	2212.63
547.17	1941.68
547.37	1994.72
547.57	1888.23
547.77	2025.44
547.97	1953.76
548.18	1951.10
548.38	1997.18
548.58	2502.41
548.78	2562.21
548.98	2916.51
549.18	3250.54
549.39	3401.27
549.59	3049.02
549.79	2763.53
549.99	2842.58
550.19	2616.69
550.39	2485.21
550.60	2291.68
550.80	2245.39
551.00	2243.14
551.20	2027.28
551.40	1974.24
551.60	2099.37
551.80	2055.14
552.01	2097.32
552.21	2008.44
552.41	2072.75
552.61	2231.67
552.81	2002.91
553.01	1895.80
553.21	2059.03
553.42	1869.39
553.62	1857.51
553.82	1852.18
554.02	2163.47
554.22	2025.85
554.42	1832.32
554.62	2005.78
554.83	2349.84
555.03	2617.51
555.23	2556.07
555.43	2933.31
555.63	2904.22
555.83	2819.85
556.03	2498.32
556.23	2318.51
556.44	2467.60
556.64	2526.99
556.84	2156.72
557.04	2312.77
557.24	2350.45
557.44	2224.30
557.64	2106.95
557.84	1953.97
558.04	1987.76
558.25	2132.55
558.45	1907.68
558.65	2020.32
558.85	2066.81
559.05	1871.02
559.25	2022.98
559.45	2209.14
559.65	2595.60
559.85	3078.30
560.05	2550.54
560.26	2672.60
560.46	2697.79
560.66	2466.78
560.86	2309.29
561.06	2165.11
561.26	2399.40
561.46	2238.84
561.66	2046.74
561.86	2155.08
562.06	1990.63
562.26	2048.17
562.47	2027.28
562.67	1852.18
562.87	2062.92
563.07	1849.93
563.27	2005.78
563.47	2009.26
563.67	1971.17
563.87	2127.63
564.07	2035.07
564.27	2157.13
564.47	2242.53
564.67	2348.20
564.87	2207.10
565.08	2262.80
565.28	2105.52
565.48	2237.20
565.68	2156.10
565.88	2112.89
566.08	2267.92
566.28	1977.93
566.48	1832.32
566.68	1916.69
566.88	1922.02
567.08	2052.47
567.28	1947.00
567.48	1975.06
567.68	2073.98
567.88	1888.84
568.08	2101.83
568.28	2185.59
568.48	2064.56
568.68	2235.56
568.89	2054.73
569.09	1850.13
569.29	2095.89
569.49	2092.41
569.69	1849.73
569.89	1843.58
570.09	1727.26
570.29	1865.49
570.49	1773.95
570.69	1840.51
570.89	2040.19
571.09	2204.84
571.29	1755.93
571.49	2048.79
571.69	1936.56
571.89	1976.09
572.09	1824.13
572.29	1852.80
572.49	1985.71
572.69	1998.61
572.89	1937.58
573.09	1778.05
573.29	2075.00
573.49	2142.38
573.69	2108.18
573.89	2185.39
574.09	1977.52
574.29	2176.38
574.49	1933.69
574.69	1879.01
574.89	1819.21
575.09	1822.90
575.29	1823.31
575.49	1889.25
575.69	1946.80
575.89	1778.46
576.09	1914.24
576.29	1960.52
576.49	1855.05
576.69	1951.51
576.89	1913.42
577.09	1982.23
577.29	1811.22
577.49	2217.75
577.69	1862.83
577.89	2016.84
578.09	1968.92
578.29	1753.06
578.49	1903.59
578.69	1825.35
578.89	2069.06
579.09	1939.63
579.29	1851.98
579.49	2054.32
579.69	1915.06
579.89	2238.23
580.09	1768.63
580.29	1791.77
580.49	1883.52
580.69	1831.50
580.89	1880.04
581.09	1882.29
581.29	1869.18
581.49	1902.36
581.69	1783.37
581.89	1829.04
582.09	1801.80
582.28	1827.40
582.48	2046.54
582.68	2139.51
582.88	2212.22
583.08	2028.51
583.28	2018.27
583.48	1989.81
583.68	1897.85
583.88	1976.29
584.08	1978.95
584.28	1923.45
584.48	2195.42
584.68	2007.42
584.88	1876.76
585.08	2045.31
585.28	2079.10
585.48	2123.54
585.68	2034.66
585.87	2025.85
586.07	2014.79
586.27	1935.13
586.47	2019.91
586.67	1927.34
586.87	1923.45
587.07	1874.30
587.27	1829.86
587.47	2008.03
587.67	2297.82
587.87	2628.16
588.07	2490.94
588.27	2490.94
588.46	2722.36
588.66	2760.25
588.86	2417.63
589.06	2390.59
589.26	2343.49
589.46	2257.07
589.66	1984.07
589.86	1910.96
590.06	2056.16
590.26	2232.90
590.46	2141.97
590.66	2277.55
590.85	2217.95
591.05	2321.17
591.25	2066.61
591.45	2110.64
591.65	2189.69
591.85	2189.28
592.05	2154.26
592.25	2309.49
592.45	2397.15
592.64	2248.46
592.84	2209.96
593.04	2038.55
593.24	2471.49
593.44	2097.32
593.64	2155.28
593.84	2183.95
594.04	2078.07
594.24	2280.62
594.43	1964.82
594.63	1979.16
594.83	2113.91
595.03	2087.08
595.23	1875.94
595.43	1791.36
595.63	1840.30
595.83	2042.85
596.02	1738.52
596.22	1942.50
596.42	2043.46
596.62	2002.91
596.82	1935.94
597.02	2057.59
597.22	2121.08
597.41	2000.05
597.61	1911.78
597.81	2074.59
598.01	2157.74
598.21	1995.13
598.41	1996.36
598.61	1971.17
598.80	2050.84
599.00	2114.12
599.20	2192.35
599.40	1987.96
599.60	2043.87
599.80	2158.15
599.99	2170.64
600.19	1997.38
600.39	2039.57
600.59	2089.54
600.79	2043.87
600.99	2041.21
601.19	2242.53
601.38	2268.94
601.58	2060.46
601.78	1828.63
601.98	2311.75
602.18	3058.64
602.37	3767.24
602.57	3986.17
602.77	4435.49
602.97	4541.37
603.17	4276.98
603.37	4071.57
603.56	4055.39
603.76	3930.87
603.96	3812.09
604.16	3540.53
604.36	3317.50
604.56	3117.21
604.75	2668.09
604.95	2609.32
605.15	2655.60
605.35	2514.29
605.55	2298.84
605.74	2187.64
605.94	2346.56
606.14	2162.45
606.34	2101.01
606.54	2017.04
606.73	1962.98
606.93	2072.95
607.13	1866.52
607.33	1971.78
607.53	2141.97
607.72	2071.93
607.92	2024.83
608.12	2071.93
608.32	1977.72
608.51	2066.81
608.71	1933.69
608.91	2083.40
609.11	2175.15
609.31	2128.86
609.50	2248.87
609.70	2468.83
609.90	2423.16
610.10	2432.99
610.29	2276.73
610.49	2122.11
610.69	2284.92
610.89	2177.61
611.09	2122.31
611.28	2197.68
611.48	2164.29
611.68	1992.88
611.88	1978.75
612.07	1938.81
612.27	2123.33
612.47	1949.67
612.67	2032.61
612.86	2102.44
613.06	1968.92
613.26	1776.61
613.46	1985.71
613.65	2070.70
613.85	2456.13
614.05	2248.87
614.25	2241.50
614.44	2153.64
614.64	2113.71
614.84	2077.05
615.04	2053.09
615.23	2085.86
615.43	2187.44
615.63	2161.63
615.83	1957.65
616.02	1967.48
616.22	2346.15
616.42	2177.61
616.62	2264.03
616.81	2373.19
617.01	2394.89
617.21	2287.58
617.41	2097.32
617.60	2123.54
617.80	2190.30
618.00	2145.86
618.19	2060.87
618.39	2015.61
618.59	2043.87
618.79	1953.97
618.98	1727.46
619.18	1886.79
619.38	2203.82
619.57	1907.68
619.77	1885.36
619.97	1882.90
620.17	1915.67
620.36	1921.81
620.56	2252.15
620.76	2057.18
620.95	2122.92
621.15	2201.98
621.35	2066.61
621.54	2095.89
621.74	2114.53
621.94	2006.80
622.14	1898.67
622.33	1847.88
622.53	1967.69
622.73	1938.61
622.92	1768.42
623.12	1924.07
623.32	2146.48
623.51	1992.06
623.71	1773.34
623.91	2050.02
624.10	1831.50
624.30	1940.66
624.50	1829.04
624.69	1799.35
624.89	2383.63
625.09	1919.15
625.29	1708.83
625.48	1762.48
625.68	1941.06
625.88	2038.96
626.07	1907.27
626.27	1792.59
626.47	1866.93
626.66	1742.41
626.86	1876.96
627.06	1884.13
627.25	1926.11
627.45	2113.09
627.64	1883.93
627.84	2062.10
628.04	1834.37
628.23	2175.15
628.43	1779.48
628.63	1872.87
628.82	1966.87
629.02	2264.64
629.22	2157.74
629.41	2241.71
629.61	2141.56
629.81	2409.84
630.00	2074.59
630.20	2081.56
630.40	2254.81
630.59	2247.85
630.79	2098.35
630.98	2072.13
631.18	2031.18
631.38	2025.44
631.57	2101.01
631.77	1816.34
631.97	1968.92
632.16	1980.80
632.36	1933.08
632.56	1894.37
632.75	1934.92
632.95	2036.09
633.14	1767.60
633.34	2033.43
633.54	1676.26
633.73	1863.45
633.93	1828.43
634.12	1730.94
634.32	2224.09
634.52	1907.27
634.71	1742.00
634.91	1911.78
635.11	1746.71
635.30	1830.47
635.50	1904.41
635.69	1802.83
635.89	2168.18
636.09	2096.71
636.28	1871.02
636.48	1926.32
636.67	2078.07
636.87	2063.33
637.07	2022.78
637.26	1890.28
637.46	2059.44
637.65	2140.33
637.85	1992.26
638.04	1942.29
638.24	1980.80
638.44	2079.71
638.63	1946.80
638.83	1929.80
639.02	2020.12
639.22	2014.38
639.42	1899.29
639.61	1891.30
639.81	1910.96
640.00	1893.55
640.20	1991.44
640.39	2021.35
640.59	2425.82
640.79	2427.05
640.98	2491.15
641.18	2520.64
641.37	2568.56
641.57	2350.66
641.76	2340.42
641.96	2065.58
642.15	2222.46
642.35	2118.62
642.55	2105.52
642.74	1958.47
642.94	2158.15
643.13	2116.99
643.33	1911.78
643.52	1846.04
643.72	1854.64
643.91	1934.92
644.11	1839.90
644.31	1796.89
644.50	1835.80
644.70	2055.34
644.89	1863.65
645.09	1933.90
645.28	1881.88
645.48	1956.01
645.67	1806.51
645.87	1731.15
646.06	1919.15
646.26	1938.40
646.45	1713.13
646.65	1692.03
646.84	2153.03
647.04	1874.51
647.24	1767.40
647.43	1912.60
647.63	1930.62
647.82	2096.10
648.02	1779.07
648.21	1814.91
648.41	2108.18
648.60	1831.29
648.80	2000.87
648.99	1924.27
649.19	1835.80
649.38	1734.63
649.58	1912.60
649.77	1935.33
649.97	2041.42
650.16	1967.48
650.36	1669.09
650.55	1998.00
650.75	1937.38
650.94	2094.46
651.14	1896.01
651.33	1888.23
651.53	2122.31
651.72	1805.28
651.92	1879.63
652.11	1701.86
652.31	1972.40
652.50	1956.63
652.70	1926.11
652.89	1806.10
653.09	2141.36
653.28	1930.42
653.48	1759.00
653.67	1760.23
653.87	2328.75
654.06	1940.45
654.25	2090.57
654.45	1842.97
654.64	1857.92
654.84	1879.83
655.03	1668.07
655.23	2003.53
655.42	1995.13
655.62	2132.55
655.81	1900.52
656.01	1799.75
656.20	2011.11
656.40	2118.42
656.59	1887.82
656.79	2022.57
656.98	1930.21
657.17	2019.50
657.37	1916.90
657.56	1818.60
657.76	1949.67
657.95	2027.90
658.15	1580.21
658.34	1854.23
658.54	1905.02
658.73	1754.70
658.92	1839.08
659.12	1924.89
659.31	2005.58
659.51	1860.58
659.70	2024.83
659.90	1952.53
660.09	2138.69
660.29	2024.01
660.48	1863.24
660.67	2085.45
660.87	1892.94
661.06	1992.88
661.26	1991.44
661.45	1999.84
661.65	1969.33
661.84	1856.69
662.03	1832.73
662.23	1833.75
662.42	2153.03
662.62	1752.86
662.81	1781.73
663.00	1830.88
663.20	1915.26
663.39	1959.70
663.59	1969.33
663.78	1832.73
663.97	1847.88
664.17	1999.84
664.36	1732.99
664.56	1772.52
664.75	1988.37
664.94	1986.32
665.14	1923.04
665.33	1909.12
665.53	1990.22
665.72	1969.12
665.91	2068.86
666.11	1946.80
666.30	2004.14
666.50	1901.74
666.69	1951.51
666.88	1909.94
667.08	1958.27
667.27	1880.04
667.47	1946.18
667.66	1870.61
667.85	2018.07
668.05	1930.21
668.24	1819.01
668.43	2007.83
668.63	1840.92
668.82	2052.88
669.02	1970.97
669.21	1923.86
669.40	1804.87
669.60	2154.46
669.79	1780.91
669.98	2354.96
670.18	1816.96
670.37	1780.71
670.56	1870.61
670.76	1925.09
670.95	1935.13
671.15	2062.10
671.34	1969.12
671.53	1936.15
671.73	1910.96
671.92	1824.54
672.11	1807.74
672.31	1884.13
672.50	1984.28
672.69	1771.08
672.89	1667.46
673.08	1858.33
673.27	2008.44
673.47	1913.42
673.66	1943.93
673.85	1815.73
674.05	2051.04
674.24	2336.73
674.43	2422.13
674.63	2814.73
674.82	3196.88
675.01	2678.54
675.21	2817.19
675.40	2601.33
675.59	2520.44
675.79	2676.29
675.98	2392.44
676.17	2454.90
676.37	2361.72
676.56	2205.66
676.75	2148.52
676.95	2073.16
677.14	2005.17
677.33	2128.04
677.52	1852.80
677.72	1880.44
677.91	1958.68
678.10	1774.97
678.30	1784.80
678.49	1756.13
678.68	2192.96
678.88	1690.19
679.07	1991.24
679.26	1850.75
679.45	2128.45
679.65	2048.58
679.84	1702.89
680.03	1716.61
680.23	1858.53
680.42	2232.29
680.61	1749.78
680.81	1829.25
681.00	1906.45
681.19	1922.22
681.38	1990.63
681.58	1967.28
681.77	1861.60
681.96	2041.21
682.15	1864.06
682.35	1961.75
682.54	2019.71
682.73	1789.11
682.93	1836.21
683.12	1819.21
683.31	1988.17
683.50	2262.60
683.70	1781.94
683.89	1899.29
684.08	1784.19
684.27	2055.96
684.47	1742.00
684.66	1936.15
684.85	2172.28
685.04	2082.78
685.24	1833.34
685.43	1885.77
685.62	1703.30
685.81	1960.11
686.01	2109.61
686.20	2191.12
686.39	2223.89
686.58	2767.62
686.78	2556.27
686.97	2537.43
687.16	2464.12
687.35	2388.14
687.55	2253.79
687.74	2263.01
687.93	2139.10
688.12	2244.16
688.32	2186.21
688.51	1984.69
688.70	2156.51
688.89	1912.60
689.08	1826.79
689.28	1899.08
689.47	1973.63
689.66	1967.07
689.85	2019.71
690.05	1865.90
690.24	1841.33
690.43	1966.87
690.62	1924.89
690.81	1826.99
691.01	1928.16
691.20	1847.88
691.39	1793.61
691.58	1976.29
691.77	2114.12
691.97	1927.96
692.16	1943.73
692.35	1864.68
692.54	1845.02
692.73	2099.58
692.93	2079.71
693.12	2140.33
693.31	2239.86
693.50	2208.73
693.69	2169.21
693.89	2021.35
694.08	2253.38
694.27	2251.54
694.46	1965.85
694.65	2047.56
694.85	2128.04
695.04	2104.49
695.23	2070.91
695.42	2592.93
695.61	2971.19
695.80	3290.68
696.00	3602.58
696.19	3672.62
696.38	3255.86
696.57	3020.14
696.76	2959.72
696.95	2752.06
697.15	2826.20
697.34	2730.97
697.53	2382.20
697.72	2378.72
697.91	2237.61
698.10	2380.97
698.30	2028.10
698.49	2010.08
698.68	2067.01
698.87	1956.83
699.06	1836.82
699.25	1908.09
699.45	2079.92
699.64	1959.09
699.83	2005.99
700.02	1823.92
700.21	1992.88
700.40	1854.03
700.59	1880.65
700.79	1863.65
700.98	1980.80
701.17	1826.79
701.36	1835.18
701.55	1834.16
701.74	2144.22
701.93	2118.42
702.12	2448.96
702.32	2524.12
702.51	2883.34
702.70	2882.93
702.89	2660.11
703.08	2389.98
703.27	2596.01
703.46	2427.25
703.65	2278.57
703.85	2132.55
704.04	2138.08
704.23	2323.83
704.42	1992.88
704.61	1983.66
704.80	2213.85
704.99	1865.09
705.18	1993.49
705.37	1936.35
705.57	2364.79
705.76	2995.97
705.95	3118.44
706.14	3683.27
706.33	3907.93
706.52	4038.59
706.71	3284.12
706.90	3004.17
707.09	2965.25
707.28	2851.18
707.47	2586.17
707.67	2642.08
707.86	2413.53
708.05	2568.15
708.24	2299.05
708.43	2179.45
708.62	2050.02
708.81	1914.44
709.00	1838.26
709.19	1840.10
709.38	2042.85
709.57	1850.54
709.76	2014.38
709.96	1931.85
710.15	2188.66
710.34	2052.68
710.53	2125.59
710.72	2001.89
710.91	2132.55
711.10	2082.78
711.29	2061.28
711.48	1916.90
711.67	1860.78
711.86	2046.13
712.05	1880.04
712.24	1938.20
712.43	2076.03
712.62	2121.08
712.81	1961.75
713.00	2041.01
713.19	1810.81
713.39	2007.01
713.58	1816.75
713.77	1966.87
713.96	2048.99
714.15	2000.25
714.34	1966.05
714.53	1878.81
714.72	2231.47
714.91	1886.59
715.10	2014.18
715.29	1912.39
715.48	2430.12
715.67	2156.10
715.86	2020.53
716.05	1990.01
716.24	1959.50
716.43	1915.47
716.62	1815.11
716.81	1816.34
717.00	1909.12
717.19	2093.02
717.38	1931.64
717.57	1887.82
717.76	1762.07
717.95	2029.95
718.14	1899.90
718.33	1876.96
718.52	1682.41
718.71	1730.53
718.90	1751.42
719.09	1864.47
719.28	1891.50
719.47	2059.85
719.66	2087.08
719.85	2142.99
720.04	2089.54
720.23	2155.69
720.42	2053.70
720.61	2126.61
720.80	1889.87
720.99	2080.94
721.18	1936.76
721.37	1908.09
721.56	1953.97
721.75	2082.99
721.94	1874.30
722.13	1911.78
722.32	1919.36
722.51	2029.74
722.70	1921.40
722.89	1920.38
723.08	1924.68
723.27	2019.71
723.46	1911.98
723.65	1871.02
723.84	1824.94
724.03	2061.08
724.22	1735.04
724.41	1942.09
724.60	1815.73
724.79	2009.06
724.98	1932.26
725.16	1832.93
725.35	1986.94
725.54	1787.26
725.73	1910.55
725.92	1952.12
726.11	2011.11
726.30	2217.54
726.49	2103.26
726.68	2252.15
726.87	2351.07
727.06	2426.43
727.25	2119.65
727.44	2199.31
727.63	2118.62
727.82	2088.52
728.01	2106.34
728.20	2158.35
728.38	2241.09
728.57	2019.50
728.76	2011.51
728.95	2046.74
729.14	1800.78
729.33	1808.36
729.52	1691.83
729.71	1818.60
729.90	1797.09
730.09	1888.64
730.28	1964.41
730.47	1989.81
730.66	2261.98
730.84	2154.46
731.03	2115.14
731.22	2130.30
731.41	2109.82
731.60	2085.04
731.79	1850.95
731.98	1925.91
732.17	2094.66
732.36	2045.51
732.55	1924.27
732.73	1824.94
732.92	2076.23
733.11	2002.09
733.30	1853.21
733.49	1739.34
733.68	2019.09
733.87	1968.51
734.06	1889.87
734.25	2015.00
734.43	2187.03
734.62	2368.07
734.81	2376.67
735.00	2341.85
735.19	2266.69
735.38	2274.88
735.57	2080.53
735.76	2237.41
735.94	2364.18
736.13	2876.58
736.32	2935.76
736.51	3026.08
736.70	3415.40
736.89	3482.98
737.08	3306.86
737.27	3641.49
737.45	4440.20
737.64	4564.10
737.83	5062.78
738.02	5195.49
738.21	4992.54
738.40	4397.81
738.59	3892.98
738.77	3778.09
738.96	3461.89
739.15	3305.63
739.34	3169.64
739.53	2962.59
739.72	2919.17
739.90	2738.34
740.09	2358.44
740.28	2335.30
740.47	2313.18
740.66	2204.84
740.85	1974.86
741.03	2016.43
741.22	1869.39
741.41	1992.67
741.60	1874.71
741.79	2052.06
741.98	2172.69
742.16	2282.05
742.35	2099.58
742.54	2116.37
742.73	2451.62
742.92	2198.90
743.10	2124.36
743.29	2210.78
743.48	2476.40
743.67	2069.68
743.86	1915.06
744.05	1958.88
744.23	1961.95
744.42	1949.87
744.61	1995.54
744.80	1848.09
744.99	1919.56
745.17	1778.46
745.36	1762.89
745.55	1953.97
745.74	1906.04
745.93	1826.99
746.11	1793.20
746.30	1784.40
746.49	2029.13
746.68	1776.82
746.86	1867.54
747.05	1875.53
747.24	1999.43
747.43	2047.35
747.62	1822.49
747.80	1931.64
747.99	2181.70
748.18	2129.89
748.37	2043.26
748.56	2034.04
748.74	2148.32
748.93	2033.22
749.12	2275.91
749.31	2908.12
749.49	3436.08
749.68	3803.49
749.87	4223.73
750.06	4280.05
750.24	4347.22
750.43	4656.88
750.62	5033.70
750.81	5340.90
750.99	5682.70
751.18	5684.14
751.37	4897.92
751.56	4381.42
751.74	4505.94
751.93	4307.90
752.12	3519.23
752.31	3287.81
752.49	3106.36
752.68	3096.94
752.87	2764.14
753.06	2503.64
753.24	2402.47
753.43	2439.34
753.62	2109.20
753.81	2021.14
753.99	2253.18
754.18	2076.03
754.37	1844.81
754.55	1964.21
754.74	2169.82
754.93	1761.25
755.12	1895.80
755.30	1821.46
755.49	2042.03
755.68	1915.67
755.86	1965.03
756.05	1793.41
756.24	2096.51
756.43	1763.30
756.61	1774.36
756.80	1944.55
756.99	2069.68
757.17	1929.19
757.36	1797.50
757.55	1909.94
757.74	1971.17
757.92	1906.04
758.11	1749.78
758.30	1699.40
758.48	1879.22
758.67	1799.55
758.86	1911.98
759.04	1771.29
759.23	1882.70
759.42	1908.91
759.60	1829.04
759.79	1894.99
759.98	1869.18
760.16	1781.73
760.35	1797.91
760.54	1761.46
760.73	1916.28
760.91	1741.39
761.10	1907.07
761.29	1927.55
761.47	1931.64
761.66	2199.31
761.85	1943.32
762.03	2096.92
762.22	2787.49
762.41	4971.03
762.59	7367.36
762.78	8592.25
762.97	10317.05
763.15	10856.90
763.34	10066.18
763.52	7695.24
763.71	7264.96
763.90	6789.02
764.08	6304.47
764.27	5895.08
764.46	5615.94
764.64	4969.40
764.83	4594.21
765.02	4214.31
765.20	3767.65
765.39	3366.45
765.58	2732.60
765.76	2546.44
765.95	2351.27
766.13	2205.66
766.32	2069.88
766.51	2031.18
766.69	2159.38
766.88	1999.43
767.07	1830.47
767.25	1754.70
767.44	2054.52
767.62	2096.92
767.81	1861.19
768.00	1933.90
768.18	1942.09
768.37	1851.98
768.56	1786.44
768.74	1868.98
768.93	1778.87
769.11	1986.94
769.30	1901.74
769.49	1830.88
769.67	1904.82
769.86	1853.62
770.04	1861.60
770.23	1877.58
770.42	2061.49
770.60	1930.62
770.79	1798.53
770.97	1889.25
771.16	2327.11
771.35	2900.13
771.53	3481.96
771.72	3833.39
771.90	4366.47
772.09	4676.54
772.27	4242.98
772.46	3439.36
772.65	3584.56
772.83	3309.52
773.02	3214.29
773.20	2957.27
773.39	2989.62
773.58	2840.74
773.76	2486.85
773.95	2473.74
774.13	2433.19
774.32	2248.46
774.50	2046.33
774.69	2063.94
774.87	1959.70
775.06	2211.19
775.25	1837.85
775.43	1900.31
775.62	1934.92
775.80	1982.64
775.99	1938.61
776.17	1834.57
776.36	1911.98
776.54	2076.44
776.73	1853.00
776.92	1949.67
777.10	2023.39
777.29	1975.47
777.47	1789.92
777.66	1860.37
777.84	1901.33
778.03	1893.96
778.21	1777.23
778.40	1891.91
778.58	1961.95
778.77	2048.99
778.95	1737.50
779.14	1828.43
779.32	2119.65
779.51	2008.85
779.70	1875.12
779.88	1746.30
780.07	1818.39
780.25	2201.16
780.44	1843.99
780.62	2012.13
780.81	1949.67
780.99	1912.80
781.18	1836.21
781.36	1826.17
781.55	1869.39
781.73	2088.72
781.92	1778.46
782.10	1747.74
782.29	1957.45
782.47	2079.10
782.66	1891.30
782.84	1735.24
783.03	1815.52
783.21	2035.68
783.40	1846.45
783.58	1823.51
783.77	1826.17
783.95	1885.36
784.14	1788.49
784.32	1882.08
784.51	2063.94
784.69	1840.71
784.88	1757.36
785.06	1905.43
785.24	1768.01
785.43	2035.07
785.61	1993.90
785.80	1826.79
785.98	2028.31
786.17	1940.66
786.35	1800.98
786.54	1976.29
786.72	2055.55
786.91	2040.39
787.09	1901.13
787.28	1766.37
787.46	1913.42
787.65	2021.96
787.83	1769.45
788.01	1910.75
788.20	1811.63
788.38	1965.64
788.57	1905.84
788.75	1947.41
788.94	2231.47
789.12	2125.38
789.31	1935.54
789.49	2015.20
789.67	1876.96
789.86	1993.08
790.04	1825.97
790.23	1783.99
790.41	2234.33
790.60	1927.55
790.78	1904.41
790.96	1920.79
791.15	2019.30
791.33	1909.12
791.52	1892.73
791.70	1853.82
791.89	1910.14
792.07	2012.33
792.25	1897.24
792.44	1738.11
792.62	2020.32
792.81	1864.88
792.99	1906.66
793.17	1813.89
793.36	1859.15
793.54	2271.20
793.73	2581.06
793.91	2993.93
794.10	3486.87
794.28	3898.92
794.46	3817.82
794.65	3796.73
794.83	3184.59
795.01	3098.17
795.20	3179.68
795.38	2954.81
795.57	2891.12
795.75	2788.72
795.93	2579.21
796.12	2563.85
796.30	2508.97
796.49	2452.65
796.67	2178.01
796.85	2247.03
797.04	2129.27
797.22	2128.66
797.40	1838.26
797.59	1985.30
797.77	1985.92
797.96	1807.33
798.14	1836.41
798.32	1846.24
798.51	2011.51
798.69	2182.11
798.87	1878.60
799.06	1871.23
799.24	1747.94
799.42	2215.29
799.61	2402.06
799.79	2685.50
799.98	3101.65
800.16	3114.96
800.34	3721.36
800.53	4384.29
800.71	4652.58
800.89	5325.33
801.08	5407.66
801.26	5347.04
801.44	4649.50
801.63	3994.56
801.81	3992.72
801.99	3731.81
802.18	3532.34
802.36	3428.30
802.54	3264.05
802.73	2876.99
802.91	2833.77
803.09	2695.74
803.28	2595.19
803.46	2462.48
803.64	2494.84
803.83	2040.60
804.01	2018.48
804.19	1912.19
804.38	2117.39
804.56	2068.45
804.74	1970.35
804.92	1985.71
805.11	1822.90
805.29	2124.56
805.47	1893.35
805.66	1793.41
805.84	1817.37
806.02	2091.18
806.21	1893.96
806.39	2025.03
806.57	2049.40
806.76	2047.35
806.94	1958.68
807.12	1885.77
807.30	1898.67
807.49	2010.49
807.67	2002.71
807.85	2091.59
808.04	2080.12
808.22	2287.99
808.40	1834.98
808.58	1828.63
808.77	2012.13
808.95	2175.97
809.13	2279.39
809.31	3333.68
809.50	4446.14
809.68	5030.43
809.86	5406.64
810.05	5771.59
810.23	6409.53
810.41	7876.69
810.59	12084.04
810.78	14659.16
810.96	16964.96
811.14	18339.15
811.32	17848.05
811.51	14620.65
811.69	11956.25
811.87	11828.25
812.05	10410.64
812.24	9813.46
812.42	9155.24
812.60	8344.65
812.78	7104.81
812.97	6178.72
813.15	5811.11
813.33	5073.84
813.51	4490.99
813.70	3694.95
813.88	3187.25
814.06	2865.72
814.24	2530.47
814.42	2180.27
814.61	2173.71
814.79	2301.30
814.97	1875.12
815.15	1932.46
815.34	1986.32
815.52	2059.64
815.70	1808.36
815.88	1864.88
816.06	1821.26
816.25	1856.48
816.43	1802.01
816.61	1981.61
816.79	2127.63
816.98	1765.96
817.16	1863.45
817.34	1838.05
817.52	1990.22
817.70	2158.76
817.89	1901.33
818.07	1833.55
818.25	1908.30
818.43	1949.67
818.61	1886.59
818.80	1856.89
818.98	2139.92
819.16	1944.75
819.34	1768.63
819.52	2106.95
819.70	1791.15
819.89	1896.21
820.07	1750.40
820.25	1715.38
820.43	1945.57
820.61	1985.92
820.80	1877.99
820.98	1794.02
821.16	1735.65
821.34	1728.90
821.52	1870.61
821.70	1886.38
821.89	1914.03
822.07	1852.59
822.25	1846.45
822.43	1781.32
822.61	2066.81
822.79	1888.64
822.98	1836.82
823.16	1691.83
823.34	1908.09
823.52	2033.63
823.70	1982.64
823.88	1727.67
824.06	1950.69
824.25	1896.83
824.43	1982.02
824.61	1820.03
824.79	1930.21
824.97	2008.03
825.15	2099.58
825.33	2399.20
825.52	2754.31
825.70	2910.16
825.88	3027.51
826.06	3218.59
826.24	3281.26
826.42	3107.38
826.60	2764.35
826.78	2806.13
826.97	2585.97
827.15	2702.09
827.33	2360.90
827.51	2455.10
827.69	2286.35
827.87	2291.88
828.05	2264.03
828.23	2044.90
828.41	2223.27
828.60	2163.06
828.78	1842.76
828.96	2005.17
829.14	1860.58
829.32	1911.78
829.50	1847.06
829.68	1848.09
829.86	1864.27
830.04	2002.30
830.22	1918.54
830.41	1762.89
830.59	1888.02
830.77	1962.77
830.95	1802.83
831.13	1813.89
831.31	1804.67
831.49	1998.61
831.67	1952.74
831.85	1970.35
832.03	1857.30
832.21	1993.49
832.39	1777.02
832.57	1778.05
832.76	2042.03
832.94	1885.97
833.12	1721.11
833.30	1857.71
833.48	2020.94
833.66	1940.04
833.84	1795.66
834.02	1876.35
834.20	2019.91
834.38	2026.26
834.56	1730.74
834.74	1752.86
834.92	1755.52
835.10	2116.37
835.28	1917.31
835.46	1870.21
835.64	1877.37
835.82	1838.67
836.01	2079.71
836.19	1990.83
836.37	1822.69
836.55	1768.01
836.73	1789.92
836.91	1767.40
837.09	1988.37
837.27	2059.03
837.45	1726.64
837.63	1753.06
837.81	1782.35
837.99	1900.11
838.17	1877.99
838.35	1870.61
838.53	2243.14
838.71	2060.87
838.89	1918.33
839.07	1906.25
839.25	2004.55
839.43	2138.08
839.61	2111.05
839.79	2918.97
839.97	3670.57
840.15	4075.05
840.33	4368.52
840.51	4761.12
840.69	4514.54
840.87	3912.23
841.05	3664.64
841.23	3741.23
841.41	4487.92
841.59	5954.26
841.77	6629.48
841.95	7100.72
842.13	7661.25
842.31	7284.22
842.49	5996.86
842.67	5357.49
842.85	5251.40
843.03	4644.18
843.21	4428.12
843.39	4297.66
843.57	3959.13
843.75	3684.09
843.93	3306.04
844.11	3051.27
844.29	2938.84
844.47	2692.87
844.65	2730.97
844.83	2419.06
845.01	2319.12
845.19	2298.44
845.36	2077.05
845.54	2073.36
845.72	2026.87
845.90	2056.57
846.08	1790.33
846.26	1884.75
846.44	1966.25
846.62	1966.66
846.80	1890.68
846.98	1800.57
847.16	1843.58
847.34	1928.16
847.52	1747.33
847.70	1791.36
847.88	1891.91
848.06	2073.77
848.24	1900.11
848.41	1692.24
848.59	2023.19
848.77	1937.79
848.95	1836.62
849.13	1796.07
849.31	1960.93
849.49	1915.87
849.67	1763.71
849.85	1738.93
850.03	1932.26
850.21	1937.79
850.39	1792.59
850.57	1941.68
850.74	2071.11
850.92	2113.91
851.10	2160.40
851.28	2372.57
851.46	2653.14
851.64	3029.97
851.82	2818.82
852.00	2856.71
852.18	2804.90
852.36	2591.70
852.53	2416.60
852.71	2408.82
852.89	2398.38
853.07	2364.79
853.25	2146.48
853.43	2041.42
853.61	2160.40
853.79	2127.02
853.97	1964.00
854.14	1932.26
854.32	2160.20
854.50	2083.60
854.68	1879.83
854.86	1865.70
855.04	1822.49
855.22	2028.92
855.40	1737.29
855.57	1808.97
855.75	1977.31
855.93	1960.73
856.11	1688.96
856.29	1795.86
856.47	1814.30
856.65	1919.36
856.82	1770.88
857.00	1716.81
857.18	1849.32
857.36	1809.59
857.54	1904.61
857.72	1948.23
857.89	1966.66
858.07	1899.08
858.25	1981.61
858.43	1731.35
858.61	1853.00
858.79	1892.32
858.97	1788.90
859.14	1919.36
859.32	1862.22
859.50	1835.39
859.68	1925.71
859.86	1824.54
860.03	1927.34
860.21	2026.67
860.39	1831.09
860.57	1944.34
860.75	1981.41
860.93	2170.44
861.10	2027.69
861.28	1833.34
861.46	1973.63
861.64	2004.35
861.82	1847.06
861.99	1941.88
862.17	2040.60
862.35	2014.59
862.53	1900.72
862.71	1894.99
862.88	1949.46
863.06	1978.13
863.24	1826.79
863.42	1772.31
863.60	1858.94
863.77	1945.78
863.95	1687.53
864.13	1836.82
864.31	1860.78
864.49	1981.20
864.66	1720.09
864.84	1811.22
865.02	1877.99
865.20	2195.42
865.37	1878.19
865.55	1815.11
865.73	1768.22
865.91	2043.46
866.09	2031.99
866.26	1973.42
866.44	2154.87
866.62	1996.77
866.80	1885.77
866.97	1967.48
867.15	1949.05
867.33	2002.91
867.51	2042.64
867.68	1936.15
867.86	1884.54
868.04	1847.68
868.22	1719.47
868.39	1836.21
868.57	1968.71
868.75	2081.35
868.93	1749.78
869.10	1796.48
869.28	2149.55
869.46	2051.86
869.64	1869.80
869.81	1844.81
869.99	1948.85
870.17	1906.86
870.35	1774.56
870.52	1790.95
870.70	1986.12
870.88	1829.86
871.05	1748.56
871.23	1652.51
871.41	1884.95
871.59	1891.91
871.76	1836.21
871.94	1791.36
872.12	1921.40
872.29	1696.13
872.47	1821.26
872.65	1741.80
872.83	1889.25
873.00	2078.48
873.18	1862.01
873.36	1798.73
873.53	1960.73
873.71	1722.55
873.89	1771.70
874.06	1842.56
874.24	1936.15
874.42	2054.73
874.60	1966.25
874.77	1869.39
874.95	1825.15
875.13	2024.62
875.30	1787.47
875.48	1830.27
875.66	2099.99
875.83	1841.12
876.01	1811.84
876.19	1953.76
876.36	1795.04
876.54	1917.72
876.72	1772.52
876.89	1910.75
877.07	1988.37
877.25	1678.52
877.42	1884.54
877.60	1835.80
877.78	2109.82
877.95	1827.20
878.13	1807.13
878.31	1925.30
878.48	1993.49
878.66	1958.27
878.84	1828.84
879.01	1860.58
879.19	1942.09
879.37	1942.29
879.54	1794.84
879.72	1739.34
879.90	1680.36
880.07	1993.29
880.25	1593.32
880.42	1941.27
880.60	1897.24
880.78	1983.66
880.95	1809.79
881.13	1852.80
881.31	1869.39
881.48	1807.74
881.66	1766.78
881.83	1912.80
882.01	1803.03
882.19	1737.09
882.36	1875.32
882.54	1824.94
882.72	1944.34
882.89	1907.07
883.07	1737.70
883.24	1785.01
883.42	1984.48
883.60	1888.02
883.77	1729.10
883.95	1824.54
884.12	2010.29
884.30	1962.57
884.48	2021.96
884.65	1932.26
884.83	2016.23
885.00	2000.25
885.18	1780.91
885.36	1840.92
885.53	2003.12
885.71	2075.82
885.88	1771.08
886.06	1831.09
886.23	1970.97
886.41	1831.09
886.59	1797.91
886.76	1807.33
886.94	1950.49
887.11	2231.88
887.29	1839.28
887.47	1708.42
887.64	2031.79
887.82	2045.51
887.99	1705.34
888.17	1839.69
888.34	1840.92
888.52	1735.86
888.69	1843.79
888.87	1736.27
889.05	1820.64
889.22	1837.44
889.40	1798.32
889.57	1939.43
889.75	2049.40
889.92	1841.33
890.10	1737.91
890.27	1808.77
890.45	1800.37
890.62	1686.50
890.80	1732.79
890.98	1698.59
891.15	2059.64
891.33	1990.63
891.50	1773.95
891.68	1704.52
891.85	1924.68
892.03	1947.82
892.20	1779.07
892.38	1730.74
892.55	1964.62
892.73	1965.44
892.90	1735.24
893.08	1806.72
893.25	1795.86
893.43	1799.35
893.60	1940.86
893.78	1661.52
893.95	1943.11
894.13	1862.01
894.30	1750.19
894.48	1843.38
894.65	1970.97
894.83	1898.06
895.00	1668.28
895.18	1650.87
895.35	2002.09
895.53	1991.85
895.70	1717.63
895.88	1943.73
896.05	1922.02
896.23	1749.99
896.40	1792.79
896.58	1880.44
896.75	1971.37
896.93	2020.32
897.10	1796.68
897.28	1705.96
897.45	1895.40
897.63	1957.04
897.80	1940.45
897.98	1854.64
898.15	1920.79
898.33	1770.06
898.50	1878.19
898.67	1833.55
898.85	1876.76
899.02	1921.61
899.20	1987.96
899.37	1825.56
899.55	1884.13
899.72	2038.96
899.90	1773.75
900.07	1760.23
900.25	1925.30
900.42	2030.56
900.59	1791.15
900.77	1894.78
900.94	1974.04
901.12	1900.52
901.29	1767.40
901.47	1893.76
901.64	1936.15
901.82	1851.36
901.99	1606.22
902.16	1762.48
902.34	2027.90
902.51	1909.73
902.69	1790.95
902.86	1853.82
903.03	2306.22
903.21	1879.42
903.38	1820.64
903.56	1761.05
903.73	1982.64
903.91	1827.20
904.08	1727.05
904.25	1654.14
904.43	1791.36
904.60	1995.75
904.78	1817.37
904.95	1747.12
905.12	1821.46
905.30	2089.54
905.47	1917.72
905.65	1934.31
905.82	1875.32
905.99	1985.10
906.17	1906.66
906.34	1830.47
906.52	1856.48
906.69	2019.30
906.86	2012.74
907.04	1932.67
907.21	2065.79
907.38	2060.46
907.56	1805.49
907.73	1822.69
907.91	2098.35
908.08	2056.98
908.25	1774.36
908.43	1766.99
908.60	1967.48
908.77	1899.49
908.95	1772.93
909.12	1740.77
909.30	1962.98
909.47	1715.17
909.64	1820.64
909.82	1953.35
909.99	1874.92
910.16	1888.84
910.34	1764.73
910.51	1823.10
910.68	1904.00
910.86	1883.72
911.03	1766.78
911.20	1953.56
911.38	2584.54
911.55	3415.40
911.72	3757.61
911.90	3828.06
912.07	4232.54
912.24	4245.03
912.42	3433.21
912.59	2860.81
912.76	2862.45
912.94	2574.91
913.11	2390.59
913.28	2242.94
913.46	2154.26
913.63	2271.81
913.80	2385.27
913.98	2083.19
914.15	2226.35
914.32	2226.35
914.49	2074.18
914.67	1949.46
914.84	2095.89
915.01	2176.17
915.19	2041.62
915.36	1927.34
915.53	2093.64
915.71	2007.42
915.88	1934.51
916.05	1849.32
916.22	2018.48
916.40	1933.08
916.57	1773.75
916.74	1900.92
916.92	2059.64
917.09	1778.46
917.26	1749.17
917.43	1736.88
917.61	1840.92
917.78	1715.99
917.95	1653.94
918.13	1732.79
918.30	2149.34
918.47	1893.76
918.64	1779.89
918.82	1780.91
918.99	1949.26
919.16	2167.37
919.33	1911.78
919.51	1847.06
919.68	1967.69
919.85	2112.48
920.02	1748.56
920.20	1863.86
920.37	2096.71
920.54	2015.82
920.71	1755.93
920.89	1817.78
921.06	2106.54
921.23	1808.15
921.40	1787.06
921.58	2079.10
921.75	2594.37
921.92	2187.03
922.09	2269.76
922.27	2288.81
922.44	2275.91
922.61	2223.89
922.78	2011.11
922.96	1960.11
923.13	1943.73
923.30	2080.33
923.47	1786.03
923.64	1808.36
923.82	1998.20
923.99	1992.67
924.16	1927.96
924.33	1784.80
924.50	1920.99
924.68	2128.04
924.85	1776.00
925.02	1840.92
925.19	2021.96
925.36	1953.15
925.54	1916.69
925.71	1831.29
925.88	2308.68
926.05	1873.48
926.22	1751.42
926.40	1854.03
926.57	1932.67
926.74	1960.32
926.91	1768.42
927.08	1971.37
927.26	2001.48
927.43	1880.85
927.60	1771.49
927.77	1820.23
927.94	2074.80
928.11	2020.53
928.29	1720.70
928.46	1854.64
928.63	1779.07
928.80	1877.58
928.97	1911.37
929.14	1771.29
929.32	2160.61
929.49	1898.88
929.66	1782.76
929.83	1680.15
930.00	1833.14
930.17	1924.07
930.35	1742.82
930.52	1794.02
930.69	2056.98
930.86	1769.45
931.03	1858.12
931.20	1639.19
931.37	2028.31
931.55	1875.12
931.72	1861.81
931.89	1709.44
932.06	1747.74
932.23	2088.72
932.40	1889.46
932.57	1885.16
932.74	2040.19
932.92	2027.90
933.09	1908.50
933.26	1567.72
933.43	1835.18
933.60	1920.18
933.77	1855.66
933.94	1875.73
934.11	1849.32
934.29	1918.54
934.46	1744.46
934.63	1845.42
934.80	1738.11
934.97	1881.67
935.14	1834.37
935.31	1701.45
935.48	1792.59
935.65	1933.08
935.82	1875.73
936.00	1735.04
936.17	2088.72
936.34	1858.53
936.51	1892.73
936.68	1710.05
936.85	1926.93
937.02	1917.31
937.19	1888.23
937.36	1808.56
937.53	1926.32
937.70	1978.13
937.87	1827.61
938.05	1900.51
938.22	1861.81
938.39	1751.83
938.56	1799.35
938.73	1736.68
938.90	1852.80
939.07	1778.46
939.24	1838.26
939.41	1663.36
939.58	1940.86
939.75	1936.35
939.92	1763.92
940.09	1958.27
940.26	1858.74
940.43	1981.00
940.60	1782.96
940.77	1791.15
940.95	1920.38
941.12	1988.58
941.29	1789.92
941.46	1837.23
941.63	2005.37
941.80	2050.84
941.97	1685.89
942.14	1712.31
942.31	1947.62
942.48	1818.60
942.65	1879.01
942.82	1834.98
942.99	1951.51
943.16	1862.83
943.33	1724.18
943.50	1765.96
943.67	1979.57
943.84	1983.25
944.01	1782.96
944.18	1754.49
944.35	2044.08
944.52	1775.18
944.69	1843.58
944.86	1688.35
945.03	1979.36
945.20	2181.70
945.37	1681.79
945.54	1839.49
945.71	2066.61
945.88	2099.17
946.05	1740.57
946.22	1742.82
946.39	2026.06
946.56	1852.80
946.73	1683.43
946.90	1753.06
947.07	1807.54
947.24	1856.48
947.41	1631.00
947.58	1914.03
947.75	1995.75
947.92	1936.97
948.09	1590.86
948.26	1686.09
948.43	1888.23
948.60	2119.85
948.77	1755.72
948.94	1776.41
949.11	2001.48
949.27	1923.66
949.44	1753.68
949.61	1757.16
949.78	1911.16
949.95	2019.71
950.12	1749.17
950.29	1693.87
950.46	1800.16
950.63	2013.77
950.80	1768.22
950.97	1793.41
951.14	2010.08
951.31	1836.41
951.48	1737.50
951.65	1729.10
951.82	2122.92
951.99	1901.33
952.15	1697.56
952.32	1793.41
952.49	1795.25
952.66	1787.88
952.83	1727.26
953.00	1728.49
953.17	1863.65
953.34	1972.81
953.51	1837.03
953.68	1828.43
953.85	1984.69
954.02	2025.65
954.18	1806.51
954.35	1821.87
954.52	1746.71
954.69	1904.82
954.86	1629.77
955.03	1798.73
955.20	1964.21
955.37	1843.99
955.54	1772.31
955.71	1750.19
955.87	1922.63
956.04	2078.48
956.21	1785.01
956.38	1731.97
956.55	1868.98
956.72	2161.22
956.89	1811.43
957.06	1757.36
957.23	1784.19
957.39	2045.10
957.56	1760.84
957.73	1722.14
957.90	1630.59
958.07	2117.60
958.24	1804.06
958.41	1751.83
958.57	1961.54
958.74	1875.53
958.91	1704.73
959.08	1766.78
959.25	1948.85
959.42	1857.10
959.59	1815.32
959.75	1792.38
959.92	2028.31
960.09	2021.14
960.26	1739.75
960.43	1836.21
960.60	1899.90
960.76	1860.78
960.93	1679.95
961.10	1841.53
961.27	1971.58
961.44	1846.24
961.61	1702.07
961.77	1725.41
961.94	1893.35
962.11	1958.06
962.28	1795.66
962.45	1693.87
962.62	1830.68
962.78	2001.48
962.95	1710.67
963.12	1762.07
963.29	1979.77
963.46	2214.26
963.62	1844.81
963.79	1763.51
963.96	2196.04
964.13	1858.12
964.30	1844.40
964.46	1757.16
964.63	1747.74
964.80	2227.78
964.97	1663.57
965.14	1913.62
965.30	2007.01
965.47	2084.22
965.64	2017.04
965.81	1981.20
965.98	2149.96
966.14	1985.30
966.31	1847.06
966.48	1819.83
966.65	2084.01
966.81	1993.90
966.98	1824.13
967.15	1856.48
967.32	1911.57
967.49	1817.57
967.65	1676.88
967.82	1622.20
967.99	1883.93
968.16	1709.23
968.32	1934.51
968.49	1794.23
968.66	1848.29
968.83	2092.20
968.99	1846.65
969.16	1708.42
969.33	2050.43
969.50	1957.86
969.66	1884.13
969.83	1989.60
970.00	1975.47
970.17	1929.80
970.33	1798.53
970.50	1699.40
970.67	2068.04
970.84	2022.57
971.00	1733.61
971.17	1690.60
971.34	1969.94
971.50	1865.49
971.67	1896.01
971.84	1826.58
972.01	1744.87
972.17	1643.09
972.34	1736.47
972.51	1888.64
972.67	2035.89
972.84	1948.44
973.01	1736.27
973.18	1745.89
973.34	1990.22
973.51	1774.97
973.68	1806.10
973.84	1821.05
974.01	1827.81
974.18	2085.45
974.34	1857.10
974.51	1875.12
974.68	1791.56
974.85	2135.83
975.01	1889.25
975.18	1797.91
975.35	1871.64
975.51	1753.47
975.68	1658.45
975.85	1920.38
976.01	1824.13
976.18	2036.09
976.35	1792.59
976.51	1739.34
976.68	2071.73
976.85	2033.22
977.01	1819.83
977.18	1858.12
977.35	1949.46
977.51	1748.97
977.68	1607.66
977.85	1700.84
978.01	1988.17
978.18	1999.64
978.35	1848.70
978.51	1832.32
978.68	2001.07
978.85	2052.88
979.01	1759.21
979.18	1837.64
979.34	1874.92
979.51	1913.01
979.68	1733.61
979.84	1820.23
980.01	2179.24
980.18	1889.05
980.34	1762.07
980.51	1851.57
980.67	1966.25
980.84	1982.23
981.01	1801.80
981.17	1848.70
981.34	1664.18
981.51	1939.43
981.67	1738.93
981.84	1900.72
982.00	1936.35
982.17	1847.68
982.34	1661.52
982.50	1594.75
982.67	2076.23
982.83	1791.56
983.00	1705.55
983.17	1605.20
983.33	1990.22
983.50	1696.74
983.66	1693.06
983.83	1606.63
984.00	1820.03
984.16	1887.61
984.33	1631.82
984.49	1588.81
984.66	1759.82
984.83	1990.22
984.99	1637.56
985.16	1606.22
985.32	1948.64
985.49	1996.36
985.65	1737.29
985.82	1627.52
985.99	2064.35
986.15	1892.12
986.32	1694.08
986.48	1650.05
986.65	1806.31
986.81	1996.97
986.98	1621.17
987.14	1684.66
987.31	1875.32
987.48	1694.28
987.64	1558.09
987.81	1601.72
987.97	2151.60
988.14	1765.96
988.30	1660.49
988.47	1506.08
988.63	1909.53
988.80	1765.35
988.96	1697.77
989.13	1709.03
989.30	1842.15
989.46	1990.42
989.63	1555.84
989.79	1585.95
989.96	1847.27
990.12	2052.88
990.29	1643.49
990.45	1692.24
990.62	1862.63
990.78	2040.39
990.95	1742.21
991.11	1641.45
991.28	1812.04
991.44	1903.59
991.61	1552.16
991.77	1689.37
991.94	1902.97
992.10	2009.26
992.27	1720.70
992.43	1675.85
992.60	1950.49
992.76	1804.67
992.93	1788.70
993.09	1632.64
993.26	1992.26
993.42	2092.00
993.59	1643.09
993.75	1558.71
993.92	1757.57
994.08	1794.02
994.25	1742.21
994.41	1629.77
994.58	1943.93
994.74	2033.84
994.91	1637.15
995.07	1728.90
995.24	1855.87
995.40	1851.16
995.56	1771.70
995.73	1754.09
995.89	2070.29
996.06	1854.85
996.22	1634.89
996.39	1547.85
996.55	1860.58
996.72	1908.71
996.88	1583.08
997.05	1633.46
997.21	2119.65
997.37	1940.86
997.54	1724.39
997.70	1675.85
997.87	1911.78
998.03	1875.73
998.20	1559.32
998.36	1564.24
998.52	1945.16
998.69	1979.16
998.85	1563.42
999.02	1674.01
999.18	1971.78
999.35	1969.94
999.51	1650.87
999.67	1672.17
999.84	1747.33
1000.00	1971.99
1000.17	1731.15
1000.33	1591.89
1000.49	1804.26
1000.66	1845.42
1000.82	1644.11
1000.99	1699.40
1001.15	2007.62
1001.31	1855.87
1001.48	1675.85
1001.64	1736.68
1001.81	1823.51
1001.97	2133.98
1002.13	1633.26
1002.30	1649.84
1002.46	2027.08
1002.63	1824.33
1002.79	1709.03
1002.95	1617.08
1003.12	1983.87
1003.28	1926.93
1003.45	1630.59
1003.61	1611.14
1003.77	1900.31
1003.94	1706.98
1004.10	1644.52
1004.26	1717.84
1004.43	1936.56
1004.59	2075.82
1004.75	1632.44
1004.92	1593.11
1005.08	1798.12
1005.25	1921.61
1005.41	1652.10
1005.57	1704.11
1005.74	2000.25
1005.90	1850.95
1006.06	1763.71
1006.23	1644.31
1006.39	1964.00
1006.55	2197.88
1006.72	1809.79
1006.88	1591.07
1007.04	1744.05
1007.21	1847.27
1007.37	1676.26
1007.53	1639.81
1007.70	2100.40
1007.86	1969.12
1008.02	1702.68
1008.19	1630.18
1008.35	1891.09
1008.51	1768.22
1008.68	1676.88
1008.84	1579.80
1009.00	1785.62
1009.17	2016.23
1009.33	1786.65
1009.49	1734.83
1009.65	1777.64
1009.82	1903.79
1009.98	1684.86
1010.14	1554.20
1010.31	1957.24
1010.47	1939.63
1010.63	1714.15
1010.80	1693.67
1010.96	1928.37
1011.12	1861.60
1011.28	1640.42
1011.45	1634.07
1011.61	2208.94
1011.77	1759.82
1011.94	1622.61
1012.10	1602.95
1012.26	1729.71
1012.42	1804.67
1012.59	1697.15
1012.75	1684.66
1012.91	1830.27
1013.07	1986.32
1013.24	1607.66
1013.40	1641.65
1013.56	1894.99
1013.72	1866.11
1013.89	1710.46
1014.05	1729.92
1014.21	2113.09
1014.37	2183.75
1014.54	1677.70
1014.70	1628.75
1014.86	1860.99
1015.02	1741.80
1015.19	1669.91
1015.35	1583.08
1015.51	1851.57
1015.67	1821.05
1015.84	1623.83
1016.00	1647.80
1016.16	1991.44
1016.32	1977.93
1016.49	1642.27
1016.65	1621.38
1016.81	1859.76
1016.97	1927.34
1017.14	1741.18
1017.30	1651.69
1017.46	1818.19
1017.62	1928.98
1017.78	1712.72
1017.95	1631.82
1018.11	1981.61
1018.27	2161.84
1018.43	1772.11
1018.59	1722.75
1018.76	1966.25
1018.92	2227.37
1019.08	1623.63
1019.24	1650.05
1019.40	2022.16
1019.57	1909.32
1019.73	1723.37
1019.89	1663.16
1020.05	1892.53
1020.21	2124.15
1020.38	1628.14
1020.54	1773.34
1020.70	1946.39
1020.86	1952.74
1021.02	1658.45
1021.18	1660.49
1021.35	1825.35
1021.51	1927.34
1021.67	1814.30
1021.83	1643.09
1021.99	1845.42
1022.15	1917.72
1022.32	1723.37
1022.48	1710.87
1022.64	2042.03
1022.80	2068.24
1022.96	1699.40
1023.12	1599.46
1023.29	1991.85
1023.45	1916.49
1023.61	1636.53
1023.77	1808.15
1023.93	1900.72
1024.09	1756.95
1024.25	1620.15
1024.42	1611.55
1024.58	1828.02
1024.74	1925.09
1024.90	1658.45
1025.06	1719.47
1025.22	1788.08
1025.38	2101.22
1025.54	1599.46
1025.71	1714.56
1025.87	1958.27
1026.03	1928.98
1026.19	1617.69
1026.35	1773.54
1026.51	1925.71
1026.67	1871.84
1026.83	1692.03
1026.99	1759.00
1027.16	1966.87
1027.32	1862.63
1027.48	1665.20
1027.64	1629.77
1027.80	1948.23
1027.96	1899.49
1028.12	1686.09
1028.28	1636.33
1028.44	1917.51
1028.60	2061.49
1028.77	1759.21
1028.93	1688.96
1029.09	1830.27
1029.25	1749.17
1029.41	1678.11
1029.57	1745.28
1029.73	1918.13
1029.89	2067.42
1030.05	1759.41
1030.21	1753.68
1030.37	2136.85
1030.53	1962.77
1030.69	1666.02
1030.85	1607.25
1031.02	1772.93
1031.18	1882.29
1031.34	1689.78
1031.50	1718.66
1031.66	1764.12
1031.82	2036.30
1031.98	1704.32
1032.14	1628.14
1032.30	1779.28
1032.46	1992.88
1032.62	1780.71
1032.78	1602.54
1032.94	1800.78
1033.10	1815.32
1033.26	1734.42
1033.42	1762.89
1033.58	2139.51
1033.74	1814.09
1033.90	1648.41
1034.06	1833.14
1034.22	2159.58
1034.38	1997.79
1034.54	1679.54
1034.70	1717.02
1034.86	2096.92
>>>>>End Processed Spectral Data<<<<<
