SpectraSuite Data File
++++++++++++++++++++++++++++++++++++
Date: Thu Mar 30 16:01:51 PDT 2017
User: UCSD _CER
Dark Spectrum Present: No
Reference Spectrum Present: No
Number of Sampled Component Spectra: 1
Spectrometers: USB4C00073
Integration Time (usec): 250000 (USB4C00073)
Spectra Averaged: 10 (USB4C00073)
Boxcar Smoothing: 0 (USB4C00073)
Correct for Electrical Dark: No (USB4C00073)
Strobe/Lamp Enabled: No (USB4C00073)
Correct for Detector Non-linearity: No (USB4C00073)
Correct for Stray Light: No (USB4C00073)
Number of Pixels in Processed Spectrum: 3648
>>>>>Begin Processed Spectral Data<<<<<
345.37	1284.90
345.58	1284.90
345.80	1284.90
346.01	1272.40
346.22	1290.63
346.43	1936.35
346.65	1788.70
346.86	2143.20
347.07	2078.69
347.28	1794.23
347.50	1814.91
347.71	1890.07
347.92	1696.54
348.13	1803.85
348.35	1722.75
348.56	1933.28
348.77	1777.02
348.98	1819.62
349.20	1673.19
349.41	1942.91
349.62	2024.62
349.83	1858.94
350.05	1736.47
350.26	1970.97
350.47	2086.06
350.68	1784.40
350.90	1726.85
351.11	2091.39
351.32	2088.52
351.53	1827.20
351.75	1741.59
351.96	1946.80
352.17	1916.49
352.38	1877.17
352.60	1896.21
352.81	1954.38
353.02	2133.78
353.23	1810.81
353.44	1827.20
353.66	1853.21
353.87	1897.03
354.08	1906.86
354.29	1786.85
354.51	1832.52
354.72	1894.78
354.93	1747.12
355.14	1726.64
355.35	1716.61
355.57	2016.84
355.78	1805.08
355.99	1869.18
356.20	1948.85
356.42	1924.27
356.63	1877.99
356.84	1836.00
357.05	2055.75
357.26	2189.69
357.48	1918.33
357.69	1856.89
357.90	1983.46
358.11	1878.40
358.32	1819.42
358.54	1862.63
358.75	1871.02
358.96	2011.72
359.17	1804.67
359.38	1793.00
359.60	1993.08
359.81	1911.37
360.02	1805.69
360.23	1761.87
360.44	1833.14
360.66	2039.98
360.87	1750.40
361.08	1763.71
361.29	1962.16
361.50	1939.84
361.72	1788.29
361.93	1855.25
362.14	1928.37
362.35	1741.39
362.56	1896.62
362.77	1709.85
362.99	1991.65
363.20	1889.66
363.41	1859.15
363.62	1710.05
363.83	1983.25
364.05	2003.53
364.26	1692.85
364.47	1769.85
364.68	2064.97
364.89	1817.98
365.10	1722.55
365.32	1813.48
365.53	1797.91
365.74	1842.97
365.95	1812.45
366.16	1699.61
366.37	1909.32
366.59	1887.41
366.80	1818.39
367.01	1665.20
367.22	2167.77
367.43	2292.50
367.64	1811.84
367.86	1808.97
368.07	1962.57
368.28	2073.57
368.49	1729.30
368.70	1847.68
368.91	1861.60
369.12	1889.05
369.34	1700.22
369.55	1722.96
369.76	1914.24
369.97	1852.39
370.18	1764.33
370.39	1744.25
370.60	1738.52
370.82	1794.84
371.03	1814.09
371.24	1757.77
371.45	1980.59
371.66	1986.94
371.87	1823.10
372.08	1777.84
372.30	1798.94
372.51	2056.57
372.72	1912.19
372.93	1808.56
373.14	2119.65
373.35	1832.73
373.56	1776.41
373.78	1832.11
373.99	2023.19
374.20	2268.13
374.41	1823.10
374.62	1804.47
374.83	2112.68
375.04	1890.48
375.25	1815.11
375.47	1771.70
375.68	1873.07
375.89	1992.67
376.10	1814.91
376.31	1901.54
376.52	1989.81
376.73	1961.13
376.94	1821.26
377.15	1786.24
377.37	1899.08
377.58	1895.40
377.79	1675.03
378.00	1731.35
378.21	1953.35
378.42	1986.32
378.63	1838.05
378.84	1889.66
379.05	2056.57
379.27	1956.63
379.48	1951.10
379.69	1768.63
379.90	2104.08
380.11	1708.62
380.32	1824.54
380.53	1920.99
380.74	2106.34
380.95	1950.28
381.16	1819.83
381.37	1808.97
381.59	2094.25
381.80	2058.62
382.01	1760.84
382.22	1749.37
382.43	1996.77
382.64	1941.27
382.85	1760.64
383.06	1880.85
383.27	1999.43
383.48	1909.12
383.69	1870.00
383.91	1764.33
384.12	2024.01
384.33	2009.26
384.54	1892.73
384.75	1791.36
384.96	2370.32
385.17	2081.76
385.38	1846.45
385.59	1829.25
385.80	2057.18
386.01	2139.51
386.22	1899.08
386.43	1859.56
386.64	2211.40
386.86	1933.08
387.07	1953.76
387.28	1758.18
387.49	1898.06
387.70	2117.39
387.91	1901.95
388.12	1769.65
388.33	2010.08
388.54	1880.24
388.75	1804.26
388.96	1904.61
389.17	1855.25
389.38	1901.54
389.59	1888.84
389.80	1844.20
390.01	1930.21
390.22	1891.30
390.43	1925.30
390.64	1728.49
390.86	1983.87
391.07	2066.20
391.28	1837.44
391.49	1870.00
391.70	1773.34
391.91	1810.20
392.12	1838.87
392.33	1829.25
392.54	1960.32
392.75	1904.82
392.96	1949.05
393.17	1773.75
393.38	2219.18
393.59	2062.10
393.80	1740.36
394.01	1839.28
394.22	1923.25
394.43	2170.85
394.64	1772.93
394.85	1936.76
395.06	1910.75
395.27	1960.11
395.48	1853.62
395.69	1734.63
395.90	1903.79
396.11	1929.19
396.32	1768.83
396.53	1910.14
396.74	1897.03
396.95	2041.82
397.16	1770.26
397.37	1721.93
397.58	2003.73
397.79	1921.61
398.00	1881.88
398.21	1812.86
398.42	1987.55
398.63	2198.29
398.84	1814.50
399.05	1783.58
399.26	2087.49
399.47	1988.99
399.68	1630.18
399.89	1762.48
400.10	1798.73
400.31	1843.99
400.52	1830.47
400.73	1818.19
400.94	1774.97
401.15	2002.50
401.36	1826.17
401.57	1877.99
401.78	2069.68
401.99	2059.03
402.20	1756.34
402.41	1942.09
402.62	2112.89
402.83	1924.27
403.04	1792.38
403.25	1972.40
403.46	1954.79
403.67	2126.20
403.88	1841.74
404.09	1833.14
404.30	1897.85
404.51	1884.54
404.72	1778.87
404.93	1924.48
405.14	1831.09
405.35	1915.67
405.56	1812.25
405.77	1789.52
405.98	1940.04
406.19	1919.15
406.40	1788.08
406.61	1808.77
406.82	1873.48
407.03	2263.42
407.24	1795.25
407.45	1876.55
407.66	1998.61
407.87	2051.25
408.08	1879.83
408.29	1900.31
408.49	1991.65
408.70	1915.67
408.91	1837.23
409.12	1897.24
409.33	1802.01
409.54	2070.50
409.75	1791.97
409.96	1788.08
410.17	2022.37
410.38	1908.30
410.59	1835.80
410.80	1920.38
411.01	1920.59
411.22	1880.44
411.43	1871.43
411.64	1753.06
411.85	1811.02
412.06	1801.60
412.27	1656.19
412.47	1797.50
412.68	1902.15
412.89	2004.96
413.10	1805.49
413.31	1732.58
413.52	2142.58
413.73	2139.72
413.94	1783.17
414.15	1908.50
414.36	1860.78
414.57	1822.28
414.78	1718.86
414.99	1850.95
415.19	2133.98
415.40	2150.78
415.61	2199.72
415.82	2065.79
416.03	2156.72
416.24	2075.82
416.45	1883.52
416.66	1828.22
416.87	1787.26
417.08	1997.18
417.29	1783.37
417.50	1881.67
417.70	2028.92
417.91	1993.08
418.12	1910.55
418.33	1909.12
418.54	2062.51
418.75	2171.46
418.96	2141.56
419.17	2185.80
419.38	2456.74
419.59	2393.26
419.79	2256.86
420.00	2186.62
420.21	2521.87
420.42	2101.63
420.63	1925.09
420.84	1940.45
421.05	1950.90
421.26	1891.91
421.47	1743.23
421.67	2064.56
421.88	1836.00
422.09	1832.52
422.30	2014.18
422.51	1859.76
422.72	2198.08
422.93	2063.94
423.14	1864.06
423.35	1736.88
423.55	1760.84
423.76	1860.37
423.97	1839.28
424.18	1722.55
424.39	1915.87
424.60	2051.25
424.81	1837.85
425.02	1970.97
425.22	2007.01
425.43	2013.77
425.64	2136.03
425.85	2085.86
426.06	2365.61
426.27	2215.49
426.48	2106.95
426.68	2061.69
426.89	2197.47
427.10	2267.31
427.31	1959.50
427.52	1837.64
427.73	2050.22
427.94	1986.32
428.14	1941.47
428.35	1853.41
428.56	2113.09
428.77	2050.43
428.98	1906.25
429.19	1889.25
429.40	1929.80
429.60	1963.39
429.81	2034.66
430.02	1940.86
430.23	1936.35
430.44	2054.93
430.65	1804.06
430.85	1886.59
431.06	1993.90
431.27	1735.24
431.48	1820.85
431.69	1873.69
431.90	1916.49
432.10	1939.02
432.31	1914.24
432.52	1867.13
432.73	2361.51
432.94	2272.63
433.15	2132.96
433.35	1958.06
433.56	2190.51
433.77	2039.37
433.98	2225.32
434.19	2234.13
434.40	2394.49
434.60	2362.13
434.81	2264.44
435.02	2169.62
435.23	2110.23
435.44	2023.39
435.64	1801.39
435.85	1833.34
436.06	1905.02
436.27	1911.98
436.48	1812.25
436.68	1860.78
436.89	2250.51
437.10	2087.49
437.31	1979.16
437.52	2029.74
437.73	2040.39
437.93	2047.56
438.14	1929.80
438.35	1765.14
438.56	1863.45
438.77	1921.40
438.97	1968.30
439.18	1798.12
439.39	2147.91
439.60	1873.28
439.80	1821.67
440.01	1973.42
440.22	1945.57
440.43	2022.57
440.64	1760.43
440.84	1868.77
441.05	1794.43
441.26	2290.04
441.47	1868.77
441.68	1849.93
441.88	2097.32
442.09	2143.20
442.30	2274.47
442.51	2247.65
442.71	2148.11
442.92	2152.01
443.13	1950.49
443.34	1891.30
443.55	1875.53
443.75	2045.92
443.96	1803.85
444.17	1765.14
444.38	2047.97
444.58	1816.34
444.79	1888.84
445.00	1855.25
445.21	1911.98
445.41	1891.50
445.62	1638.58
445.83	1905.63
446.04	1915.87
446.24	1750.19
446.45	1646.16
446.66	1837.03
446.87	1957.65
447.07	1851.77
447.28	2012.54
447.49	1873.48
447.70	2076.44
447.90	2089.54
448.11	1860.99
448.32	1923.66
448.53	2103.26
448.73	2101.83
448.94	1848.91
449.15	1964.00
449.36	1944.34
449.56	1964.21
449.77	1788.08
449.98	1729.71
450.19	1884.34
450.39	1934.92
450.60	1945.57
450.81	1941.06
451.02	1976.29
451.22	2147.70
451.43	1822.69
451.64	1832.11
451.84	1919.56
452.05	2086.06
452.26	1889.66
452.47	1859.15
452.67	1875.53
452.88	2087.29
453.09	1797.50
453.30	1723.57
453.50	2021.35
453.71	2179.24
453.92	1928.78
454.12	2088.11
454.33	1966.25
454.54	2025.85
454.75	1826.38
454.95	1811.43
455.16	1963.59
455.37	2007.01
455.57	1865.49
455.78	1824.13
455.99	1899.29
456.19	1935.13
456.40	1778.66
456.61	1865.49
456.82	1915.67
457.02	2072.34
457.23	1994.31
457.44	2132.14
457.64	2017.66
457.85	2080.53
458.06	1933.90
458.26	2075.82
458.47	1986.73
458.68	2107.16
458.89	1825.35
459.09	2027.28
459.30	2225.12
459.51	1990.22
459.71	1743.03
459.92	1836.62
460.13	2073.57
460.33	2280.62
460.54	1915.67
460.75	1935.13
460.95	1885.97
461.16	2034.45
461.37	1881.26
461.57	1897.44
461.78	1950.08
461.99	1818.60
462.19	2066.40
462.40	1789.92
462.61	2206.89
462.81	2071.32
463.02	1756.34
463.23	1810.61
463.43	2023.80
463.64	1867.75
463.85	2735.47
464.05	1822.08
464.26	2296.80
464.47	2101.42
464.67	1987.76
464.88	1908.09
465.09	1913.21
465.29	2037.52
465.50	2091.39
465.71	1954.17
465.91	1953.15
466.12	1965.85
466.33	1902.97
466.53	1838.87
466.74	2149.14
466.94	1914.44
467.15	1843.99
467.36	2018.68
467.56	1800.78
467.77	1947.21
467.98	1873.48
468.18	1795.25
468.39	1874.30
468.60	2145.86
468.80	1868.57
469.01	1796.48
469.21	1982.43
469.42	2044.08
469.63	1860.99
469.83	1784.60
470.04	2016.43
470.25	2128.66
470.45	1876.76
470.66	1802.83
470.86	1980.18
471.07	1883.93
471.28	1931.64
471.48	1989.81
471.69	1970.35
471.90	2487.46
472.10	1985.30
472.31	2010.29
472.51	2024.01
472.72	2066.40
472.93	1937.99
473.13	2134.39
473.34	2121.70
473.54	2074.80
473.75	1977.72
473.96	2068.24
474.16	1953.15
474.37	1991.85
474.57	1890.07
474.78	1805.69
474.99	1981.61
475.19	1959.09
475.40	1829.25
475.60	1825.15
475.81	2265.67
476.02	2082.58
476.22	2079.71
476.43	2161.43
476.63	2009.47
476.84	2144.84
477.05	1758.59
477.25	1876.76
477.46	2350.25
477.66	1944.34
477.87	1734.42
478.08	1850.54
478.28	2036.50
478.49	1894.37
478.69	1793.20
478.90	1831.50
479.10	1996.77
479.31	2104.90
479.52	1872.46
479.72	2056.78
479.93	2215.90
480.13	2142.79
480.34	2118.83
480.54	2210.78
480.75	2022.98
480.96	2171.87
481.16	1862.63
481.37	1967.48
481.57	2090.36
481.78	2043.87
481.98	2069.47
482.19	1936.35
482.40	2186.00
482.60	1982.02
482.81	1916.49
483.01	1796.68
483.22	2001.89
483.42	2043.67
483.63	1910.75
483.83	1923.86
484.04	1936.35
484.24	2079.10
484.45	2012.74
484.66	1842.56
484.86	2064.35
485.07	1873.28
485.27	1897.65
485.48	1828.63
485.68	2107.56
485.89	1869.39
486.09	1960.73
486.30	1840.71
486.50	1967.69
486.71	1928.78
486.91	1919.56
487.12	2136.85
487.33	2565.08
487.53	2675.88
487.74	2569.38
487.94	2431.55
488.15	2312.36
488.35	2201.98
488.56	2004.35
488.76	1959.50
488.97	2034.45
489.17	2099.78
489.38	1949.26
489.58	1920.99
489.79	2037.52
489.99	1985.71
490.20	1896.62
490.40	1942.91
490.61	1993.90
490.81	1872.05
491.02	1893.76
491.22	1918.74
491.43	2025.44
491.63	1921.61
491.84	1975.06
492.04	1764.12
492.25	2011.31
492.45	1913.83
492.66	1859.97
492.86	1770.67
493.07	1931.44
493.27	2221.64
493.48	1745.07
493.68	1865.49
493.89	1908.91
494.09	2021.14
494.30	1820.03
494.50	2076.64
494.71	2015.61
494.91	1766.99
495.12	1848.70
495.32	1931.64
495.53	1938.81
495.73	1815.32
495.94	1986.32
496.14	1887.41
496.35	2314.20
496.55	2026.47
496.76	1898.06
496.96	1942.09
497.17	1954.17
497.37	1988.17
497.58	1848.70
497.78	1770.67
497.98	1904.00
498.19	1901.33
498.39	1878.19
498.60	1897.85
498.80	1754.70
499.01	2010.49
499.21	1764.94
499.42	1872.66
499.62	1879.83
499.83	2196.86
500.03	1753.06
500.24	1985.92
500.44	2162.45
500.64	2155.08
500.85	1946.80
501.05	2013.77
501.26	1777.43
501.46	2141.56
501.67	1828.63
501.87	1807.74
502.08	1860.78
502.28	1902.15
502.48	1928.16
502.69	1967.89
502.89	1748.76
503.10	1815.11
503.30	1864.47
503.51	1900.31
503.71	1769.85
503.92	2007.01
504.12	1908.91
504.32	1839.69
504.53	2020.73
504.73	2029.33
504.94	2001.68
505.14	2046.13
505.35	2035.68
505.55	2010.29
505.75	1956.83
505.96	2060.87
506.16	2243.55
506.37	1927.55
506.57	1837.03
506.78	1913.21
506.98	2081.15
507.18	1774.56
507.39	1801.19
507.59	1892.94
507.80	1857.10
508.00	1959.09
508.20	2003.53
508.41	1859.76
508.61	2107.36
508.82	2055.14
509.02	1971.58
509.22	1787.26
509.43	1827.40
509.63	1869.80
509.84	1878.81
510.04	1761.05
510.24	2102.04
510.45	2010.49
510.65	1797.30
510.86	1872.05
511.06	1777.43
511.26	2023.60
511.47	1983.87
511.67	1812.66
511.88	1978.95
512.08	2075.00
512.28	1778.25
512.49	1950.69
512.69	1933.90
512.90	1954.79
513.10	1804.06
513.30	1878.19
513.51	2004.14
513.71	2171.67
513.91	1989.19
514.12	1979.57
514.32	2091.18
514.53	1889.66
514.73	1928.78
514.93	1852.59
515.14	1938.40
515.34	2082.37
515.54	1890.28
515.75	1922.63
515.95	1995.54
516.15	2077.66
516.36	1906.25
516.56	1954.58
516.77	1697.15
516.97	2003.53
517.17	1857.10
517.38	1949.67
517.58	2122.72
517.78	1874.10
517.99	1916.69
518.19	1889.46
518.39	2112.89
518.60	1863.65
518.80	1814.91
519.00	1958.88
519.21	1915.67
519.41	2155.28
519.61	1824.33
519.82	1916.08
520.02	1922.63
520.22	1915.67
520.43	1867.34
520.63	1838.67
520.83	1843.58
521.04	1737.29
521.24	1919.77
521.44	1826.58
521.65	1803.24
521.85	1981.00
522.05	1784.60
522.26	1849.52
522.46	2163.47
522.66	2065.38
522.87	1833.55
523.07	1984.89
523.27	1876.14
523.48	2113.09
523.68	1904.82
523.88	1901.13
524.09	2051.25
524.29	1921.81
524.49	1719.47
524.70	1970.15
524.90	2078.89
525.10	1992.47
525.31	1766.58
525.51	1754.49
525.71	2033.63
525.91	1959.29
526.12	1802.62
526.32	1758.39
526.52	1881.47
526.73	1839.90
526.93	1927.55
527.13	1741.80
527.34	1883.72
527.54	1930.62
527.74	1846.24
527.94	1786.03
528.15	1797.30
528.35	1946.59
528.55	1945.37
528.76	1920.59
528.96	1729.71
529.16	2045.72
529.36	1997.18
529.57	1761.66
529.77	2058.82
529.97	1800.78
530.18	1951.10
530.38	1843.38
530.58	1991.65
530.78	1915.87
530.99	1823.51
531.19	1947.41
531.39	1812.66
531.60	1924.27
531.80	1844.61
532.00	2023.39
532.20	1949.05
532.41	1853.62
532.61	1860.78
532.81	1859.56
533.01	1904.61
533.22	1981.20
533.42	2010.08
533.62	1731.76
533.82	2078.28
534.03	1912.80
534.23	1930.21
534.43	1777.84
534.63	1875.53
534.84	1951.51
535.04	1936.35
535.24	1891.50
535.44	2238.43
535.65	1888.84
535.85	1847.88
536.05	1838.26
536.25	1926.52
536.46	1834.78
536.66	2039.16
536.86	1901.95
537.06	1979.16
537.27	2077.25
537.47	1976.90
537.67	1844.20
537.87	2094.25
538.08	1914.44
538.28	1782.96
538.48	1795.86
538.68	1877.17
538.88	2004.35
539.09	1768.22
539.29	1881.06
539.49	2060.26
539.69	1965.03
539.90	1957.45
540.10	1838.05
540.30	2087.70
540.50	1866.31
540.70	1766.37
540.91	1892.73
541.11	2032.40
541.31	2140.95
541.51	1932.26
541.72	1948.85
541.92	1974.24
542.12	1850.13
542.32	1859.35
542.52	1851.98
542.73	1855.87
542.93	2012.54
543.13	1873.48
543.33	1943.52
543.53	2029.95
543.74	1996.97
543.94	1870.21
544.14	1955.20
544.34	2084.42
544.54	1937.17
544.75	1975.47
544.95	2088.93
545.15	2042.03
545.35	2145.45
545.55	2003.12
545.75	1832.32
545.96	2238.63
546.16	1867.75
546.36	1881.88
546.56	1871.84
546.76	2038.34
546.97	2182.93
547.17	1877.78
547.37	1963.59
547.57	1884.75
547.77	2039.57
547.97	1926.93
548.18	1946.18
548.38	1917.51
548.58	2097.12
548.78	1797.09
548.98	1921.20
549.18	2031.79
549.39	2118.83
549.59	1977.31
549.79	1914.24
549.99	2116.17
550.19	2081.15
550.39	1967.28
550.60	1899.90
550.80	1957.86
551.00	2011.31
551.20	1853.21
551.40	1873.89
551.60	1999.02
551.80	1954.99
552.01	2006.19
552.21	1923.86
552.41	1945.16
552.61	2162.86
552.81	1918.95
553.01	1814.71
553.21	1982.64
553.42	1823.51
553.62	1825.76
553.82	1798.53
554.02	2102.24
554.22	2023.60
554.42	1801.19
554.62	1963.39
554.83	2120.67
555.03	2132.75
555.23	1926.32
555.43	2158.15
555.63	2019.91
555.83	1992.67
556.03	1908.50
556.23	1784.60
556.44	1938.61
556.64	2116.78
556.84	1683.43
557.04	1861.40
557.24	1963.80
557.44	1945.16
557.64	1906.25
557.84	1793.20
558.04	1888.23
558.25	2029.54
558.45	1827.20
558.65	1908.30
558.85	1907.89
559.05	1707.80
559.25	1852.80
559.45	1977.93
559.65	2216.52
559.85	2570.20
560.05	1920.18
560.26	1986.73
560.46	1966.87
560.66	1890.28
560.86	1859.56
561.06	1800.78
561.26	2120.06
561.46	1999.43
561.66	1858.74
561.86	1954.17
562.06	1842.97
562.26	1879.63
562.47	1907.07
562.67	1807.13
562.87	1998.20
563.07	1764.33
563.27	1907.68
563.47	1935.33
563.67	1883.72
563.87	2028.10
564.07	1835.59
564.27	1900.31
564.47	1949.46
564.67	2008.44
564.87	1825.35
565.08	1958.27
565.28	1877.58
565.48	1982.64
565.68	1945.16
565.88	1959.91
566.08	2190.92
566.28	1923.86
566.48	1781.12
566.68	1888.64
566.88	1894.17
567.08	2054.93
567.28	1890.89
567.48	1893.14
567.68	1958.88
567.88	1746.92
568.08	1933.28
568.28	2047.15
568.48	1878.19
568.68	2060.26
568.89	1918.74
569.09	1739.14
569.29	2035.07
569.49	2025.65
569.69	1797.50
569.89	1836.82
570.09	1721.32
570.29	1841.33
570.49	1740.36
570.69	1812.66
570.89	2027.08
571.09	2168.39
571.29	1773.54
571.49	2053.09
571.69	1976.09
571.89	1974.24
572.09	1877.58
572.29	1848.09
572.49	1999.43
572.69	2007.83
572.89	1906.25
573.09	1669.71
573.29	1903.79
573.49	1949.05
573.69	1909.53
573.89	1992.26
574.09	1872.05
574.29	2071.11
574.49	1861.40
574.69	1858.33
574.89	1844.61
575.09	1808.56
575.29	1813.68
575.49	1900.92
575.69	1973.63
575.89	1791.97
576.09	1903.18
576.29	1935.13
576.49	1806.72
576.69	1895.60
576.89	1853.62
577.09	1908.30
577.29	1767.60
577.49	2175.56
577.69	1839.08
577.89	1983.66
578.09	1942.70
578.29	1774.56
578.49	1915.87
578.69	1840.71
578.89	2055.34
579.09	1925.71
579.29	1803.65
579.49	2010.70
579.69	1882.49
579.89	2150.57
580.09	1708.62
580.29	1736.06
580.49	1853.00
580.69	1819.42
580.89	1877.58
581.09	1884.95
581.29	1867.75
581.49	1883.11
581.69	1824.13
581.89	1843.79
582.09	1825.97
582.28	1832.52
582.48	1984.89
582.68	2063.74
582.88	2114.32
583.08	1908.09
583.28	1899.90
583.48	1914.03
583.68	1844.40
583.88	1942.91
584.08	1898.67
584.28	1939.02
584.48	2184.77
584.68	2011.11
584.88	1882.90
585.08	2051.25
585.28	2051.66
585.48	2094.46
585.68	1972.60
585.87	1968.10
586.07	2007.21
586.27	1930.21
586.47	1994.93
586.67	1925.71
586.87	1920.18
587.07	1881.67
587.27	1805.28
587.47	1936.15
587.67	2130.09
587.87	2301.30
588.07	2010.08
588.27	1900.92
588.46	2060.67
588.66	2092.41
588.86	1961.75
589.06	1997.59
589.26	2069.06
589.46	2028.31
589.66	1819.42
589.86	1813.48
590.06	1928.37
590.26	1996.36
590.46	1893.96
590.66	2032.81
590.85	1899.70
591.05	1981.41
591.25	1844.61
591.45	1888.02
591.65	2047.15
591.85	1971.58
592.05	1892.32
592.25	1994.31
592.45	2064.56
592.64	1915.47
592.84	1930.42
593.04	1804.67
593.24	2250.72
593.44	1885.36
593.64	1947.00
593.84	1962.57
594.04	1890.68
594.24	2139.10
594.43	1841.33
594.63	1945.98
594.83	2072.34
595.03	2010.49
595.23	1845.63
595.43	1778.25
595.63	1825.35
595.83	2021.96
596.02	1718.04
596.22	1901.54
596.42	1977.93
596.62	1925.91
596.82	1857.51
597.02	1969.74
597.22	2078.28
597.41	1971.58
597.61	1851.57
597.81	1979.77
598.01	2023.80
598.21	1884.75
598.41	1852.80
598.61	1825.97
598.80	1924.27
599.00	1965.64
599.20	2043.46
599.40	1877.17
599.60	1919.97
599.80	2028.51
599.99	2065.58
600.19	1919.97
600.39	1942.70
600.59	2005.37
600.79	1953.56
600.99	1941.06
601.19	2146.48
601.38	2202.80
601.58	1967.69
601.78	1718.86
601.98	2018.48
602.18	2046.54
602.37	2230.44
602.57	2045.92
602.77	2183.95
602.97	2133.16
603.17	2234.95
603.37	2078.07
603.56	2190.30
603.76	2141.15
603.96	2080.94
604.16	2088.72
604.36	2194.60
604.56	2141.77
604.75	1870.00
604.95	1976.49
605.15	2146.27
605.35	2108.38
605.55	1901.54
605.74	1845.83
605.94	2100.60
606.14	1978.54
606.34	1969.33
606.54	1913.42
606.73	1865.70
606.93	2033.22
607.13	1849.11
607.33	1962.36
607.53	2122.72
607.72	2053.09
607.92	1996.77
608.12	2000.46
608.32	1893.14
608.51	1985.10
608.71	1823.51
608.91	1950.69
609.11	2002.71
609.31	1883.72
609.50	1949.05
609.70	2109.41
609.90	2036.09
610.10	2020.12
610.29	1894.78
610.49	1838.46
610.69	2026.06
610.89	1958.47
611.09	1951.51
611.28	2081.15
611.48	2056.37
611.68	1911.98
611.88	1852.59
612.07	1836.41
612.27	2012.74
612.47	1847.27
612.67	1933.28
612.86	2015.00
613.06	1939.43
613.26	1737.91
613.46	1855.25
613.65	1907.27
613.85	2271.81
614.05	1990.42
614.25	2014.38
614.44	1871.43
614.64	1894.99
614.84	1855.05
615.04	1825.97
615.23	1843.17
615.43	1990.63
615.63	1994.31
615.83	1824.33
616.02	1774.36
616.22	2016.63
616.42	1785.83
616.62	1803.85
616.81	1879.42
617.01	1956.42
617.21	1945.37
617.41	1832.52
617.60	1908.30
617.80	1994.31
618.00	2018.07
618.19	1970.76
618.39	1945.78
618.59	1990.22
618.79	1926.11
618.98	1733.81
619.18	1893.96
619.38	2201.77
619.57	1902.97
619.77	1893.55
619.97	1890.48
620.17	1866.31
620.36	1769.04
620.56	2001.89
620.76	1773.13
620.95	1768.22
621.15	1877.17
621.35	1791.15
621.54	1855.25
621.74	1944.55
621.94	1832.32
622.14	1804.47
622.33	1741.18
622.53	1933.49
622.73	1865.90
622.92	1723.98
623.12	1890.07
623.32	2168.80
623.51	2029.74
623.71	1755.93
623.91	2027.90
624.10	1839.90
624.30	1926.32
624.50	1800.78
624.69	1795.45
624.89	2418.45
625.09	1877.99
625.29	1710.26
625.48	1794.43
625.68	1957.24
625.88	2043.46
626.07	1966.87
626.27	1823.31
626.47	1864.06
626.66	1750.19
626.86	1871.02
627.06	1878.60
627.25	1911.78
627.45	2129.48
627.64	1909.12
627.84	2070.09
628.04	1828.43
628.23	2156.51
628.43	1812.25
628.63	1854.23
628.82	1877.58
629.02	2133.78
629.22	1982.64
629.41	2058.21
629.61	1935.94
629.81	2189.48
630.00	1824.54
630.20	1790.33
630.40	1928.16
630.59	1987.96
630.79	1903.79
630.98	1904.41
631.18	1910.35
631.38	1930.62
631.57	2046.94
631.77	1768.01
631.97	1937.58
632.16	2009.06
632.36	1922.22
632.56	1913.01
632.75	1923.45
632.95	2066.81
633.14	1773.54
633.34	2054.93
633.54	1709.03
633.73	1859.35
633.93	1860.78
634.12	1754.49
634.32	2232.29
634.52	1910.14
634.71	1770.67
634.91	1963.59
635.11	1778.87
635.30	1825.35
635.50	1926.93
635.69	1830.68
635.89	2153.03
636.09	2044.69
636.28	1798.32
636.48	1818.80
636.67	1984.89
636.87	2010.08
637.07	1973.01
637.26	1836.41
637.46	1954.17
637.65	2041.01
637.85	1916.49
638.04	1841.12
638.24	1877.78
638.44	1997.59
638.63	1926.32
638.83	1891.91
639.02	1976.09
639.22	2008.03
639.42	1933.08
639.61	1913.21
639.81	1965.64
640.00	1906.86
640.20	1989.19
640.39	1981.00
640.59	2203.41
640.79	2097.53
640.98	2035.27
641.18	1982.02
641.37	2005.99
641.57	1932.46
641.76	1958.27
641.96	1760.43
642.15	1983.25
642.35	1914.85
642.55	1956.01
642.74	1823.92
642.94	2029.74
643.13	2112.07
643.33	1897.24
643.52	1870.61
643.72	1877.58
643.91	1938.20
644.11	1856.48
644.31	1828.02
644.50	1829.04
644.70	2102.04
644.89	1906.04
645.09	1989.81
645.28	1967.69
645.48	1985.71
645.67	1834.78
645.87	1741.80
646.06	1882.90
646.26	1985.71
646.45	1716.20
646.65	1684.25
646.84	2158.97
647.04	1901.74
647.24	1804.87
647.43	1917.92
647.63	1972.19
647.82	2095.07
648.02	1805.69
648.21	1839.28
648.41	2107.16
648.60	1884.75
648.80	2020.32
648.99	1952.33
649.19	1860.17
649.38	1741.59
649.58	1927.14
649.77	1942.09
649.97	2088.31
650.16	1991.24
650.36	1739.14
650.55	2027.49
650.75	1992.88
650.94	2152.42
651.14	1901.33
651.33	1937.79
651.53	2151.60
651.72	1881.67
651.92	1921.61
652.11	1702.68
652.31	2040.60
652.50	1995.34
652.70	1948.64
652.89	1804.06
653.09	2121.90
653.28	1878.40
653.48	1726.23
653.67	1718.66
653.87	2322.60
654.06	1968.51
654.25	2062.10
654.45	1832.93
654.64	1888.84
654.84	1907.27
655.03	1687.12
655.23	2036.70
655.42	2036.30
655.62	2198.49
655.81	1956.22
656.01	1860.37
656.20	2047.76
656.40	2133.57
656.59	1919.97
656.79	2076.44
656.98	1972.19
657.17	2031.79
657.37	1930.82
657.56	1864.06
657.76	1978.95
657.95	2097.73
658.15	1601.92
658.34	1891.09
658.54	1916.49
658.73	1794.84
658.92	1851.77
659.12	1928.78
659.31	2000.25
659.51	1824.13
659.70	1983.05
659.90	1894.78
660.09	2047.76
660.29	1936.15
660.48	1821.87
660.67	2070.09
660.87	1861.60
661.06	1999.64
661.26	1980.18
661.45	2012.74
661.65	1997.59
661.84	1887.20
662.03	1827.81
662.23	1851.77
662.42	2180.47
662.62	1801.80
662.81	1844.81
663.00	1868.16
663.20	1964.21
663.39	2031.38
663.59	2035.89
663.78	1938.81
663.97	1924.89
664.17	2089.54
664.36	1813.68
664.56	1844.81
664.75	2035.89
664.94	1993.49
665.14	1923.04
665.33	1924.68
665.53	1930.42
665.72	1938.61
665.91	2025.85
666.11	1950.28
666.30	1973.22
666.50	1900.92
666.69	1982.23
666.88	1949.05
667.08	2016.63
667.27	1975.47
667.47	2021.96
667.66	1963.18
667.85	2123.33
668.05	1988.78
668.24	1893.55
668.43	2078.28
668.63	1890.28
668.82	2091.59
669.02	2012.33
669.21	1920.79
669.40	1781.94
669.60	2179.24
669.79	1780.91
669.98	2380.76
670.18	1855.66
670.37	1788.70
670.56	1875.32
670.76	1932.26
670.95	1883.11
671.15	2012.74
671.34	1945.98
671.53	1884.75
671.73	1858.53
671.92	1842.56
672.11	1800.16
672.31	1866.11
672.50	1976.09
672.69	1796.27
672.89	1692.03
673.08	1861.19
673.27	2011.11
673.47	1966.05
673.66	1958.06
673.85	1805.49
674.05	1951.51
674.24	2032.40
674.43	1934.51
674.63	2152.21
674.82	2410.87
675.01	1909.73
675.21	2189.89
675.40	2040.19
675.59	2017.04
675.79	2233.72
675.98	1946.18
676.17	2075.41
676.37	2057.80
676.56	1935.13
676.75	1945.37
676.95	1928.16
677.14	1906.66
677.33	2067.83
677.52	1783.17
677.72	1860.58
677.91	1957.65
678.10	1759.21
678.30	1806.51
678.49	1775.79
678.68	2185.80
678.88	1706.16
679.07	2044.69
679.26	1874.51
679.45	2142.99
679.65	2070.50
679.84	1701.45
680.03	1740.98
680.23	1876.55
680.42	2224.71
680.61	1765.14
680.81	1838.87
681.00	1916.08
681.19	1970.15
681.38	1988.99
681.58	1959.91
681.77	1876.76
681.96	2006.60
682.15	1844.20
682.35	1930.01
682.54	1946.18
682.73	1778.66
682.93	1810.61
683.12	1797.71
683.31	1996.97
683.50	2277.96
683.70	1812.66
683.89	1906.86
684.08	1804.26
684.27	2038.96
684.47	1739.34
684.66	1916.69
684.85	2172.89
685.04	2064.15
685.24	1846.24
685.43	1901.54
685.62	1713.54
685.81	1956.01
686.01	1987.55
686.20	1923.66
686.39	1901.33
686.58	2331.20
686.78	2103.88
686.97	2136.24
687.16	2154.87
687.35	2080.53
687.55	1960.32
687.74	1941.68
687.93	1873.28
688.12	1974.45
688.32	1954.79
688.51	1794.84
688.70	2001.07
688.89	1806.92
689.08	1757.77
689.28	1826.99
689.47	1935.94
689.66	1944.14
689.85	1978.13
690.05	1848.09
690.24	1825.56
690.43	1957.45
690.62	1923.25
690.81	1848.29
691.01	1938.61
691.20	1845.83
691.39	1800.78
691.58	1981.61
691.77	2127.43
691.97	1927.55
692.16	1945.98
692.35	1876.76
692.54	1833.34
692.73	2004.35
692.93	1965.85
693.12	1961.54
693.31	2036.09
693.50	1987.96
693.69	2022.98
693.89	1912.39
694.08	2111.46
694.27	2137.06
694.46	1830.06
694.65	1920.38
694.85	2015.20
695.04	2024.83
695.23	2047.97
695.42	2833.36
695.61	3485.85
695.80	3951.15
696.00	4404.77
696.19	4630.46
696.38	4084.47
696.57	3602.79
696.76	3500.59
696.95	3235.18
697.15	3285.15
697.34	3138.72
697.53	2713.97
697.72	2676.70
697.91	2463.50
698.10	2519.62
698.30	2166.14
698.49	2045.10
698.68	2077.25
698.87	1935.94
699.06	1815.11
699.25	1910.96
699.45	2077.25
699.64	1931.64
699.83	2010.70
700.02	1809.38
700.21	1995.54
700.40	1871.02
700.59	1852.80
700.79	1856.89
700.98	1991.65
701.17	1820.23
701.36	1836.21
701.55	1826.99
701.74	2071.93
701.93	1827.61
702.12	1994.93
702.32	1939.63
702.51	2185.59
702.70	2123.74
702.89	2008.85
703.08	1921.61
703.27	2142.18
703.46	2043.87
703.65	1951.71
703.85	1843.58
704.04	1886.59
704.23	2085.86
704.42	1833.34
704.61	1868.57
704.80	2132.96
704.99	1833.96
705.18	1940.25
705.37	1986.73
705.57	2522.48
705.76	3323.65
705.95	3458.61
706.14	4104.74
706.33	4335.75
706.52	4387.98
706.71	3519.43
706.90	3214.29
707.09	3202.00
707.28	3038.57
707.47	2739.98
707.67	2776.43
707.86	2520.23
708.05	2646.59
708.24	2344.31
708.43	2215.49
708.62	2052.88
708.81	1912.80
709.00	1840.30
709.19	1851.36
709.38	2045.72
709.57	1810.61
709.76	1948.64
709.96	1867.95
710.15	2124.15
710.34	1925.71
710.53	2013.56
710.72	1910.75
710.91	2065.99
711.10	1988.17
711.29	1998.00
711.48	1848.09
711.67	1797.30
711.86	1986.12
712.05	1782.76
712.24	1817.16
712.43	1977.93
712.62	2086.88
712.81	1923.25
713.00	2041.82
713.19	1772.31
713.39	1990.83
713.58	1822.49
713.77	2008.24
713.96	2136.24
714.15	2048.99
714.34	2087.49
714.53	1967.89
714.72	2297.82
714.91	1956.42
715.10	2004.35
715.29	1860.17
715.48	2399.40
715.67	2048.38
715.86	1960.11
716.05	1921.61
716.24	1922.84
716.43	1867.95
716.62	1806.72
716.81	1781.53
717.00	1873.69
717.19	2105.93
717.38	1918.74
717.57	1861.81
717.76	1751.42
717.95	2055.34
718.14	1881.06
718.33	1857.10
718.52	1725.82
718.71	1720.91
718.90	1741.80
719.09	1854.85
719.28	1911.57
719.47	2045.92
719.66	1991.65
719.85	1977.11
720.04	1882.90
720.23	1936.97
720.42	1861.40
720.61	1952.12
720.80	1756.13
720.99	1952.53
721.18	1859.15
721.37	1810.20
721.56	1840.92
721.75	2031.58
721.94	1791.56
722.13	1879.83
722.32	1883.72
722.51	2031.38
722.70	1883.11
722.89	1923.25
723.08	1899.49
723.27	2054.52
723.46	1945.37
723.65	1851.98
723.84	1823.51
724.03	2068.04
724.22	1764.94
724.41	1938.20
724.60	1884.75
724.79	2054.11
724.98	1960.32
725.16	1863.45
725.35	2013.15
725.54	1802.42
725.73	1900.92
725.92	1928.98
726.11	2026.47
726.30	2344.92
726.49	2206.48
726.68	2387.11
726.87	2532.31
727.06	2612.18
727.25	2244.16
727.44	2338.17
727.63	2218.77
727.82	2174.33
728.01	2185.39
728.20	2171.87
728.38	2275.91
728.57	2042.03
728.76	2028.51
728.95	2088.93
729.14	1845.83
729.33	1826.17
729.52	1718.04
729.71	1856.69
729.90	1812.45
730.09	1874.10
730.28	1879.63
730.47	1839.90
730.66	2098.96
730.84	1966.87
731.03	1966.25
731.22	1997.18
731.41	1970.97
731.60	2002.30
731.79	1759.61
731.98	1850.13
732.17	2009.88
732.36	1984.69
732.55	1850.95
732.73	1787.67
732.92	2088.72
733.11	1986.32
733.30	1842.56
733.49	1776.41
733.68	1992.47
733.87	1961.75
734.06	1835.59
734.25	1822.28
734.43	1918.13
734.62	2035.07
734.81	1978.95
735.00	1942.70
735.19	1934.31
735.38	2038.14
735.57	1821.05
735.76	1973.63
735.94	2047.35
736.13	2302.33
736.32	2146.68
736.51	2101.01
736.70	2405.13
736.89	2432.58
737.08	2528.42
737.27	3464.55
737.45	4716.47
737.64	5180.75
737.83	5927.44
738.02	6212.10
738.21	5940.34
738.40	4979.43
738.59	4461.50
738.77	4240.93
738.96	3943.36
739.15	3797.96
739.34	3640.47
739.53	3374.23
739.72	3292.11
739.90	3062.53
740.09	2579.01
740.28	2433.19
740.47	2370.32
740.66	2189.48
740.85	1969.33
741.03	1987.35
741.22	1891.30
741.41	1952.12
741.60	1785.62
741.79	1958.27
741.98	2096.51
742.16	2152.62
742.35	1986.32
742.54	1916.49
742.73	2237.00
742.92	1951.10
743.10	1816.96
743.29	1920.38
743.48	2288.81
743.67	1885.16
743.86	1804.87
744.05	1814.71
744.23	1851.57
744.42	1850.95
744.61	1915.67
744.80	1827.81
744.99	1884.54
745.17	1740.77
745.36	1805.69
745.55	2005.99
745.74	1962.16
745.93	1880.44
746.11	1893.76
746.30	1857.92
746.49	2097.12
746.68	1843.17
746.86	1914.24
747.05	1929.39
747.24	2056.16
747.43	2061.08
747.62	1846.86
747.80	1898.67
747.99	2134.19
748.18	2097.32
748.37	2025.24
748.56	2051.04
748.74	2103.06
748.93	2106.75
749.12	2817.80
749.31	5033.91
749.49	6865.00
749.68	8099.10
749.87	9456.29
750.06	9857.28
750.24	9449.53
750.43	9009.63
750.62	9846.84
750.81	10060.65
750.99	10449.35
751.18	10242.10
751.37	8722.30
751.56	7440.68
751.74	7303.06
751.93	6706.28
752.12	5491.63
752.31	4902.84
752.49	4371.80
752.68	4116.42
752.87	3535.82
753.06	3129.91
753.24	2839.30
753.43	2724.62
753.62	2294.75
753.81	2143.40
753.99	2321.99
754.18	2090.36
754.37	1886.38
754.55	2005.99
754.74	2179.86
754.93	1785.01
755.12	1896.83
755.30	1840.92
755.49	2072.95
755.68	1994.93
755.86	1966.25
756.05	1803.24
756.24	2131.94
756.43	1803.65
756.61	1828.02
756.80	1974.24
756.99	2088.52
757.17	1950.90
757.36	1819.83
757.55	1910.55
757.74	2011.92
757.92	1945.57
758.11	1763.10
758.30	1736.27
758.48	1914.03
758.67	1818.80
758.86	1956.01
759.04	1849.93
759.23	1941.06
759.42	1970.56
759.60	1905.43
759.79	1936.76
759.98	1936.76
760.16	1869.59
760.35	1851.98
760.54	1811.63
760.73	1952.12
760.91	1796.48
761.10	1956.42
761.29	1981.41
761.47	1940.66
761.66	2222.25
761.85	1998.00
762.03	2199.93
762.22	3429.53
762.41	7339.31
762.59	11717.25
762.78	14048.25
762.97	16837.17
763.15	18050.59
763.34	16417.34
763.52	12248.29
763.71	11361.11
763.90	10481.30
764.08	9753.66
764.27	8981.98
764.46	8384.59
764.64	7347.70
764.83	6632.35
765.02	5989.49
765.20	5189.55
765.39	4384.29
765.58	3415.81
765.76	2977.54
765.95	2616.08
766.13	2353.53
766.32	2141.56
766.51	2063.33
766.69	2568.77
766.88	2025.24
767.07	1842.15
767.25	1772.31
767.44	2103.26
767.62	2087.29
767.81	1863.65
768.00	1905.02
768.18	1920.99
768.37	1840.51
768.56	1780.71
768.74	1832.73
768.93	1779.28
769.11	1984.28
769.30	1922.22
769.49	1831.09
769.67	1881.88
769.86	1846.65
770.04	1861.40
770.23	1879.42
770.42	2080.94
770.60	1934.31
770.79	1823.51
770.97	1928.78
771.16	2531.70
771.35	3437.93
771.53	4365.25
771.72	4916.15
771.90	5696.22
772.09	6061.99
772.27	5398.24
772.46	4328.18
772.65	4403.75
772.83	4076.69
773.02	3883.36
773.20	3551.18
773.39	3529.88
773.58	3313.20
773.76	2921.84
773.95	2836.85
774.13	2743.66
774.32	2443.84
774.50	2210.78
774.69	2206.89
774.87	2045.92
775.06	2314.20
775.25	1882.49
775.43	1932.26
775.62	2006.19
775.80	2033.22
775.99	1976.90
776.17	1848.29
776.36	1946.59
776.54	2064.76
776.73	1852.80
776.92	1960.73
777.10	2040.80
777.29	1985.51
777.47	1833.96
777.66	1843.58
777.84	1908.30
778.03	1888.43
778.21	1812.86
778.40	1929.19
778.58	1967.69
778.77	2037.73
778.95	1768.63
779.14	1795.66
779.32	2143.40
779.51	1988.99
779.70	1874.51
779.88	1740.57
780.07	1867.34
780.25	2260.14
780.44	1870.21
780.62	1998.00
780.81	1988.78
780.99	1949.46
781.18	1833.75
781.36	1820.44
781.55	1871.23
781.73	2090.57
781.92	1791.56
782.10	1782.96
782.29	1968.10
782.47	2099.17
782.66	1894.17
782.84	1753.88
783.03	1813.48
783.21	2073.36
783.40	1864.47
783.58	1859.35
783.77	1852.39
783.95	1901.13
784.14	1783.99
784.32	1900.72
784.51	2048.38
784.69	1797.91
784.88	1723.57
785.06	1880.24
785.24	1758.80
785.43	2019.09
785.61	1960.52
785.80	1806.51
785.98	1991.85
786.17	1923.86
786.35	1797.91
786.54	1953.35
786.72	2035.07
786.91	2034.86
787.09	1889.66
787.28	1775.59
787.46	1929.19
787.65	2066.20
787.83	1789.11
788.01	1903.59
788.20	1772.31
788.38	1896.62
788.57	1870.82
788.75	1869.80
788.94	2167.98
789.12	2079.92
789.31	1925.50
789.49	2005.17
789.67	1875.12
789.86	1978.34
790.04	1818.39
790.23	1752.24
790.41	2200.34
790.60	1882.08
790.78	1868.36
790.96	1885.16
791.15	2027.49
791.33	1899.70
791.52	1874.71
791.70	1813.68
791.89	1905.63
792.07	2019.30
792.25	1907.27
792.44	1753.06
792.62	2077.87
792.81	1883.93
792.99	1942.70
793.17	1871.02
793.36	1927.55
793.54	2456.13
793.73	3115.37
793.91	3968.96
794.10	4680.84
794.28	5318.98
794.46	5353.80
794.65	5265.12
794.83	4251.38
795.01	4014.84
795.20	3990.06
795.38	3699.86
795.57	3587.63
795.75	3484.62
795.93	3166.36
796.12	3039.60
796.30	2958.50
796.49	2822.10
796.67	2461.25
796.85	2520.03
797.04	2314.20
797.22	2287.17
797.40	1994.52
797.59	2079.30
797.77	2042.23
797.96	1896.01
798.14	1875.53
798.32	1907.27
798.51	2054.73
798.69	2220.82
798.87	1922.84
799.06	1920.59
799.24	1848.70
799.42	2344.92
799.61	2867.57
799.79	3266.51
799.98	3820.28
800.16	4015.45
800.34	4857.37
800.53	5866.41
800.71	6248.76
800.89	7243.67
801.08	7340.94
801.26	7359.38
801.44	6205.55
801.63	5262.26
801.81	5153.30
801.99	4733.06
802.18	4466.01
802.36	4280.46
802.54	4011.56
802.73	3496.50
802.91	3333.68
803.09	3112.50
803.28	2920.20
803.46	2762.51
803.64	2683.04
803.83	2207.51
804.01	2065.17
804.19	1940.25
804.38	2171.46
804.56	2060.67
804.74	1977.11
804.92	1997.59
805.11	1865.90
805.29	2091.80
805.47	1885.16
805.66	1821.05
805.84	1828.63
806.02	2073.57
806.21	1889.25
806.39	2042.23
806.57	2104.49
806.76	2067.42
806.94	1951.30
807.12	1864.68
807.30	1934.10
807.49	2048.17
807.67	2004.55
807.85	2106.34
808.04	2103.47
808.22	2271.61
808.40	1837.03
808.58	1841.12
808.77	2044.49
808.95	2241.71
809.13	2455.92
809.31	3993.13
809.50	5544.06
809.68	6410.96
809.86	7004.67
810.05	7722.48
810.23	8761.21
810.41	12640.88
810.59	21336.15
810.78	26560.52
810.96	31064.82
811.14	34157.46
811.32	33438.41
811.51	26862.80
811.69	21345.98
811.87	21027.93
812.05	18457.11
812.24	17289.98
812.42	15882.41
812.60	14244.03
812.78	12143.23
812.97	10384.43
813.15	9367.00
813.33	7996.91
813.51	6862.95
813.70	5561.87
813.88	4523.55
814.06	3775.84
814.24	3120.29
814.42	2561.60
814.61	2456.95
814.79	2483.16
814.97	1971.37
815.15	2052.27
815.34	2099.58
815.52	2138.69
815.70	1875.53
815.88	1903.79
816.06	1875.53
816.25	1869.39
816.43	1839.90
816.61	1979.16
816.79	2127.43
816.98	1756.54
817.16	1832.32
817.34	1794.02
817.52	1969.12
817.70	2081.76
817.89	1865.70
818.07	1765.96
818.25	1891.50
818.43	1910.14
818.61	1843.17
818.80	1811.84
818.98	2126.82
819.16	1932.67
819.34	1777.64
819.52	2090.36
819.70	1825.56
819.89	1887.82
820.07	1740.16
820.25	1735.04
820.43	1952.94
820.61	2009.26
820.80	1882.29
820.98	1775.18
821.16	1709.03
821.34	1763.30
821.52	1842.56
821.70	1906.04
821.89	1896.21
822.07	1871.23
822.25	1844.81
822.43	1787.26
822.61	2094.25
822.79	1922.43
822.98	1866.72
823.16	1668.68
823.34	1921.40
823.52	2058.82
823.70	1993.90
823.88	1709.64
824.06	1971.37
824.25	1872.25
824.43	1970.15
824.61	1763.30
824.79	1865.49
824.97	1962.36
825.15	2067.83
825.33	2466.16
825.52	3081.37
825.70	3414.37
825.88	3632.28
826.06	3955.45
826.24	4005.42
826.42	3681.43
826.60	3211.01
826.78	3213.67
826.97	2922.86
827.15	3066.63
827.33	2711.51
827.51	2735.06
827.69	2537.64
827.87	2483.57
828.05	2398.79
828.23	2202.59
828.41	2354.96
828.60	2230.44
828.78	1949.67
828.96	2062.71
829.14	1908.50
829.32	1941.88
829.50	1862.22
829.68	1839.69
829.86	1879.22
830.04	2004.35
830.22	1916.08
830.41	1787.26
830.59	1899.29
830.77	2000.05
830.95	1807.54
831.13	1828.63
831.31	1810.61
831.49	1980.59
831.67	2002.09
831.85	1972.81
832.03	1852.59
832.21	1980.59
832.39	1741.39
832.57	1764.73
832.76	1991.04
832.94	1875.94
833.12	1696.13
833.30	1825.15
833.48	2061.69
833.66	1944.55
833.84	1812.25
834.02	1875.12
834.20	1996.16
834.38	2026.67
834.56	1695.72
834.74	1756.34
834.92	1757.98
835.10	2119.03
835.28	1926.11
835.46	1878.81
835.64	1880.44
835.82	1820.23
836.01	2102.44
836.19	2000.46
836.37	1845.63
836.55	1793.82
836.73	1805.90
836.91	1774.56
837.09	2005.58
837.27	2100.19
837.45	1714.76
837.63	1777.84
837.81	1745.48
837.99	1880.65
838.17	1846.04
838.35	1797.30
838.53	2214.26
838.71	1983.46
838.89	1840.92
839.07	1821.67
839.25	1910.14
839.43	2094.66
839.61	2173.51
839.79	3298.25
839.97	4442.86
840.15	5094.53
840.33	5591.57
840.51	6085.33
840.69	5845.52
840.87	4932.12
841.05	4497.54
841.23	4767.67
841.41	5901.63
841.59	8079.65
841.77	9140.90
841.95	9857.90
842.13	10591.68
842.31	10141.75
842.49	8227.51
842.67	7064.88
842.85	6897.76
843.03	5980.27
843.21	5709.33
843.39	5389.64
843.57	4892.80
843.75	4491.20
843.93	3911.42
844.11	3543.19
844.29	3330.61
844.47	3084.65
844.65	3058.85
844.83	2664.20
845.01	2463.71
845.19	2442.00
845.36	2151.60
845.54	2125.38
845.72	2030.97
845.90	2055.34
846.08	1829.45
846.26	1914.44
846.44	1998.41
846.62	1958.88
846.80	1912.39
846.98	1831.09
847.16	1893.35
847.34	1938.61
847.52	1789.11
847.70	1787.88
847.88	1881.06
848.06	2076.44
848.24	1929.60
848.41	1742.21
848.59	2001.48
848.77	1951.92
848.95	1811.84
849.13	1814.09
849.31	1994.72
849.49	1940.04
849.67	1762.28
849.85	1768.01
850.03	1932.46
850.21	1913.01
850.39	1815.32
850.57	1948.85
850.74	2086.27
850.92	2192.15
851.10	2344.92
851.28	2734.45
851.46	3173.94
851.64	3623.88
851.82	3457.59
852.00	3531.11
852.18	3361.33
852.36	2994.54
852.53	2815.75
852.71	2772.13
852.89	2727.08
853.07	2670.35
853.25	2392.44
853.43	2276.73
853.61	2338.58
853.79	2282.87
853.97	2106.95
854.14	2018.89
854.32	2266.69
854.50	2133.78
854.68	1957.86
854.86	1924.68
855.04	1856.48
855.22	2029.74
855.40	1768.01
855.57	1824.13
855.75	1990.01
855.93	1944.34
856.11	1691.01
856.29	1802.42
856.47	1801.39
856.65	1937.99
856.82	1788.70
857.00	1704.32
857.18	1854.85
857.36	1831.50
857.54	1875.32
857.72	1957.45
857.89	1960.52
858.07	1904.20
858.25	1979.57
858.43	1728.90
858.61	1867.75
858.79	1891.30
858.97	1785.62
859.14	1918.54
859.32	1858.33
859.50	1844.40
859.68	1885.56
859.86	1795.25
860.03	1884.54
860.21	1942.29
860.39	1774.77
860.57	1898.67
860.75	1944.34
860.93	2118.01
861.10	1990.63
861.28	1801.39
861.46	1907.48
861.64	1970.15
861.82	1830.68
861.99	1908.09
862.17	2019.30
862.35	2006.60
862.53	1868.77
862.71	1873.07
862.88	1916.49
863.06	1966.05
863.24	1842.15
863.42	1797.30
863.60	1870.82
863.77	1932.67
863.95	1671.14
864.13	1851.36
864.31	1860.37
864.49	1971.78
864.66	1755.52
864.84	1818.39
865.02	1913.21
865.20	2211.81
865.37	1902.77
865.55	1824.33
865.73	1793.41
865.91	2099.99
866.09	2116.17
866.26	2099.37
866.44	2219.79
866.62	2117.60
866.80	1966.87
866.97	2040.39
867.15	2015.82
867.33	2024.62
867.51	2046.13
867.68	1985.71
867.86	1939.43
868.04	1902.15
868.22	1758.39
868.39	1847.88
868.57	1961.34
868.75	2104.70
868.93	1731.76
869.10	1832.73
869.28	2137.87
869.46	2058.62
869.64	1890.48
869.81	1839.28
869.99	1916.90
870.17	1897.65
870.35	1794.84
870.52	1757.98
870.70	1997.59
870.88	1800.98
871.05	1737.29
871.23	1632.03
871.41	1896.01
871.59	1880.04
871.76	1815.93
871.94	1769.04
872.12	1890.48
872.29	1718.86
872.47	1821.26
872.65	1756.13
872.83	1898.47
873.00	2029.74
873.18	1821.67
873.36	1785.21
873.53	1951.51
873.71	1736.06
873.89	1785.42
874.06	1853.41
874.24	1930.62
874.42	2067.22
874.60	1950.08
874.77	1900.11
874.95	1767.81
875.13	1991.65
875.30	1782.14
875.48	1816.14
875.66	2097.12
875.83	1790.54
876.01	1825.97
876.19	1927.55
876.36	1746.51
876.54	1905.84
876.72	1721.11
876.89	1894.37
877.07	1977.93
877.25	1693.67
877.42	1887.82
877.60	1842.35
877.78	2112.68
877.95	1828.43
878.13	1801.19
878.31	1892.12
878.48	1990.83
878.66	1962.16
878.84	1793.41
879.01	1850.13
879.19	1903.59
879.37	1948.03
879.54	1811.84
879.72	1726.23
879.90	1661.93
880.07	1956.42
880.25	1600.08
880.42	1894.58
880.60	1908.71
880.78	1978.75
880.95	1820.03
881.13	1834.78
881.31	1860.37
881.48	1823.51
881.66	1753.27
881.83	1881.47
882.01	1798.53
882.19	1730.33
882.36	1867.34
882.54	1826.58
882.72	1980.59
882.89	1899.49
883.07	1776.00
883.24	1820.03
883.42	1972.81
883.60	1874.51
883.77	1762.07
883.95	1802.83
884.12	1983.25
884.30	1899.08
884.48	1954.99
884.65	1854.44
884.83	1890.28
885.00	1928.98
885.18	1743.44
885.36	1797.71
885.53	1951.51
885.71	2041.01
885.88	1726.85
886.06	1785.21
886.23	1966.25
886.41	1828.02
886.59	1789.31
886.76	1813.68
886.94	1945.98
887.11	2239.04
887.29	1859.76
887.47	1722.75
887.64	2042.85
887.82	2079.30
887.99	1678.72
888.17	1864.68
888.34	1836.82
888.52	1766.17
888.69	1880.44
888.87	1767.40
889.05	1851.36
889.22	1825.35
889.40	1799.55
889.57	1954.58
889.75	2029.74
889.92	1846.86
890.10	1759.61
890.27	1824.33
890.45	1812.66
890.62	1685.27
890.80	1735.86
890.98	1702.07
891.15	2063.94
891.33	1981.00
891.50	1790.95
891.68	1685.27
891.85	1958.47
892.03	1960.93
892.20	1785.62
892.38	1746.30
892.55	1960.32
892.73	1934.10
892.90	1727.87
893.08	1779.07
893.25	1798.12
893.43	1830.06
893.60	1919.56
893.78	1648.00
893.95	1938.20
894.13	1873.07
894.30	1745.69
894.48	1831.50
894.65	1963.18
894.83	1908.91
895.00	1650.87
895.18	1677.29
895.35	2005.99
895.53	1967.48
895.70	1712.10
895.88	1900.11
896.05	1925.71
896.23	1720.29
896.40	1772.52
896.58	1835.18
896.75	1967.69
896.93	2066.61
897.10	1803.85
897.28	1728.49
897.45	1897.44
897.63	1931.85
897.80	1940.25
897.98	1853.21
898.15	1942.29
898.33	1752.45
898.50	1873.48
898.67	1813.07
898.85	1843.79
899.02	1945.16
899.20	2000.87
899.37	1823.31
899.55	1884.75
899.72	2047.76
899.90	1764.94
900.07	1764.73
900.25	1940.45
900.42	2027.08
900.59	1782.35
900.77	1914.85
900.94	1962.57
901.12	1912.39
901.29	1779.28
901.47	1907.27
901.64	1910.55
901.82	1890.48
901.99	1635.71
902.16	1754.49
902.34	2029.33
902.51	1923.04
902.69	1804.87
902.86	1847.88
903.03	2301.92
903.21	1899.49
903.38	1848.09
903.56	1765.55
903.73	2021.75
903.91	1847.88
904.08	1731.35
904.25	1664.79
904.43	1789.92
904.60	1968.30
904.78	1826.17
904.95	1735.04
905.12	1841.33
905.30	2076.64
905.47	1892.12
905.65	1908.50
905.82	1871.43
905.99	1934.92
906.17	1835.18
906.34	1754.49
906.52	1778.66
906.69	1952.94
906.86	1910.75
907.04	1862.63
907.21	1998.00
907.38	1994.31
907.56	1770.67
907.73	1802.42
907.91	2071.32
908.08	2001.48
908.25	1770.88
908.43	1757.77
908.60	1944.75
908.77	1915.87
908.95	1786.44
909.12	1765.76
909.30	1960.52
909.47	1732.99
909.64	1841.94
909.82	1952.53
909.99	1840.51
910.16	1916.69
910.34	1780.30
910.51	1802.01
910.68	1907.07
910.86	1873.07
911.03	1809.59
911.20	2197.47
911.38	3353.96
911.55	4994.18
911.72	5739.84
911.90	6189.58
912.07	6750.31
912.24	6621.70
912.42	5227.65
912.59	3984.73
912.76	3841.17
912.94	3365.63
913.11	3036.73
913.28	2755.54
913.46	2657.85
913.63	2683.86
913.80	2786.88
913.98	2445.48
914.15	2583.72
914.32	2568.77
914.49	2386.29
914.67	2215.70
914.84	2357.83
915.01	2405.95
915.19	2261.37
915.36	2121.49
915.53	2241.30
915.71	2140.54
915.88	2027.08
916.05	1861.40
916.22	2052.47
916.40	1967.69
916.57	1771.90
916.74	1891.71
916.92	2104.49
917.09	1785.62
917.26	1779.07
917.43	1745.28
917.61	1856.89
917.78	1689.16
917.95	1683.64
918.13	1731.56
918.30	2149.96
918.47	1891.71
918.64	1771.49
918.82	1734.63
918.99	1880.24
919.16	2094.87
919.33	1822.28
919.51	1775.38
919.68	1872.66
919.85	2027.90
920.02	1694.49
920.20	1833.14
920.37	2082.78
920.54	1990.01
920.71	1764.73
920.89	1781.73
921.06	2076.85
921.23	1788.08
921.40	1799.14
921.58	2175.15
921.75	2799.57
921.92	2473.33
922.09	2561.19
922.27	2591.70
922.44	2530.67
922.61	2397.76
922.78	2124.77
922.96	2066.81
923.13	2042.85
923.30	2157.74
923.47	1836.62
923.64	1908.71
923.82	2049.61
923.99	2039.16
924.16	1959.29
924.33	1825.35
924.50	1966.25
924.68	2126.61
924.85	1805.69
925.02	1888.84
925.19	2045.51
925.36	1952.74
925.54	1906.04
925.71	1866.31
925.88	2279.80
926.05	1836.21
926.22	1772.93
926.40	1873.69
926.57	1894.78
926.74	1965.44
926.91	1779.48
927.08	1950.49
927.26	2035.68
927.43	1897.24
927.60	1772.72
927.77	1816.55
927.94	2073.77
928.11	2034.86
928.29	1706.37
928.46	1860.17
928.63	1781.53
928.80	1868.77
928.97	1894.37
929.14	1728.49
929.32	2158.97
929.49	1915.87
929.66	1753.47
929.83	1694.28
930.00	1831.29
930.17	1926.32
930.35	1718.04
930.52	1773.75
930.69	2072.75
930.86	1758.39
931.03	1872.66
931.20	1640.83
931.37	2024.62
931.55	1866.93
931.72	1908.91
931.89	1703.71
932.06	1759.61
932.23	2062.71
932.40	1878.40
932.57	1893.76
932.74	2062.10
932.92	2018.89
933.09	1919.15
933.26	1552.57
933.43	1795.66
933.60	1930.01
933.77	1810.20
933.94	1854.64
934.11	1848.29
934.29	1924.89
934.46	1723.98
934.63	1890.89
934.80	1721.52
934.97	1896.62
935.14	1848.50
935.31	1713.95
935.48	1802.42
935.65	1915.47
935.82	1879.83
936.00	1704.93
936.17	2067.22
936.34	1871.43
936.51	1921.61
936.68	1698.59
936.85	1918.95
937.02	1887.82
937.19	1874.92
937.36	1828.43
937.53	1909.53
937.70	1970.76
937.87	1831.91
938.05	1899.49
938.22	1886.38
938.39	1781.32
938.56	1814.91
938.73	1765.76
938.90	1857.71
939.07	1782.96
939.24	1847.27
939.41	1655.78
939.58	1906.25
939.75	1918.74
939.92	1753.88
940.09	1964.00
940.26	1839.90
940.43	1987.96
940.60	1765.55
940.77	1787.26
940.95	1882.70
941.12	1961.54
941.29	1785.21
941.46	1814.71
941.63	2010.90
941.80	2033.43
941.97	1683.84
942.14	1705.34
942.31	1972.81
942.48	1860.78
942.65	1866.31
942.82	1816.34
942.99	1950.69
943.16	1871.43
943.33	1722.34
943.50	1778.87
943.67	1973.22
943.84	2016.63
944.01	1794.02
944.18	1753.27
944.35	2043.46
944.52	1763.92
944.69	1840.30
944.86	1709.23
945.03	1949.05
945.20	2162.45
945.37	1651.28
945.54	1811.22
945.71	2021.35
945.88	2068.04
946.05	1736.27
946.22	1721.73
946.39	2044.08
946.56	1867.75
946.73	1689.16
946.90	1730.33
947.07	1813.48
947.24	1842.76
947.41	1666.23
947.58	1895.40
947.75	1945.98
947.92	1908.71
948.09	1587.79
948.26	1692.03
948.43	1911.16
948.60	2119.44
948.77	1731.56
948.94	1796.48
949.11	1946.59
949.27	1934.51
949.44	1762.69
949.61	1748.76
949.78	1937.79
949.95	2008.03
950.12	1753.47
950.29	1681.79
950.46	1805.49
950.63	1979.77
950.80	1767.60
950.97	1812.66
951.14	1976.70
951.31	1841.53
951.48	1787.06
951.65	1694.90
951.82	2128.66
951.99	1910.35
952.15	1674.21
952.32	1787.26
952.49	1800.57
952.66	1809.59
952.83	1746.71
953.00	1729.30
953.17	1865.09
953.34	1969.74
953.51	1803.24
953.68	1799.14
953.85	2009.26
954.02	2024.83
954.18	1787.47
954.35	1812.66
954.52	1767.60
954.69	1904.00
954.86	1640.42
955.03	1809.99
955.20	1965.23
955.37	1868.77
955.54	1777.84
955.71	1742.21
955.87	1927.14
956.04	2095.48
956.21	1783.58
956.38	1742.00
956.55	1873.28
956.72	2214.06
956.89	1804.47
957.06	1745.69
957.23	1813.89
957.39	2013.36
957.56	1774.36
957.73	1706.98
957.90	1647.39
958.07	2134.19
958.24	1823.92
958.41	1760.23
958.57	1969.12
958.74	1854.03
958.91	1723.98
959.08	1754.90
959.25	1992.67
959.42	1848.91
959.59	1825.15
959.75	1771.29
959.92	2012.74
960.09	2002.09
960.26	1748.56
960.43	1845.42
960.60	1887.00
960.76	1841.33
960.93	1693.06
961.10	1858.33
961.27	2012.74
961.44	1851.36
961.61	1700.43
961.77	1729.10
961.94	1891.30
962.11	1993.70
962.28	1808.97
962.45	1715.99
962.62	1847.27
962.78	2015.41
962.95	1726.85
963.12	1765.35
963.29	1957.86
963.46	2246.21
963.62	1836.21
963.79	1772.93
963.96	2187.85
964.13	1846.65
964.30	1858.74
964.46	1782.96
964.63	1806.51
964.80	2267.31
964.97	1752.86
965.14	2064.56
965.30	2174.53
965.47	2254.40
965.64	2192.76
965.81	2148.32
965.98	2292.91
966.14	2074.39
966.31	1882.90
966.48	1898.47
966.65	2132.14
966.81	2019.50
966.98	1900.92
967.15	1897.85
967.32	1932.87
967.49	1868.77
967.65	1711.49
967.82	1701.86
967.99	1924.07
968.16	1769.24
968.32	1985.10
968.49	1793.61
968.66	1900.11
968.83	2108.38
968.99	1848.70
969.16	1756.13
969.33	2083.60
969.50	1984.69
969.66	1902.97
969.83	2017.25
970.00	2013.56
970.17	1959.50
970.33	1807.33
970.50	1707.39
970.67	2086.68
970.84	2041.42
971.00	1708.62
971.17	1693.47
971.34	1953.56
971.50	1887.82
971.67	1901.13
971.84	1822.28
972.01	1729.92
972.17	1650.87
972.34	1724.80
972.51	1875.53
972.67	2044.90
972.84	1933.90
973.01	1724.39
973.18	1763.51
973.34	2012.54
973.51	1791.36
973.68	1800.16
973.84	1815.93
974.01	1839.28
974.18	2073.36
974.34	1848.29
974.51	1873.69
974.68	1774.97
974.85	2124.15
975.01	1872.66
975.18	1756.75
975.35	1893.76
975.51	1804.06
975.68	1671.76
975.85	1906.66
976.01	1812.66
976.18	2060.46
976.35	1789.11
976.51	1769.45
976.68	2081.35
976.85	2039.78
977.01	1821.87
977.18	1851.36
977.35	1979.57
977.51	1743.23
977.68	1640.01
977.85	1698.18
978.01	2011.72
978.18	1969.53
978.35	1833.75
978.51	1852.59
978.68	2023.60
978.85	2086.06
979.01	1774.16
979.18	1832.11
979.34	1888.43
979.51	1915.26
979.68	1734.63
979.84	1822.08
980.01	2210.17
980.18	1940.45
980.34	1744.05
980.51	1843.38
980.67	1971.17
980.84	1995.95
981.01	1818.60
981.17	1874.10
981.34	1680.77
981.51	1959.09
981.67	1752.04
981.84	1901.95
982.00	1961.95
982.17	1857.10
982.34	1667.46
982.50	1595.78
982.67	2072.13
982.83	1798.73
983.00	1727.87
983.17	1615.03
983.33	2017.25
983.50	1703.30
983.66	1707.19
983.83	1585.54
984.00	1815.32
984.16	1894.37
984.33	1615.64
984.49	1612.16
984.66	1755.52
984.83	1946.39
984.99	1637.97
985.16	1568.54
985.32	1956.22
985.49	1970.76
985.65	1740.57
985.82	1611.55
985.99	2068.45
986.15	1881.67
986.32	1710.46
986.48	1639.19
986.65	1794.64
986.81	1964.62
986.98	1633.46
987.14	1670.73
987.31	1904.41
987.48	1707.19
987.64	1555.02
987.81	1593.73
987.97	2169.62
988.14	1758.59
988.30	1636.74
988.47	1523.07
988.63	1903.79
988.80	1747.33
988.96	1694.28
989.13	1698.18
989.30	1821.46
989.46	1957.45
989.63	1579.60
989.79	1597.42
989.96	1876.76
990.12	2029.74
990.29	1650.05
990.45	1672.99
990.62	1867.34
990.78	2038.34
990.95	1743.03
991.11	1650.66
991.28	1809.99
991.44	1881.06
991.61	1555.43
991.77	1702.68
991.94	1888.23
992.10	2017.86
992.27	1703.91
992.43	1672.58
992.60	1958.27
992.76	1807.33
992.93	1818.39
993.09	1621.38
993.26	2002.71
993.42	2088.31
993.59	1632.03
993.75	1552.97
993.92	1790.95
994.08	1795.04
994.25	1736.27
994.41	1615.23
994.58	1961.54
994.74	2040.80
994.91	1612.37
995.07	1714.15
995.24	1851.16
995.40	1865.49
995.56	1753.68
995.73	1727.26
995.89	2057.59
996.06	1856.48
996.22	1646.77
996.39	1555.23
996.55	1839.49
996.72	1919.36
996.88	1565.06
997.05	1613.18
997.21	2095.48
997.37	1934.92
997.54	1701.66
997.70	1664.59
997.87	1921.40
998.03	1858.74
998.20	1558.91
998.36	1586.97
998.52	1942.70
998.69	1974.24
998.85	1561.99
999.02	1673.19
999.18	1975.47
999.35	1962.77
999.51	1696.74
999.67	1672.37
999.84	1753.06
1000.00	1971.37
1000.17	1709.85
1000.33	1625.68
1000.49	1832.73
1000.66	1848.70
1000.82	1636.53
1000.99	1713.74
1001.15	2020.73
1001.31	1824.94
1001.48	1646.57
1001.64	1712.51
1001.81	1834.16
1001.97	2131.53
1002.13	1635.51
1002.30	1642.88
1002.46	2024.42
1002.63	1824.33
1002.79	1712.10
1002.95	1634.48
1003.12	1966.46
1003.28	1924.27
1003.45	1598.85
1003.61	1604.79
1003.77	1899.08
1003.94	1749.37
1004.10	1647.18
1004.26	1692.65
1004.43	1947.21
1004.59	2058.21
1004.75	1638.17
1004.92	1593.32
1005.08	1803.44
1005.25	1902.77
1005.41	1612.57
1005.57	1723.37
1005.74	2019.91
1005.90	1796.48
1006.06	1763.51
1006.23	1642.68
1006.39	1955.40
1006.55	2199.52
1006.72	1824.54
1006.88	1590.45
1007.04	1780.30
1007.21	1829.45
1007.37	1665.82
1007.53	1624.04
1007.70	2081.97
1007.86	1959.29
1008.02	1696.33
1008.19	1624.04
1008.35	1887.20
1008.51	1764.33
1008.68	1671.35
1008.84	1568.74
1009.00	1756.95
1009.17	2033.84
1009.33	1771.49
1009.49	1730.12
1009.65	1790.54
1009.82	1908.50
1009.98	1712.92
1010.14	1551.75
1010.31	1944.34
1010.47	1941.27
1010.63	1722.96
1010.80	1710.67
1010.96	1935.13
1011.12	1863.45
1011.28	1665.20
1011.45	1629.16
1011.61	2187.64
1011.77	1774.36
1011.94	1621.99
1012.10	1575.30
1012.26	1750.40
1012.42	1821.26
1012.59	1705.75
1012.75	1684.66
1012.91	1841.12
1013.07	1972.60
1013.24	1613.59
1013.40	1646.16
1013.56	1876.14
1013.72	1862.01
1013.89	1731.97
1014.05	1722.55
1014.21	2131.53
1014.37	2164.50
1014.54	1699.40
1014.70	1611.55
1014.86	1863.45
1015.02	1733.40
1015.19	1639.40
1015.35	1622.81
1015.51	1839.69
1015.67	1818.60
1015.84	1647.18
1016.00	1663.16
1016.16	2013.56
1016.32	1967.69
1016.49	1642.68
1016.65	1603.15
1016.81	1850.75
1016.97	1925.91
1017.14	1754.90
1017.30	1652.92
1017.46	1821.26
1017.62	1913.42
1017.78	1721.11
1017.95	1633.26
1018.11	1963.59
1018.27	2150.37
1018.43	1759.21
1018.59	1731.56
1018.76	1964.21
1018.92	2213.44
1019.08	1642.06
1019.24	1633.26
1019.40	2046.13
1019.57	1889.66
1019.73	1726.03
1019.89	1662.34
1020.05	1888.43
1020.21	2110.23
1020.38	1612.57
1020.54	1817.16
1020.70	1937.17
1020.86	1920.99
1021.02	1643.29
1021.18	1644.52
1021.35	1795.66
1021.51	1939.22
1021.67	1792.79
1021.83	1660.70
1021.99	1868.36
1022.15	1913.62
1022.32	1752.86
1022.48	1707.39
1022.64	2031.58
1022.80	2099.99
1022.96	1694.49
1023.12	1594.75
1023.29	1979.16
1023.45	1926.93
1023.61	1638.58
1023.77	1828.63
1023.93	1881.47
1024.09	1767.81
1024.25	1619.33
1024.42	1591.27
1024.58	1800.98
1024.74	1922.63
1024.90	1649.02
1025.06	1723.16
1025.22	1822.08
1025.38	2052.06
1025.54	1599.46
1025.71	1709.03
1025.87	1941.47
1026.03	1950.90
1026.19	1624.04
1026.35	1793.00
1026.51	1928.37
1026.67	1891.09
1026.83	1698.99
1026.99	1761.87
1027.16	1903.59
1027.32	1840.92
1027.48	1667.87
1027.64	1637.15
1027.80	1967.07
1027.96	1859.97
1028.12	1665.20
1028.28	1644.72
1028.44	1899.49
1028.60	2077.05
1028.77	1767.19
1028.93	1684.66
1029.09	1805.69
1029.25	1757.36
1029.41	1718.04
1029.57	1751.42
1029.73	1926.52
1029.89	2079.10
1030.05	1756.75
1030.21	1747.94
1030.37	2186.82
1030.53	1943.73
1030.69	1688.55
1030.85	1592.71
1031.02	1764.73
1031.18	1889.25
1031.34	1680.15
1031.50	1734.02
1031.66	1784.60
1031.82	2075.62
1031.98	1717.02
1032.14	1621.99
1032.30	1776.41
1032.46	1987.35
1032.62	1786.03
1032.78	1604.17
1032.94	1802.42
1033.10	1838.67
1033.26	1691.83
1033.42	1740.77
1033.58	2159.38
1033.74	1811.84
1033.90	1633.66
1034.06	1836.41
1034.22	2157.54
1034.38	2011.92
1034.54	1696.33
1034.70	1708.83
1034.86	2070.91
>>>>>End Processed Spectral Data<<<<<
