SpectraSuite Data File
++++++++++++++++++++++++++++++++++++
Date: Thu Mar 30 14:33:19 PDT 2017
User: UCSD _CER
Dark Spectrum Present: No
Reference Spectrum Present: No
Number of Sampled Component Spectra: 1
Spectrometers: USB4C00073
Integration Time (usec): 380000 (USB4C00073)
Spectra Averaged: 10 (USB4C00073)
Boxcar Smoothing: 0 (USB4C00073)
Correct for Electrical Dark: No (USB4C00073)
Strobe/Lamp Enabled: No (USB4C00073)
Correct for Detector Non-linearity: No (USB4C00073)
Correct for Stray Light: No (USB4C00073)
Number of Pixels in Processed Spectrum: 3648
>>>>>Begin Processed Spectral Data<<<<<
345.37	1248.44
345.58	1248.44
345.80	1248.44
346.01	1247.21
346.22	1240.05
346.43	2058.21
346.65	1915.87
346.86	2480.91
347.07	2405.13
347.28	1856.28
347.50	1828.22
347.71	2191.12
347.92	1891.09
348.13	1811.84
348.35	1796.89
348.56	2204.02
348.77	1929.80
348.98	1857.51
349.20	1683.02
349.41	2158.15
349.62	2370.32
349.83	1935.13
350.05	1836.21
350.26	2222.66
350.47	2399.20
350.68	1841.74
350.90	1744.46
351.11	2406.98
351.32	2390.18
351.53	1894.37
351.75	1783.78
351.96	2220.00
352.17	2168.39
352.38	1901.54
352.60	1934.31
352.81	2183.95
353.02	2465.34
353.23	1844.40
353.44	1828.02
353.66	2038.14
353.87	2096.30
354.08	1899.49
354.29	1854.64
354.51	2044.69
354.72	2093.02
354.93	1799.14
355.14	1820.23
355.35	1874.30
355.57	2304.17
355.78	1828.02
355.99	1944.96
356.20	2185.59
356.42	2076.85
356.63	1926.11
356.84	1831.91
357.05	2297.62
357.26	2511.83
357.48	1963.59
357.69	1913.01
357.90	2214.06
358.11	2084.22
358.32	1822.08
358.54	1900.11
358.75	2087.29
358.96	2261.98
359.17	1842.35
359.38	1877.37
359.60	2259.32
359.81	2144.02
360.02	1882.49
360.23	1797.91
360.44	2009.47
360.66	2328.95
360.87	1816.14
361.08	1800.98
361.29	2219.18
361.50	2160.61
361.72	1822.28
361.93	1932.67
362.14	2164.09
362.35	1936.76
362.56	2017.04
362.77	1719.88
362.99	2258.50
363.20	2136.85
363.41	1923.45
363.62	1691.83
363.83	2243.14
364.05	2312.98
364.26	1780.09
364.47	1815.32
364.68	2360.69
364.89	2005.78
365.10	1760.23
365.32	1863.45
365.53	1990.42
365.74	2042.03
365.95	1828.63
366.16	1712.92
366.37	2139.31
366.59	2101.42
366.80	1864.27
367.01	1740.36
367.22	2529.04
367.43	2663.38
367.64	1920.99
367.86	1870.21
368.07	2234.13
368.28	2380.56
368.49	1747.74
368.70	1893.76
368.91	2085.04
369.12	2152.62
369.34	1760.84
369.55	1743.23
369.76	2142.79
369.97	2072.13
370.18	1738.11
370.39	1821.67
370.60	1917.72
370.82	1985.10
371.03	1855.66
371.24	1814.71
371.45	2241.91
371.66	2256.04
371.87	1867.75
372.08	1866.72
372.30	1998.00
372.51	2302.12
372.72	2004.14
372.93	1825.35
373.14	2435.24
373.35	2029.95
373.56	1782.76
373.78	1857.71
373.99	2303.15
374.20	2661.13
374.41	1835.80
374.62	1829.66
374.83	2431.35
375.04	2089.13
375.25	1887.61
375.47	1885.77
375.68	2113.09
375.89	2286.97
376.10	1897.65
376.31	1912.80
376.52	2236.79
376.73	2198.90
376.94	1889.66
377.15	1795.04
377.37	2177.20
377.58	2063.74
377.79	1768.83
378.00	1798.73
378.21	2203.41
378.42	2265.26
378.63	1904.61
378.84	1937.58
379.05	2344.51
379.27	2193.99
379.48	1970.35
379.69	1815.32
379.90	2378.31
380.11	1831.50
380.32	1857.51
380.53	1997.79
380.74	2407.80
380.95	2172.49
381.16	1892.53
381.37	1910.75
381.59	2417.22
381.80	2318.30
382.01	1819.01
382.22	1760.43
382.43	2232.49
382.64	2143.40
382.85	1797.50
383.06	1945.16
383.27	2274.27
383.48	2090.98
383.69	1876.76
383.91	1779.68
384.12	2262.39
384.33	2243.34
384.54	1907.07
384.75	1825.56
384.96	2726.46
385.17	2325.47
385.38	1888.02
385.59	1846.86
385.80	2288.81
386.01	2386.50
386.22	1948.85
386.43	1864.06
386.64	2564.67
386.86	2128.25
387.07	1966.05
387.28	1778.87
387.49	2086.68
387.70	2368.27
387.91	2009.67
388.12	1863.65
388.33	2254.61
388.54	2068.45
388.75	1796.48
388.96	1927.75
389.17	2065.58
389.38	2117.60
389.59	1911.98
389.80	1951.30
390.01	2161.43
390.22	2077.46
390.43	1984.69
390.64	1743.03
390.86	2263.21
391.07	2343.49
391.28	1833.55
391.49	1922.84
391.70	1922.02
391.91	2025.24
392.12	1849.73
392.33	1929.60
392.54	2163.88
392.75	2116.78
392.96	1962.77
393.17	1829.25
393.38	2563.85
393.59	2367.66
393.80	1792.59
394.01	1868.36
394.22	2141.15
394.43	2462.89
394.64	1760.43
394.85	1934.72
395.06	2137.67
395.27	2184.36
395.48	1865.70
395.69	1739.95
395.90	2110.64
396.11	2124.56
396.32	1854.85
396.53	1940.04
396.74	2111.87
396.95	2309.29
397.16	1844.40
397.37	1693.87
397.58	2307.86
397.79	2129.89
398.00	1906.86
398.21	1879.22
398.42	2208.53
398.63	2543.78
398.84	1847.06
399.05	1811.02
399.26	2358.44
399.47	2199.72
399.68	1722.14
399.89	1795.04
400.10	1943.52
400.31	2080.33
400.52	1934.10
400.73	1836.82
400.94	1891.71
401.15	2211.81
401.36	1884.34
401.57	1914.65
401.78	2359.26
401.99	2314.41
402.20	1800.78
402.41	1997.18
402.62	2410.05
402.83	2128.86
403.04	1815.93
403.25	2051.86
403.46	2222.87
403.67	2361.72
403.88	1855.46
404.09	1806.72
404.30	2002.71
404.51	2020.94
404.72	1794.23
404.93	2016.63
405.14	2009.47
405.35	2141.56
405.56	1895.80
405.77	1794.43
405.98	2192.76
406.19	2143.61
406.40	1792.79
406.61	1847.06
406.82	2036.91
407.03	2573.89
407.24	1834.78
407.45	1902.56
407.66	2217.75
407.87	2312.77
408.08	1943.11
408.29	1964.41
408.49	2280.00
408.70	2116.78
408.91	1830.68
409.12	2007.62
409.33	1944.55
409.54	2359.67
409.75	1808.36
409.96	1862.83
410.17	2294.13
410.38	2089.75
410.59	1841.94
410.80	1980.39
411.01	2159.99
411.22	2112.48
411.43	1937.17
411.64	1833.55
411.85	2003.53
412.06	1957.04
412.27	1674.21
412.47	1805.08
412.68	2143.40
412.89	2207.71
413.10	1869.80
413.31	1776.82
413.52	2482.96
413.73	2485.21
413.94	1832.93
414.15	1999.23
414.36	2054.93
414.57	1983.05
414.78	1766.17
414.99	1788.70
415.19	2221.02
415.40	2164.09
415.61	1963.39
415.82	1901.54
416.03	2249.28
416.24	2197.06
416.45	1864.06
416.66	1760.84
416.87	1931.85
417.08	2245.39
417.29	1787.06
417.50	1885.16
417.70	2237.82
417.91	2209.96
418.12	1905.63
418.33	1858.94
418.54	2214.06
418.75	2314.41
418.96	1974.45
419.17	1931.85
419.38	2349.43
419.59	2232.90
419.79	1927.55
420.00	1884.95
420.21	2671.78
420.42	2142.38
420.63	1815.73
420.84	1919.36
421.05	2121.70
421.26	2180.47
421.47	1793.41
421.67	2227.78
421.88	1993.29
422.09	1962.77
422.30	2096.71
422.51	1877.58
422.72	2496.27
422.93	2303.15
423.14	1913.62
423.35	1765.55
423.55	1899.08
423.76	1996.36
423.97	1884.75
424.18	1745.28
424.39	2092.61
424.60	2285.53
424.81	1861.60
425.02	1954.38
425.22	2091.59
425.43	2089.54
425.64	2026.47
425.85	1886.79
426.06	2487.26
426.27	2304.99
426.48	1965.23
426.68	1950.08
426.89	2316.46
427.10	2478.25
427.31	1889.87
427.52	1808.15
427.73	2269.35
427.94	2232.90
428.14	2041.21
428.35	1941.88
428.56	2406.98
428.77	2320.35
428.98	1907.48
429.19	1896.83
429.40	2066.20
429.60	2100.40
429.81	2010.08
430.02	1913.42
430.23	2125.79
430.44	2303.15
430.65	1838.26
430.85	1887.82
431.06	2209.55
431.27	1870.21
431.48	1885.36
431.69	1921.20
431.90	2162.86
432.10	2177.40
432.31	1929.19
432.52	1849.93
432.73	2560.58
432.94	2387.93
433.15	2022.16
433.35	1818.19
433.56	2378.72
433.77	2145.45
433.98	2085.65
434.19	1978.54
434.40	2291.27
434.60	2294.75
434.81	2096.92
435.02	2043.26
435.23	2209.96
435.44	2107.97
435.64	1820.23
435.85	1819.83
436.06	2109.20
436.27	2073.16
436.48	1803.65
436.68	1827.20
436.89	2459.41
437.10	2309.90
437.31	1979.16
437.52	2073.36
437.73	2225.94
437.93	2228.39
438.14	1954.99
438.35	1769.65
438.56	2073.57
438.77	2125.18
438.97	2056.37
439.18	1863.04
439.39	2342.06
439.60	1954.58
439.80	1846.45
440.01	1892.12
440.22	2076.03
440.43	2260.55
440.64	1840.30
440.84	1931.44
441.05	1945.57
441.26	2640.45
441.47	1944.14
441.68	1921.81
441.88	2217.34
442.09	2229.83
442.30	2178.42
442.51	2177.81
442.71	2244.16
442.92	2294.13
443.13	1945.57
443.34	1910.75
443.55	2003.53
443.75	2276.93
443.96	1867.75
444.17	1814.91
444.38	2357.42
444.58	1995.54
444.79	1989.81
445.00	1935.54
445.21	2115.76
445.41	2095.89
445.62	1745.07
445.83	2000.46
446.04	2161.43
446.24	1926.52
446.45	1724.59
446.66	1903.59
446.87	2191.12
447.07	2080.12
447.28	2125.79
447.49	1890.07
447.70	2318.30
447.90	2346.56
448.11	1938.61
448.32	2046.94
448.53	2400.42
448.73	2388.75
448.94	1878.81
449.15	2053.29
449.36	2161.84
449.56	2201.98
449.77	1879.01
449.98	1784.40
450.19	2031.58
450.39	2074.18
450.60	1930.42
450.81	1978.95
451.02	2132.75
451.22	2409.44
451.43	1839.28
451.64	1866.52
451.84	2082.37
452.05	2331.20
452.26	1923.86
452.47	1937.38
452.67	2043.67
452.88	2392.03
453.09	1819.42
453.30	1809.99
453.50	2311.95
453.71	2489.31
453.92	1998.41
454.12	2123.74
454.33	2150.16
454.54	2223.89
454.75	1924.27
454.95	1900.72
455.16	2207.51
455.37	2239.25
455.57	2008.24
455.78	1918.95
455.99	2137.67
456.19	2166.75
456.40	1847.47
456.61	1941.06
456.82	2139.72
457.02	2320.35
457.23	2044.49
457.44	2179.04
457.64	2172.49
457.85	2349.43
458.06	2040.60
458.26	2092.20
458.47	2153.44
458.68	2317.28
458.89	1874.71
459.09	2050.63
459.30	2514.70
459.51	2187.23
459.71	1782.96
459.92	1834.78
460.13	2306.01
460.33	2564.06
460.54	1952.74
460.75	1967.89
460.95	2006.19
461.16	2232.08
461.37	1918.95
461.57	1922.02
461.78	2152.21
461.99	1936.56
462.19	2156.31
462.40	1844.20
462.61	2774.59
462.81	2336.32
463.02	1841.53
463.23	1883.72
463.43	2299.46
463.64	2045.51
463.85	3199.54
464.05	1887.00
464.26	2724.00
464.47	2357.21
464.67	2097.12
464.88	2045.31
465.09	2079.92
465.29	2295.77
465.50	2139.31
465.71	2044.08
465.91	2132.96
466.12	2175.56
466.33	2014.18
466.53	1880.24
466.74	2396.74
466.94	2102.65
467.15	1952.94
467.36	2119.44
467.56	1993.29
467.77	2180.88
467.98	1934.31
468.18	1928.16
468.39	2070.50
468.60	2473.13
468.80	1927.34
469.01	1837.44
469.21	2212.22
469.42	2363.56
469.63	1911.98
469.83	1872.05
470.04	2249.28
470.25	2409.64
470.45	2025.44
470.66	1910.55
470.86	2207.30
471.07	2067.42
471.28	1989.81
471.48	2015.61
471.69	2155.28
471.90	2904.02
472.10	2065.38
472.31	2049.81
472.51	2202.18
472.72	2193.37
472.93	1973.63
473.13	2097.12
473.34	2284.92
473.54	2192.96
473.75	2001.68
473.96	2150.98
474.16	2121.70
474.37	2251.13
474.57	2017.04
474.78	1866.72
474.99	2222.46
475.19	2155.28
475.40	1935.54
475.60	1906.86
475.81	2535.39
476.02	2259.73
476.22	2158.97
476.43	2213.04
476.63	2220.41
476.84	2381.79
477.05	1843.79
477.25	1908.30
477.46	2695.54
477.66	2165.32
477.87	1883.11
478.08	1899.49
478.28	2320.96
478.49	2123.95
478.69	1871.84
478.90	1913.62
479.10	2230.65
479.31	2459.00
479.52	1990.83
479.72	2042.23
479.93	2257.89
480.13	2111.66
480.34	1925.09
480.54	2048.58
480.75	2034.86
480.96	2375.03
481.16	1892.53
481.37	2015.82
481.57	2284.30
481.78	2224.30
481.98	2141.36
482.19	2058.62
482.40	2487.46
482.60	2257.89
482.81	2042.85
483.01	1824.33
483.22	2311.13
483.42	2262.80
483.63	2014.38
483.83	1957.24
484.04	2079.10
484.24	2312.36
484.45	2101.01
484.66	1887.41
484.86	2241.71
485.07	2039.78
485.27	1997.79
485.48	1884.34
485.68	2392.64
485.89	2015.20
486.09	2024.21
486.30	1923.04
486.50	2188.46
486.71	2125.79
486.91	2032.40
487.12	2186.21
487.33	2782.98
487.53	2838.08
487.74	2443.43
487.94	2366.84
488.15	2407.18
488.35	2379.53
488.56	2027.49
488.76	1964.82
488.97	2140.74
489.17	2298.03
489.38	2056.37
489.58	1966.25
489.79	2249.49
489.99	2213.44
490.20	1951.51
490.40	2043.26
490.61	2231.26
490.81	2057.18
491.02	2008.03
491.22	1991.24
491.43	2279.80
491.63	2139.51
491.84	2100.60
492.04	1872.46
492.25	2242.32
492.45	2133.37
492.66	1942.70
492.86	1850.75
493.07	2089.54
493.27	2538.66
493.48	1802.01
493.68	1887.61
493.89	2116.17
494.09	2265.87
494.30	1920.59
494.50	2181.91
494.71	2244.16
494.91	1914.85
495.12	1930.62
495.32	1998.61
495.53	2162.86
495.73	1933.69
495.94	2130.30
496.14	1953.56
496.35	2645.77
496.55	2250.31
496.76	1969.74
496.96	2009.88
497.17	2181.91
497.37	2242.12
497.58	1948.64
497.78	1862.63
497.98	2099.37
498.19	2110.64
498.39	1935.54
498.60	1985.71
498.80	1836.21
499.01	2239.86
499.21	1857.10
499.42	1997.79
499.62	2079.51
499.83	2504.46
500.03	1843.38
500.24	2051.86
500.44	2400.42
500.64	2335.09
500.85	1924.48
501.05	2046.33
501.26	1924.27
501.46	2363.77
501.67	1885.16
501.87	1867.54
502.08	1988.99
502.28	2089.13
502.48	2010.29
502.69	2033.43
502.89	1905.43
503.10	2014.38
503.30	1993.70
503.51	1990.83
503.71	1891.30
503.92	2237.20
504.12	1998.41
504.32	1898.88
504.53	2251.54
504.73	2230.03
504.94	2051.25
505.14	2186.00
505.35	2215.29
505.55	2209.14
505.75	1958.06
505.96	2135.01
506.16	2504.05
506.37	2037.32
506.57	1925.71
506.78	2035.89
506.98	2336.53
507.18	1914.44
507.39	1862.63
507.59	1926.32
507.80	2019.50
508.00	2153.23
508.20	2163.68
508.41	1944.34
508.61	2349.02
508.82	2292.29
509.02	2092.82
509.22	1879.22
509.43	1995.95
509.63	2013.36
509.84	1959.09
510.04	1794.02
510.24	2390.39
510.45	2273.45
510.65	1869.39
510.86	2010.08
511.06	1969.33
511.26	2263.42
511.47	2106.75
511.67	1895.80
511.88	2230.85
512.08	2302.33
512.28	1851.16
512.49	2023.60
512.69	2193.37
512.90	2187.44
513.10	1944.34
513.30	2017.45
513.51	2213.65
513.71	2424.79
513.91	2016.02
514.12	2020.73
514.32	2309.70
514.53	2027.49
514.73	2047.15
514.93	1935.74
515.14	2140.54
515.34	2321.99
515.54	1902.15
515.75	2018.89
515.95	2219.59
516.15	2378.10
516.36	1978.13
516.56	2004.55
516.77	1800.57
516.97	2214.47
517.17	1951.92
517.38	2055.96
517.58	2392.85
517.78	2050.84
517.99	2027.90
518.19	1949.05
518.39	2309.90
518.60	2020.73
518.80	1849.73
519.00	1992.88
519.21	2119.65
519.41	2451.21
519.61	1873.69
519.82	2052.27
520.02	2165.52
520.22	2149.55
520.43	1932.05
520.63	1960.11
520.83	2013.56
521.04	1874.71
521.24	2039.57
521.44	1965.44
521.65	1986.12
521.85	2224.91
522.05	1909.53
522.26	1901.54
522.46	2494.02
522.66	2273.86
522.87	1964.82
523.07	2137.46
523.27	2056.37
523.48	2360.69
523.68	1985.92
523.88	2028.51
524.09	2354.34
524.29	2178.83
524.49	1796.07
524.70	2025.03
524.90	2375.64
525.10	2242.32
525.31	1850.13
525.51	1844.81
525.71	2262.19
525.91	2217.54
526.12	1952.74
526.32	1838.26
526.52	2048.58
526.73	2043.67
526.93	2025.03
527.13	1858.53
527.34	2134.39
527.54	2113.50
527.74	1981.61
527.94	1863.45
528.15	1952.33
528.35	2175.15
528.55	2059.64
528.76	2017.86
528.96	1859.15
529.16	2304.37
529.36	2075.00
529.57	1885.56
529.77	2356.19
529.97	1951.10
530.18	2047.56
530.38	1942.09
530.58	2227.78
530.78	2205.66
530.99	1945.16
531.19	2025.24
531.39	2043.67
531.60	2147.70
531.80	2006.60
532.00	2121.29
532.20	2169.21
532.41	2015.41
532.61	1926.52
532.81	1894.58
533.01	2075.82
533.22	2231.88
533.42	2101.63
533.62	1826.99
533.82	2359.67
534.03	2111.46
534.23	2067.83
534.43	1923.66
534.63	2060.26
534.84	2180.06
535.04	2080.12
535.24	1985.10
535.44	2609.52
535.65	2062.10
535.85	1944.34
536.05	1885.77
536.25	2152.01
536.46	1983.05
536.66	2109.41
536.86	2007.21
537.06	2248.26
537.27	2331.61
537.47	2012.95
537.67	1937.79
537.87	2388.55
538.08	2126.41
538.28	1889.25
538.48	1814.71
538.68	2078.48
538.88	2270.38
539.09	1819.01
539.29	1950.69
539.49	2309.08
539.69	2202.80
539.90	2060.05
540.10	1905.02
540.30	2363.36
540.50	2044.69
540.70	1849.73
540.91	1910.55
541.11	2252.36
541.31	2404.72
541.51	2012.33
541.72	2030.77
541.92	2189.48
542.12	2008.44
542.32	1983.46
542.52	1924.07
542.73	2013.97
542.93	2219.18
543.13	1939.43
543.33	2077.25
543.53	2257.48
543.74	2235.97
543.94	1921.40
544.14	2053.70
544.34	2313.18
544.54	2085.04
544.75	2039.57
544.95	2124.15
545.15	2231.06
545.35	2414.96
545.55	2074.59
545.75	1994.93
545.96	2531.29
546.16	2041.21
546.36	1992.06
546.56	2001.07
546.76	2298.84
546.97	2453.06
547.17	2003.94
547.37	2074.39
547.57	2066.81
547.77	2278.16
547.97	2047.15
548.18	2056.16
548.38	2102.04
548.58	2380.56
548.78	1899.70
548.98	1954.17
549.18	2223.07
549.39	2344.51
549.59	2026.26
549.79	2010.08
549.99	2348.20
550.19	2283.08
550.39	2123.33
550.60	2003.32
550.80	2179.65
551.00	2267.10
551.20	1960.32
551.40	1973.42
551.60	2235.77
551.80	2209.96
552.01	2046.33
552.21	1990.42
552.41	2164.91
552.61	2471.90
552.81	2080.33
553.01	1905.63
553.21	2209.55
553.42	1984.89
553.62	1970.76
553.82	1875.73
554.02	2441.79
554.22	2289.83
554.42	1893.14
554.62	2087.70
554.83	2392.23
555.03	2359.26
555.23	1973.63
555.43	2207.92
555.63	2143.40
555.83	2120.67
556.03	2041.82
556.23	1832.93
556.44	2145.45
556.64	2341.03
556.84	1693.87
557.04	1973.42
557.24	2147.70
557.44	2138.69
557.64	2056.98
557.84	1910.96
558.04	2072.13
558.25	2261.57
558.45	1889.87
558.65	2011.72
558.85	2155.90
559.05	1836.41
559.25	1999.64
559.45	2016.84
559.65	2488.28
559.85	2961.98
560.05	1987.96
560.26	2048.17
560.46	2082.37
560.66	2034.04
560.86	1952.74
561.06	1906.25
561.26	2376.05
561.46	2250.72
561.66	1990.83
561.86	2075.00
562.06	1991.65
562.26	2104.29
562.47	2017.25
562.67	1880.65
562.87	2258.50
563.07	1899.49
563.27	2026.26
563.47	2005.78
563.67	2069.88
563.87	2233.92
564.07	1912.19
564.27	1954.58
564.47	2138.90
564.67	2185.39
564.87	1941.06
565.08	2026.06
565.28	2008.65
565.48	2233.31
565.68	2030.15
565.88	2120.26
566.08	2482.34
566.28	2131.94
566.48	1892.12
566.68	2012.54
566.88	2095.28
567.08	2284.51
567.28	2034.66
567.48	1985.51
567.68	2218.97
567.88	1905.23
568.08	1992.06
568.28	2150.57
568.48	2100.19
568.68	2351.48
568.89	2042.44
569.09	1873.48
569.29	2287.38
569.49	2290.65
569.69	1924.68
569.89	1928.78
570.09	1825.76
570.29	2014.79
570.49	1886.18
570.69	1964.62
570.89	2296.18
571.09	2511.42
571.29	1893.96
571.49	2120.26
571.69	2205.25
571.89	2233.31
572.09	1981.61
572.29	2052.47
572.49	2293.32
572.69	2247.24
572.89	2033.63
573.09	1700.43
573.29	2110.43
573.49	2168.80
573.69	1944.14
573.89	2018.89
574.09	2041.62
574.29	2354.75
574.49	2003.94
574.69	1887.82
574.89	1934.31
575.09	1975.88
575.29	1852.59
575.49	1967.89
575.69	2190.92
575.89	1957.86
576.09	1991.24
576.29	2014.79
576.49	1943.93
576.69	2094.05
576.89	1952.94
577.09	2015.00
577.29	1871.64
577.49	2474.77
577.69	1953.35
577.89	2122.72
578.09	2151.80
578.29	1881.88
578.49	2031.38
578.69	1881.06
578.89	2315.43
579.09	2156.72
579.29	1911.57
579.49	2096.92
579.69	2072.13
579.89	2433.19
580.09	1799.55
580.29	1837.23
580.49	2028.72
580.69	1955.81
580.89	1914.03
581.09	1962.57
581.29	2052.47
581.49	2115.96
581.69	1907.89
581.89	1926.11
582.09	1976.70
582.28	2015.41
582.48	2076.64
582.68	2107.36
582.88	2377.69
583.08	2085.45
583.28	1994.31
583.48	1999.64
583.68	2008.24
583.88	2147.09
584.08	2006.19
584.28	2032.61
584.48	2472.10
584.68	2217.54
584.88	1951.71
585.08	2184.16
585.28	2268.94
585.48	2334.68
585.68	2063.12
585.87	2112.07
586.07	2234.54
586.27	2134.60
586.47	2057.59
586.67	1976.49
586.87	2150.16
587.07	2074.39
587.27	1899.70
587.47	2050.43
587.67	2421.72
587.87	2594.57
588.07	2022.78
588.27	1939.22
588.46	2275.50
588.66	2288.40
588.86	1961.34
589.06	2024.01
589.26	2269.15
589.46	2222.66
589.66	1925.71
589.86	1883.31
590.06	2098.14
590.26	2199.72
590.46	1934.72
590.66	2038.75
590.85	2002.30
591.05	2139.72
591.25	1880.24
591.45	1992.88
591.65	2244.98
591.85	2122.11
592.05	1908.09
592.25	2041.42
592.45	2289.01
592.64	2052.27
592.84	2007.21
593.04	1900.31
593.24	2566.92
593.44	2065.38
593.64	1993.90
593.84	2041.42
594.04	2055.96
594.24	2396.53
594.43	1977.93
594.63	2002.30
594.83	2326.08
595.03	2295.57
595.23	1912.80
595.43	1871.43
595.63	1993.70
595.83	2302.12
596.02	1788.90
596.22	1995.95
596.42	2175.76
596.62	2140.54
596.82	1956.83
597.02	2008.85
597.22	2351.68
597.41	2165.11
597.61	1948.85
597.81	2097.12
598.01	2238.02
598.21	2042.44
598.41	1877.58
598.61	1885.56
598.80	2133.16
599.00	2166.96
599.20	2130.09
599.40	1991.85
599.60	2065.17
599.80	2263.42
599.99	2095.69
600.19	1945.98
600.39	2141.77
600.59	2205.87
600.79	2042.23
600.99	2014.18
601.19	2438.11
601.38	2487.87
601.58	2063.12
601.78	1757.77
601.98	2203.61
602.18	2178.42
602.37	2193.17
602.57	1961.54
602.77	2208.73
602.97	2133.37
603.17	2141.15
603.37	2057.18
603.56	2312.77
603.76	2237.82
603.96	2006.39
604.16	1997.38
604.36	2392.03
604.56	2275.70
604.75	1911.98
604.95	2016.84
605.15	2362.13
605.35	2266.69
605.55	1931.23
605.74	1903.79
605.94	2316.05
606.14	2125.79
606.34	1992.88
606.54	2065.38
606.73	2060.26
606.93	2253.99
607.13	1947.82
607.33	2077.05
607.53	2430.12
607.72	2324.24
607.92	2102.04
608.12	2141.77
608.32	2113.09
608.51	2261.78
608.71	1907.68
608.91	2058.41
609.11	2260.96
609.31	2077.66
609.50	1974.24
609.70	2202.80
609.90	2311.75
610.10	2302.33
610.29	1973.01
610.49	1863.24
610.69	2251.33
610.89	2154.26
611.09	1973.83
611.28	2177.20
611.48	2308.68
611.68	2095.48
611.88	1972.81
612.07	1901.54
612.27	2268.74
612.47	2003.32
612.67	2014.59
612.86	2127.63
613.06	2146.27
613.26	1870.41
613.46	1939.43
613.65	2068.65
613.85	2616.48
614.05	2249.49
614.25	2082.37
614.44	1999.43
614.64	2133.57
614.84	2042.23
615.04	1901.13
615.23	1972.40
615.43	2224.09
615.63	2274.68
615.83	1910.96
616.02	1806.92
616.22	2215.49
616.42	1925.30
616.62	1855.25
616.81	2001.07
617.01	2123.13
617.21	2090.98
617.41	1857.30
617.60	1998.20
617.80	2215.08
618.00	2231.06
618.19	2088.31
618.39	1981.41
618.59	2211.19
618.79	2141.36
618.98	1843.79
619.18	1997.38
619.38	2541.12
619.57	2111.46
619.77	2013.15
619.97	1986.32
620.17	2049.81
620.36	1928.98
620.56	2150.98
620.76	1849.32
620.95	1908.91
621.15	2013.56
621.35	1887.82
621.54	1998.61
621.74	2146.27
621.94	1995.95
622.14	1841.53
622.33	1846.86
622.53	2110.84
622.73	2087.70
622.92	1830.27
623.12	1987.76
623.32	2474.56
623.51	2267.72
623.71	1859.76
623.91	2154.26
624.10	1965.64
624.30	2163.06
624.50	1831.50
624.69	1834.16
624.89	2793.22
625.09	2077.87
625.29	1760.43
625.48	1848.50
625.68	2169.00
625.88	2340.01
626.07	2038.96
626.27	1909.53
626.47	2060.26
626.66	1866.31
626.86	2019.09
627.06	1968.51
627.25	2130.50
627.45	2418.24
627.64	1983.46
627.84	2142.18
628.04	2006.39
628.23	2494.02
628.43	1860.37
628.63	1888.64
628.82	2049.40
629.02	2448.35
629.22	1995.54
629.41	2120.67
629.61	2165.73
629.81	2483.16
630.00	1921.61
630.20	1849.73
630.40	2148.93
630.59	2197.68
630.79	1945.37
630.98	1924.27
631.18	2092.41
631.38	2106.34
631.57	2091.18
631.77	1835.59
631.97	2149.55
632.16	2226.55
632.36	1976.70
632.56	2049.81
632.75	2188.66
632.95	2333.66
633.14	1890.68
633.34	2167.77
633.54	1822.49
633.73	2070.50
633.93	1945.57
634.12	1804.26
634.32	2627.13
634.52	2122.11
634.71	1826.79
634.91	2034.04
635.11	1943.11
635.30	2018.48
635.50	1987.35
635.69	1886.59
635.89	2432.17
636.09	2265.67
636.28	1867.75
636.48	1895.60
636.67	2224.09
636.87	2208.53
637.07	2049.61
637.26	1946.39
637.46	2153.03
637.65	2280.62
637.85	2027.49
638.04	1892.73
638.24	2023.80
638.44	2222.46
638.63	1999.64
638.83	1961.75
639.02	2191.74
639.22	2205.46
639.42	1935.33
639.61	1973.83
639.81	2153.85
640.00	2126.82
640.20	2096.30
640.39	1992.47
640.59	2451.83
640.79	2266.49
640.98	2007.42
641.18	1910.55
641.37	2037.52
641.57	1971.99
641.76	2022.37
641.96	1747.74
642.15	2139.92
642.35	2026.47
642.55	1987.96
642.74	1861.81
642.94	2227.58
643.13	2368.68
643.33	1935.33
643.52	1912.19
643.72	2063.33
643.91	2145.25
644.11	1874.10
644.31	1901.54
644.50	2029.74
644.70	2349.02
644.89	1986.73
645.09	2079.71
645.28	2109.82
645.48	2217.95
645.67	1902.36
645.87	1821.26
646.06	2088.31
646.26	2181.91
646.45	1759.00
646.65	1758.18
646.84	2507.74
647.04	2057.39
647.24	1854.64
647.43	1964.21
647.63	2184.36
647.82	2410.25
648.02	1904.20
648.21	1953.35
648.41	2392.44
648.60	2028.31
648.80	2108.18
648.99	1974.65
649.19	2044.28
649.38	1872.25
649.58	1976.09
649.77	2052.47
649.97	2312.36
650.16	2216.72
650.36	1736.68
650.55	2121.90
650.75	2182.93
650.94	2421.93
651.14	1990.22
651.33	2054.32
651.53	2419.88
651.72	2029.13
651.92	1972.19
652.11	1795.45
652.31	2222.66
652.50	2183.75
652.70	2002.91
652.89	1843.79
653.09	2400.22
653.28	2053.70
653.48	1779.07
653.67	1810.81
653.87	2667.48
654.06	2169.00
654.25	2200.34
654.45	1938.61
654.64	2071.73
654.84	2094.25
655.03	1774.36
655.23	2097.12
655.42	2268.13
655.62	2466.98
655.81	2103.47
656.01	1947.00
656.20	2311.54
656.40	2410.66
656.59	2018.27
656.79	2123.54
656.98	2201.16
657.17	2287.38
657.37	2001.89
657.56	1969.74
657.76	2202.39
657.95	2337.55
658.15	1642.27
658.34	2018.27
658.54	2103.26
658.73	1918.74
658.92	1944.14
659.12	1998.00
659.31	2196.65
659.51	1949.26
659.70	2018.27
659.90	1885.97
660.09	2251.13
660.29	2081.97
660.48	1887.82
660.67	2118.83
660.87	2011.92
661.06	2178.01
661.26	2053.91
661.45	2105.52
661.65	2196.45
661.84	2042.03
662.03	1906.45
662.23	1930.21
662.42	2490.53
662.62	1940.66
662.81	1837.23
663.00	1934.31
663.20	2154.67
663.39	2193.37
663.59	2067.22
663.78	1944.96
663.97	2086.27
664.17	2316.46
664.36	1871.84
664.56	1911.57
664.75	2284.10
664.94	2260.14
665.14	2016.02
665.33	1994.52
665.53	2115.35
665.72	2076.64
665.91	2039.78
666.11	1997.79
666.30	2158.56
666.50	2098.14
666.69	1998.82
666.88	1924.07
667.08	2137.87
667.27	2060.26
667.47	1944.55
667.66	1942.09
667.85	2272.84
668.05	2147.09
668.24	1887.82
668.43	2141.77
668.63	2061.69
668.82	2312.36
669.02	2064.97
669.21	1935.94
669.40	1932.26
669.60	2443.23
669.79	1824.33
669.98	2571.02
670.18	1960.11
670.37	1917.92
670.56	1960.93
670.76	2036.09
670.95	2082.78
671.15	2274.06
671.34	2004.76
671.53	1976.29
671.73	2021.14
671.92	2006.80
672.11	1864.06
672.31	1937.99
672.50	2189.89
672.69	1898.88
672.89	1735.24
673.08	1952.12
673.27	2273.86
673.47	2164.91
673.66	2003.12
673.85	1860.99
674.05	2121.08
674.24	2086.47
674.43	1826.38
674.63	2010.08
674.82	2471.90
675.01	1747.53
675.21	2055.55
675.40	1906.86
675.59	2010.90
675.79	2380.35
675.98	1932.05
676.17	2101.42
676.37	2151.39
676.56	2011.51
676.75	1949.87
676.95	1973.63
677.14	2073.98
677.33	2276.52
677.52	1832.52
677.72	1915.26
677.91	2178.42
678.10	1902.97
678.30	1867.75
678.49	1888.43
678.68	2477.43
678.88	1834.57
679.07	2127.02
679.26	1912.19
679.45	2436.06
679.65	2344.72
679.84	1808.97
680.03	1812.86
680.23	2095.48
680.42	2562.21
680.61	1842.35
680.81	1904.41
681.00	2136.24
681.19	2205.25
681.38	2069.68
681.58	2020.94
681.77	2064.56
681.96	2241.30
682.15	1863.65
682.35	2038.96
682.54	2176.79
682.73	1919.36
682.93	1857.51
683.12	1866.31
683.31	2222.46
683.50	2636.15
683.70	1860.37
683.89	1985.30
684.08	1945.37
684.27	2302.74
684.47	1807.95
684.66	1957.24
684.85	2412.30
685.04	2331.41
685.24	1870.61
685.43	1922.02
685.62	1831.09
685.81	2187.03
686.01	2036.30
686.20	1845.42
686.39	1891.30
686.58	2445.07
686.78	1959.70
686.97	1956.22
687.16	2249.08
687.35	2174.33
687.55	1960.52
687.74	1978.54
687.93	1894.17
688.12	2030.77
688.32	1958.06
688.51	1787.06
688.70	2165.52
688.89	1946.80
689.08	1795.86
689.28	1889.87
689.47	2119.85
689.66	2133.16
689.85	2048.79
690.05	1887.41
690.24	1993.29
690.43	2172.08
690.62	1966.25
690.81	1919.36
691.01	2147.09
691.20	2055.14
691.39	1808.97
691.58	2005.37
691.77	2412.51
691.97	2109.82
692.16	2026.06
692.35	1948.64
692.54	2003.94
692.73	2193.58
692.93	1964.82
693.12	2000.25
693.31	2166.96
693.50	2118.83
693.69	2023.39
693.89	1906.25
694.08	2327.31
694.27	2343.29
694.46	1918.95
694.65	1960.73
694.85	2178.22
695.04	2177.61
695.23	1906.45
695.42	2112.89
695.61	2246.21
695.80	2383.84
696.00	2339.60
696.19	2376.46
696.38	2172.28
696.57	2323.42
696.76	2173.10
696.95	2035.48
697.15	2449.37
697.34	2427.87
697.53	1981.41
697.72	2098.55
697.91	2071.11
698.10	2375.44
698.30	1937.79
698.49	1944.75
698.68	2186.62
698.87	2054.93
699.06	1907.68
699.25	1968.92
699.45	2291.06
699.64	2165.11
699.83	2158.97
700.02	1928.57
700.21	2192.56
700.40	2014.38
700.59	1935.54
700.79	1981.61
700.98	2212.63
701.17	2010.70
701.36	1914.65
701.55	1913.83
701.74	2326.29
701.93	1892.53
702.12	1897.65
702.32	1829.86
702.51	2240.07
702.70	2187.23
702.89	1956.42
703.08	1927.55
703.27	2275.29
703.46	2189.89
703.65	1869.18
703.85	1842.15
704.04	1993.29
704.23	2307.24
704.42	1873.28
704.61	1897.85
704.80	2395.71
704.99	1973.63
705.18	2031.58
705.37	1913.21
705.57	2182.93
705.76	2369.91
705.95	2017.66
706.14	2340.62
706.33	2554.02
706.52	2776.02
706.71	2206.28
706.90	2059.03
707.09	2304.37
707.28	2249.28
707.47	1927.34
707.67	2092.61
707.86	2007.83
708.05	2319.53
708.24	1934.31
708.43	2003.12
708.62	2070.70
708.81	2002.91
709.00	1904.61
709.19	1888.64
709.38	2277.34
709.57	1935.94
709.76	1970.76
709.96	1863.65
710.15	2345.54
710.34	2093.64
710.53	2057.39
710.72	1927.96
710.91	2329.56
711.10	2201.98
711.29	2045.92
711.48	1887.61
711.67	1932.87
711.86	2164.91
712.05	1798.32
712.24	1819.21
712.43	2199.93
712.62	2348.82
712.81	1946.59
713.00	2149.75
713.19	1905.23
713.39	2203.20
713.58	1823.72
713.77	2016.63
713.96	2190.30
714.15	2066.81
714.34	1911.37
714.53	1772.93
714.72	2436.26
714.91	1928.57
715.10	1984.28
715.29	1823.72
715.48	2592.32
715.67	2214.06
715.86	1973.63
716.05	1927.75
716.24	2078.69
716.43	2020.32
716.62	1834.16
716.81	1809.99
717.00	2052.27
717.19	2382.20
717.38	1942.29
717.57	1929.19
717.76	1875.32
717.95	2295.57
718.14	1971.99
718.33	1992.26
718.52	1855.66
718.71	1854.03
718.90	1860.58
719.09	1877.17
719.28	2106.54
719.47	2261.37
719.66	2013.36
719.85	2037.32
720.04	2041.62
720.23	2084.63
720.42	1866.93
720.61	2014.59
720.80	1865.29
720.99	2126.41
721.18	1915.87
721.37	1840.10
721.56	1995.13
721.75	2244.78
721.94	1830.27
722.13	1902.36
722.32	2044.08
722.51	2239.04
722.70	1971.78
722.89	2043.05
723.08	2119.03
723.27	2251.95
723.46	2031.79
723.65	1947.41
723.84	2018.48
724.03	2334.68
724.22	1795.45
724.41	1930.62
724.60	2033.22
724.79	2231.06
724.98	1997.59
725.16	1930.82
725.35	2223.27
725.54	1935.94
725.73	1929.39
725.92	1978.54
726.11	2041.82
726.30	2207.10
726.49	1872.05
726.68	1922.43
726.87	2188.87
727.06	2351.48
727.25	1926.93
727.44	2008.65
727.63	2064.35
727.82	2041.21
728.01	2013.56
728.20	2046.13
728.38	2368.68
728.57	2029.54
728.76	1934.10
728.95	2080.53
729.14	1893.55
729.33	1912.19
729.52	1692.65
729.71	1851.16
729.90	1926.52
730.09	1975.88
730.28	1883.72
730.47	1884.54
730.66	2270.99
730.84	2077.66
731.03	1933.69
731.22	1948.03
731.41	2082.17
731.60	2189.69
731.79	1733.81
731.98	1855.46
732.17	2202.18
732.36	2157.54
732.55	1891.71
732.73	1807.54
732.92	2330.38
733.11	2170.03
733.30	1876.96
733.49	1802.21
733.68	2196.04
733.87	2130.71
734.06	1808.15
734.25	1786.65
734.43	1966.87
734.62	2127.02
734.81	1857.92
735.00	1858.94
735.19	2004.14
735.38	2169.00
735.57	1783.17
735.76	2005.17
735.94	2170.44
736.13	2453.67
736.32	1956.63
736.51	1917.10
736.70	2417.01
736.89	2415.37
737.08	2102.85
737.27	2251.54
737.45	2617.10
737.64	2449.37
737.83	2469.03
738.02	2456.95
738.21	2620.99
738.40	2657.85
738.59	2174.74
738.77	2221.43
738.96	2157.13
739.15	2250.10
739.34	2176.99
739.53	2106.54
739.72	2393.05
739.90	2368.89
740.09	1915.87
740.28	1991.85
740.47	2195.42
740.66	2210.99
740.85	1829.04
741.03	1908.71
741.22	1937.38
741.41	2051.86
741.60	1770.06
741.79	2015.00
741.98	2297.41
742.16	2409.03
742.35	1951.30
742.54	1966.87
742.73	2416.60
742.92	2003.73
743.10	1774.77
743.29	1891.30
743.48	2495.25
743.67	1986.94
743.86	1765.76
744.05	1816.14
744.23	1907.27
744.42	1915.06
744.61	1943.93
744.80	1806.10
744.99	1995.75
745.17	1809.79
745.36	1769.24
745.55	2033.02
745.74	2094.46
745.93	1946.18
746.11	1849.52
746.30	1796.48
746.49	2266.69
746.68	1930.62
746.86	1934.72
747.05	1881.47
747.24	2194.60
747.43	2189.89
747.62	1824.13
747.80	1851.57
747.99	2283.28
748.18	2223.27
748.37	1933.69
748.56	1984.89
748.74	2249.49
748.93	2113.50
749.12	2155.49
749.31	2547.88
749.49	2916.72
749.68	3155.72
749.87	3296.62
750.06	3092.23
750.24	3250.13
750.43	3149.37
750.62	3025.87
750.81	3175.17
750.99	3379.76
751.18	3352.12
751.37	2858.35
751.56	2881.90
751.74	3278.80
751.93	3321.40
752.12	2357.01
752.31	2325.47
752.49	2395.51
752.68	2656.42
752.87	2161.63
753.06	2096.92
753.24	2186.00
753.43	2407.59
753.62	1938.61
753.81	1924.27
753.99	2414.96
754.18	2174.94
754.37	1887.00
754.55	1944.34
754.74	2402.88
754.93	1823.31
755.12	1856.69
755.30	1843.99
755.49	2284.92
755.68	2125.18
755.86	2000.25
756.05	1799.96
756.24	2364.38
756.43	1882.49
756.61	1858.74
756.80	1965.85
756.99	2328.34
757.17	2064.76
757.36	1871.23
757.55	1905.23
757.74	2169.82
757.92	2100.81
758.11	1845.02
758.30	1750.81
758.48	2046.94
758.67	1880.44
758.86	1950.28
759.04	1835.18
759.23	2008.03
759.42	2061.89
759.60	1861.19
759.79	1930.62
759.98	2030.36
760.16	1969.74
760.35	1880.65
760.54	1842.15
760.73	2107.97
760.91	1852.18
761.10	1886.59
761.29	1995.95
761.47	2108.79
761.66	2477.63
761.85	1958.06
762.03	2108.59
762.22	2385.27
762.41	2876.37
762.59	3262.41
762.78	3494.65
762.97	4303.19
763.15	4280.05
763.34	3912.23
763.52	3277.16
763.71	3398.81
763.90	3427.07
764.08	2909.55
764.27	2925.52
764.46	3150.80
764.64	2753.90
764.83	2574.71
765.02	2426.84
765.20	2516.13
765.39	2518.80
765.58	2049.61
765.76	2042.23
765.95	2226.76
766.13	2167.57
766.32	1942.70
766.51	1928.78
766.69	2860.40
766.88	2159.58
767.07	1819.62
767.25	1696.33
767.44	2287.17
767.62	2295.77
767.81	1838.26
768.00	1912.39
768.18	2095.48
768.37	1986.53
768.56	1717.84
768.74	1877.37
768.93	1882.70
769.11	2150.78
769.30	2000.46
769.49	1879.63
769.67	2053.29
769.86	1992.47
770.04	1908.30
770.23	1877.78
770.42	2300.07
770.60	2122.92
770.79	1838.26
770.97	1891.50
771.16	2331.20
771.35	2240.89
771.53	2166.55
771.72	2238.23
771.90	2535.79
772.09	2805.10
772.27	2546.44
772.46	2254.40
772.65	2579.42
772.83	2442.61
773.02	2305.40
773.20	2096.51
773.39	2392.85
773.58	2371.75
773.76	1978.95
773.95	1963.80
774.13	2265.05
774.32	2113.30
774.50	1891.30
774.69	1985.92
774.87	2071.11
775.06	2526.58
775.25	1911.16
775.43	1951.51
775.62	2184.36
775.80	2240.89
775.99	1994.52
776.17	1942.29
776.36	2126.20
776.54	2313.18
776.73	1910.55
776.92	2002.91
777.10	2263.01
777.29	2162.25
777.47	1900.11
777.66	1917.92
777.84	2118.21
778.03	2110.64
778.21	1875.12
778.40	2016.84
778.58	2189.28
778.77	2280.00
778.95	1837.23
779.14	1883.11
779.32	2401.24
779.51	2273.65
779.70	1899.90
779.88	1782.14
780.07	2026.47
780.25	2558.32
780.44	1942.09
780.62	2009.47
780.81	2218.36
780.99	2181.29
781.18	1874.30
781.36	1875.73
781.55	2072.95
781.73	2358.65
781.92	1798.12
782.10	1822.49
782.29	2160.81
782.47	2354.55
782.66	1880.44
782.84	1790.33
783.03	1993.70
783.21	2328.75
783.40	1859.97
783.58	1868.36
783.77	2006.60
783.95	2066.81
784.14	1861.19
784.32	1969.33
784.51	2315.43
784.69	1981.41
784.88	1798.12
785.06	1879.42
785.24	1833.75
785.43	2227.58
785.61	1967.89
785.80	1841.12
785.98	2187.23
786.17	2066.40
786.35	1797.09
786.54	2020.94
786.72	2228.39
786.91	2246.83
787.09	1939.63
787.28	1819.01
787.46	2101.83
787.65	2253.38
787.83	1768.63
788.01	1892.32
788.20	1887.41
788.38	2088.11
788.57	1860.78
788.75	1863.65
788.94	2374.82
789.12	2210.58
789.31	1944.75
789.49	2023.80
789.67	2005.37
789.86	2149.14
790.04	1854.03
790.23	1770.06
790.41	2475.58
790.60	2042.23
790.78	1859.15
790.96	1901.54
791.15	2188.87
791.33	2056.37
791.52	1905.43
791.70	1801.60
791.89	2087.90
792.07	2246.01
792.25	1952.53
792.44	1775.38
792.62	2265.67
792.81	1990.42
792.99	1909.94
793.17	1879.22
793.36	1931.64
793.54	2397.76
793.73	2115.14
793.91	2070.70
794.10	2501.39
794.28	2660.72
794.46	2316.05
794.65	2360.69
794.83	2219.59
795.01	2355.78
795.20	2294.95
795.38	2201.77
795.57	2339.39
795.75	2327.11
795.93	2069.88
796.12	2056.37
796.30	2276.93
796.49	2262.39
796.67	1901.33
796.85	2054.93
797.04	2166.14
797.22	2212.42
797.40	1854.03
797.59	1956.83
797.77	2124.56
797.96	1961.95
798.14	1821.67
798.32	1881.88
798.51	2206.48
798.69	2415.37
798.87	1917.31
799.06	1905.63
799.24	1823.92
799.42	2227.58
799.61	2031.99
799.79	2046.54
799.98	2608.09
800.16	2227.58
800.34	2297.21
800.53	2468.21
800.71	2605.02
800.89	3086.49
801.08	2771.11
801.26	2767.83
801.44	2636.15
801.63	2441.59
801.81	2350.04
801.99	2258.09
802.18	2338.37
802.36	2396.53
802.54	2242.73
802.73	2042.85
802.91	2284.51
803.09	2255.02
803.28	2157.13
803.46	2075.62
803.64	2434.42
803.83	1953.56
804.01	1884.34
804.19	1830.06
804.38	2216.72
804.56	2158.56
804.74	1926.73
804.92	1946.80
805.11	1898.47
805.29	2260.34
805.47	1872.66
805.66	1808.77
805.84	1863.04
806.02	2230.24
806.21	1842.76
806.39	2101.22
806.57	2260.14
806.76	2245.19
806.94	1944.96
807.12	1858.53
807.30	1959.70
807.49	2085.65
807.67	1927.14
807.85	2019.50
808.04	2225.32
808.22	2511.63
808.40	1829.04
808.58	1751.63
808.77	2180.06
808.95	2356.39
809.13	1907.07
809.31	2294.95
809.50	2611.36
809.68	2781.76
809.86	2485.01
810.05	2672.80
810.23	3227.80
810.41	3465.16
810.59	4868.64
810.78	5680.66
810.96	6539.37
811.14	7032.11
811.32	6442.50
811.51	5477.09
811.69	4922.09
811.87	5028.58
812.05	4370.37
812.24	4116.01
812.42	4290.08
812.60	4122.56
812.78	3355.60
812.97	3111.48
813.15	3459.02
813.33	3091.82
813.51	2791.18
813.70	2373.60
813.88	2381.99
814.06	2431.55
814.24	2164.09
814.42	1908.71
814.61	2232.90
814.79	2477.84
814.97	1816.75
815.15	1895.19
815.34	2148.52
815.52	2246.21
815.70	1850.75
815.88	1929.39
816.06	1931.03
816.25	1990.01
816.43	1893.96
816.61	2003.73
816.79	2357.21
816.98	1821.05
817.16	1809.59
817.34	1826.38
817.52	2140.95
817.70	2356.39
817.89	1918.54
818.07	1833.55
818.25	2064.97
818.43	2115.35
818.61	1931.64
818.80	1891.50
818.98	2385.47
819.16	2088.93
819.34	1843.79
819.52	2163.68
819.70	1964.41
819.89	2061.49
820.07	1797.50
820.25	1733.81
820.43	2132.35
820.61	2250.51
820.80	1907.07
820.98	1808.97
821.16	1820.64
821.34	1895.19
821.52	1897.85
821.70	2034.45
821.89	2084.63
822.07	2042.85
822.25	1948.85
822.43	1871.02
822.61	2360.49
822.79	2134.60
822.98	1900.92
823.16	1774.36
823.34	2143.61
823.52	2314.82
823.70	1991.24
823.88	1768.83
824.06	2195.63
824.25	2077.66
824.43	2018.07
824.61	1813.07
824.79	2080.94
824.97	2102.24
825.15	2023.60
825.33	2198.29
825.52	2394.69
825.70	2226.76
825.88	2104.49
826.06	2160.40
826.24	2325.47
826.42	2407.39
826.60	2091.39
826.78	2152.82
826.97	2161.84
827.15	2399.60
827.33	1945.57
827.51	2017.66
827.69	2039.37
827.87	2183.34
828.05	2059.44
828.23	1876.35
828.41	2286.97
828.60	2251.33
828.78	1833.96
828.96	2025.44
829.14	1994.11
829.32	2049.61
829.50	1907.48
829.68	1907.68
829.86	1988.78
830.04	2216.72
830.22	2005.58
830.41	1831.50
830.59	2046.94
830.77	2186.21
830.95	1852.18
831.13	1878.60
831.31	1967.89
831.49	2234.74
831.67	2070.70
831.85	2053.29
832.03	2050.22
832.21	2202.59
832.39	1810.81
832.57	1819.21
832.76	2243.96
832.94	2062.92
833.12	1739.95
833.30	1890.07
833.48	2289.01
833.66	2171.67
833.84	1885.77
834.02	1916.08
834.20	2267.10
834.38	2230.85
834.56	1756.95
834.74	1830.47
834.92	1858.53
835.10	2376.05
835.28	1943.11
835.46	1960.73
835.64	2062.10
835.82	2002.71
836.01	2194.40
836.19	2124.97
836.37	2015.20
836.55	1932.46
836.73	1852.80
836.91	1823.51
837.09	2202.80
837.27	2345.74
837.45	1778.87
837.63	1786.65
837.81	1907.89
837.99	2068.65
838.17	1999.23
838.35	1837.44
838.53	2490.94
838.71	2209.55
838.89	1861.40
839.07	1829.86
839.25	2084.22
839.43	2203.61
839.61	1933.90
839.79	2198.49
839.97	2515.52
840.15	2590.07
840.33	2388.55
840.51	2634.51
840.69	2549.93
840.87	2449.78
841.05	2334.07
841.23	2295.57
841.41	2573.48
841.59	3042.67
841.77	2976.11
841.95	3046.76
842.13	3539.09
842.31	3200.77
842.49	2795.07
842.67	2715.61
842.85	2935.97
843.03	2578.19
843.21	2445.89
843.39	2555.25
843.57	2568.36
843.75	2522.28
843.93	2224.50
844.11	2213.65
844.29	2375.03
844.47	2265.26
844.65	2236.18
844.83	2027.69
845.01	2155.08
845.19	2312.77
845.36	2014.79
845.54	2044.49
845.72	2148.93
845.90	2233.72
846.08	1866.93
846.26	2016.84
846.44	2176.79
846.62	2195.83
846.80	2005.78
846.98	1867.95
847.16	2065.58
847.34	2152.21
847.52	1876.35
847.70	1789.72
847.88	2064.76
848.06	2354.34
848.24	2025.24
848.41	1812.86
848.59	2287.99
848.77	2146.89
848.95	1926.52
849.13	1899.29
849.31	2222.87
849.49	2121.08
849.67	1875.94
849.85	1835.59
850.03	2160.20
850.21	2135.01
850.39	1829.86
850.57	2044.69
850.74	2352.91
850.92	2332.64
851.10	2061.08
851.28	1987.35
851.46	2323.63
851.64	2683.25
851.82	2106.13
852.00	2172.08
852.18	2557.09
852.36	2396.94
852.53	2054.73
852.71	2132.96
852.89	2277.55
853.07	2295.98
853.25	1940.45
853.43	1850.13
853.61	2183.95
853.79	2216.52
853.97	1885.36
854.14	1893.76
854.32	2361.10
854.50	2234.13
854.68	1935.13
854.86	1925.50
855.04	1963.39
855.22	2245.60
855.40	1776.61
855.57	1886.59
855.75	2212.83
855.93	2175.35
856.11	1747.53
856.29	1877.58
856.47	1979.57
856.65	2120.47
856.82	1835.18
857.00	1811.02
857.18	2061.89
857.36	2008.44
857.54	1990.83
857.72	2053.70
857.89	2232.49
858.07	2137.67
858.25	2127.02
858.43	1798.94
858.61	2062.71
858.79	2062.51
858.97	1834.78
859.14	2004.35
859.32	2062.30
859.50	2024.01
859.68	1992.47
859.86	1839.49
860.03	2082.58
860.21	2167.37
860.39	1836.21
860.57	2029.74
860.75	2166.96
860.93	2406.36
861.10	2083.19
861.28	1803.85
861.46	2146.07
861.64	2149.14
861.82	1882.49
861.99	2019.91
862.17	2262.39
862.35	2249.49
862.53	1924.07
862.71	1931.44
862.88	2146.27
863.06	2213.44
863.24	1907.89
863.42	1846.45
863.60	2060.26
863.77	2208.12
863.95	1767.60
864.13	1907.48
864.31	2060.67
864.49	2251.95
864.66	1838.26
864.84	1849.52
865.02	2151.39
865.20	2606.86
865.37	1988.78
865.55	1847.06
865.73	1881.06
865.91	2198.90
866.09	2006.80
866.26	1922.22
866.44	2208.12
866.62	2031.18
866.80	1819.42
866.97	1896.42
867.15	2050.22
867.33	2111.87
867.51	1955.81
867.68	1912.80
867.86	1998.20
868.04	1992.88
868.22	1696.33
868.39	1915.26
868.57	2139.51
868.75	2353.53
868.93	1797.50
869.10	1850.34
869.28	2397.35
869.46	2330.79
869.64	1922.84
869.81	1879.42
869.99	2157.94
870.17	2131.12
870.35	1853.62
870.52	1900.92
870.70	2296.39
870.88	1968.92
871.05	1823.10
871.23	1716.81
871.41	2066.61
871.59	2073.98
871.76	1867.13
871.94	1819.62
872.12	2086.27
872.29	1856.48
872.47	1890.89
872.65	1809.99
872.83	2148.11
873.00	2356.19
873.18	1901.74
873.36	1848.29
873.53	2236.79
873.71	1871.43
873.89	1805.28
874.06	1891.09
874.24	2135.42
874.42	2343.49
874.60	2024.42
874.77	1979.57
874.95	2013.77
875.13	2269.15
875.30	1874.10
875.48	1834.16
875.66	2370.52
875.83	1942.70
876.01	1855.46
876.19	1991.04
876.36	1928.78
876.54	2109.61
876.72	1802.83
876.89	1968.51
877.07	2213.04
877.25	1805.28
877.42	1927.34
877.60	1887.41
877.78	2420.29
877.95	2012.33
878.13	1838.46
878.31	2017.25
878.48	2275.70
878.66	2220.20
878.84	1863.65
879.01	1881.88
879.19	2166.55
879.37	2216.93
879.54	1891.09
879.72	1748.56
879.90	1809.59
880.07	2210.17
880.25	1644.52
880.42	2038.55
880.60	2110.02
880.78	2196.45
880.95	1888.02
881.13	1941.27
881.31	2106.95
881.48	2010.49
881.66	1830.68
881.83	1989.40
882.01	1972.19
882.19	1884.95
882.36	1904.00
882.54	1891.71
882.72	2234.95
882.89	2089.75
883.07	1862.63
883.24	1874.10
883.42	2228.39
883.60	2128.45
883.77	1820.44
883.95	1898.47
884.12	2253.79
884.30	2124.15
884.48	2022.16
884.65	1920.18
884.83	2107.77
885.00	2134.80
885.18	1769.65
885.36	1878.60
885.53	2184.98
885.71	2312.16
885.88	1785.21
886.06	1875.12
886.23	2222.66
886.41	2008.65
886.59	1876.76
886.76	1790.13
886.94	2179.65
887.11	2585.56
887.29	1917.10
887.47	1788.29
887.64	2312.16
887.82	2338.17
887.99	1750.81
888.17	1929.60
888.34	2058.21
888.52	1903.38
888.69	1841.12
888.87	1793.82
889.05	2032.40
889.22	2015.20
889.40	1873.07
889.57	2084.01
889.75	2373.19
889.92	2051.45
890.10	1809.18
890.27	1941.06
890.45	1973.01
890.62	1836.41
890.80	1808.77
890.98	1714.35
891.15	2365.20
891.33	2273.25
891.50	1835.18
891.68	1758.18
891.85	2221.02
892.03	2205.66
892.20	1848.70
892.38	1813.48
892.55	2227.78
892.73	2236.18
892.90	1744.87
893.08	1831.09
893.25	1986.53
893.43	2033.02
893.60	1951.92
893.78	1718.86
893.95	2167.77
894.13	2061.49
894.30	1825.35
894.48	1895.80
894.65	2275.70
894.83	2133.16
895.00	1712.10
895.18	1730.12
895.35	2235.77
895.53	2226.96
895.70	1775.18
895.88	1973.01
896.05	2186.21
896.23	1867.13
896.40	1866.31
896.58	1900.51
896.75	2214.06
896.93	2335.71
897.10	1885.36
897.28	1760.23
897.45	2128.86
897.63	2183.75
897.80	1962.98
897.98	1825.76
898.15	2171.46
898.33	1995.75
898.50	1903.18
898.67	1872.46
898.85	2050.43
899.02	2181.91
899.20	2121.29
899.37	1863.04
899.55	2135.01
899.72	2320.14
899.90	1835.18
900.07	1822.90
900.25	2156.51
900.42	2300.28
900.59	1854.03
900.77	1972.19
900.94	2170.85
901.12	2151.60
901.29	1870.41
901.47	2000.66
901.64	2204.64
901.82	2089.75
901.99	1679.54
902.16	1829.25
902.34	2249.49
902.51	2120.88
902.69	1846.04
902.86	1888.23
903.03	2734.45
903.21	2127.43
903.38	1865.70
903.56	1848.91
903.73	2294.75
903.91	2031.38
904.08	1829.66
904.25	1714.35
904.43	1956.22
904.60	2227.17
904.78	1862.42
904.95	1775.38
905.12	2007.83
905.30	2403.29
905.47	1938.61
905.65	2024.83
905.82	2081.76
905.99	2170.44
906.17	1874.30
906.34	1821.05
906.52	1934.31
906.69	2154.67
906.86	1938.40
907.04	1908.50
907.21	2224.71
907.38	2223.27
907.56	1824.33
907.73	1803.44
907.91	2328.75
908.08	2283.69
908.25	1860.37
908.43	1747.33
908.60	2174.74
908.77	2109.20
908.95	1877.78
909.12	1788.70
909.30	2188.25
909.47	1859.97
909.64	1893.55
909.82	2051.66
909.99	2056.16
910.16	2090.77
910.34	1835.80
910.51	1850.34
910.68	2137.87
910.86	2082.78
911.03	1739.14
911.20	1808.56
911.38	2353.32
911.55	2672.80
911.72	2564.47
911.90	2493.20
912.07	2847.70
912.24	3022.19
912.42	2414.56
912.59	2174.74
912.76	2521.25
912.94	2339.39
913.11	2035.68
913.28	1946.39
913.46	1964.41
913.63	2203.00
913.80	2245.80
913.98	1880.24
914.15	2291.27
914.32	2338.99
914.49	1978.95
914.67	1800.37
914.84	2148.73
915.01	2220.00
915.19	1916.90
915.36	1862.83
915.53	2254.81
915.71	2179.04
915.88	1939.22
916.05	1865.09
916.22	2274.88
916.40	2152.42
916.57	1780.09
916.74	2029.13
916.92	2359.06
917.09	1933.08
917.26	1811.22
917.43	1742.62
917.61	2004.76
917.78	1802.21
917.95	1775.59
918.13	1786.85
918.30	2498.73
918.47	2127.63
918.64	1804.67
918.82	1760.84
918.99	2045.31
919.16	2362.74
919.33	1873.28
919.51	1848.29
919.68	2078.69
919.85	2267.31
920.02	1756.95
920.20	1886.38
920.37	2388.75
920.54	2220.00
920.71	1827.20
920.89	1864.47
921.06	2398.17
921.23	1922.43
921.40	1760.64
921.58	1940.45
921.75	2648.02
921.92	1999.23
922.09	1966.66
922.27	1907.89
922.44	2109.61
922.61	2204.84
922.78	1842.35
922.96	1829.86
923.13	2047.76
923.30	2222.87
923.47	1759.00
923.64	1808.15
923.82	2159.99
923.99	2134.39
924.16	1944.14
924.33	1790.95
924.50	2087.70
924.68	2343.90
924.85	1803.44
925.02	1850.75
925.19	2227.99
925.36	2127.02
925.54	1905.84
925.71	1914.03
925.88	2638.19
926.05	2050.22
926.22	1795.66
926.40	1975.88
926.57	2138.49
926.74	2205.66
926.91	1825.97
927.08	2026.26
927.26	2294.13
927.43	2137.46
927.60	1830.68
927.77	1889.25
927.94	2407.39
928.11	2301.92
928.29	1709.23
928.46	1889.25
928.63	1964.21
928.80	2016.02
928.97	1943.32
929.14	1836.62
929.32	2466.37
929.49	2106.75
929.66	1794.23
929.83	1776.20
930.00	2033.84
930.17	2187.23
930.35	1800.98
930.52	1838.46
930.69	2352.09
930.86	1918.95
931.03	1922.43
931.20	1676.88
931.37	2276.93
931.55	2084.22
931.72	1918.54
931.89	1782.96
932.06	1902.97
932.23	2391.41
932.40	1961.34
932.57	1990.42
932.74	2314.82
932.92	2286.56
933.09	2009.06
933.26	1615.03
933.43	2036.91
933.60	2148.52
933.77	1906.25
933.94	1927.55
934.11	2068.65
934.29	2115.76
934.46	1791.77
934.63	1926.52
934.80	1887.20
934.97	2074.18
935.14	1875.73
935.31	1722.75
935.48	1953.35
935.65	2167.16
935.82	1873.07
936.00	1772.93
936.17	2365.81
936.34	2060.26
936.51	1918.74
936.68	1783.37
936.85	2146.48
937.02	2095.28
937.19	1947.00
937.36	1858.94
937.53	2144.43
937.70	2242.94
937.87	1838.67
938.05	1970.97
938.22	2100.19
938.39	1903.59
938.56	1859.56
938.73	1781.73
938.90	2071.73
939.07	1981.00
939.24	1933.49
939.41	1713.54
939.58	2155.69
939.75	2160.61
939.92	1846.04
940.09	2116.37
940.26	2038.14
940.43	2231.26
940.60	1897.03
940.77	1891.91
940.95	2152.42
941.12	2230.24
941.29	1898.88
941.46	1901.74
941.63	2296.18
941.80	2366.02
941.97	1743.23
942.14	1730.74
942.31	2185.59
942.48	2064.76
942.65	1962.77
942.82	1920.18
942.99	2180.47
943.16	2098.55
943.33	1769.24
943.50	1851.36
943.67	2226.55
943.84	2290.24
944.01	1859.76
944.18	1840.92
944.35	2333.46
944.52	1991.04
944.69	1949.05
944.86	1766.99
945.03	2219.79
945.20	2548.70
945.37	1670.94
945.54	1908.71
945.71	2323.83
945.88	2400.63
946.05	1815.11
946.22	1791.36
946.39	2338.17
946.56	2063.53
946.73	1748.35
946.90	1783.37
947.07	2007.21
947.24	2060.67
947.41	1698.79
947.58	1936.76
947.75	2225.32
947.92	2186.82
948.09	1674.83
948.26	1751.42
948.43	2154.87
948.60	2444.05
948.77	1780.50
948.94	1873.48
949.11	2245.19
949.27	2167.57
949.44	1825.35
949.61	1760.84
949.78	2145.04
949.95	2299.46
950.12	1735.04
950.29	1729.30
950.46	2004.96
950.63	2287.99
950.80	1788.70
950.97	1842.76
951.14	2295.36
951.31	2041.42
951.48	1781.53
951.65	1762.89
951.82	2424.39
951.99	2166.34
952.15	1728.90
952.32	1837.64
952.49	1986.73
952.66	1993.90
952.83	1825.97
953.00	1790.95
953.17	2077.46
953.34	2281.23
953.51	1906.45
953.68	1881.06
953.85	2302.33
954.02	2310.72
954.18	1886.18
954.35	1864.88
954.52	1967.07
954.69	2129.89
954.86	1719.47
955.03	1900.31
955.20	2208.32
955.37	2075.00
955.54	1833.55
955.71	1821.05
955.87	2168.18
956.04	2416.60
956.21	1844.20
956.38	1799.14
956.55	2117.60
956.72	2546.85
956.89	1915.06
957.06	1774.16
957.23	1992.88
957.39	2337.76
957.56	1863.86
957.73	1748.97
957.90	1752.65
958.07	2411.69
958.24	1891.91
958.41	1859.15
958.57	2265.67
958.74	2092.82
958.91	1767.81
959.08	1790.74
959.25	2191.53
959.42	2080.94
959.59	1880.24
959.75	1858.94
959.92	2328.95
960.09	2297.62
960.26	1800.78
960.43	1896.83
960.60	2137.67
960.76	2069.47
960.93	1727.67
961.10	1917.51
961.27	2278.77
961.44	2056.78
961.61	1743.64
961.77	1745.48
961.94	2112.07
962.11	2254.20
962.28	1844.20
962.45	1748.97
962.62	2049.20
962.78	2263.62
962.95	1689.16
963.12	1809.79
963.29	2211.81
963.46	2599.28
963.62	1924.68
963.79	1836.62
963.96	2551.97
964.13	2030.97
964.30	1949.26
964.46	1844.20
964.63	1938.20
964.80	2527.19
964.97	1682.20
965.14	1949.67
965.30	2161.02
965.47	2244.37
965.64	2008.85
965.81	1957.45
965.98	2327.52
966.14	2104.29
966.31	1811.02
966.48	1788.29
966.65	2301.30
966.81	2162.04
966.98	1843.17
967.15	1824.13
967.32	2085.04
967.49	1960.11
967.65	1689.37
967.82	1657.63
967.99	2067.42
968.16	1807.74
968.32	2000.05
968.49	1801.39
968.66	2037.32
968.83	2356.39
968.99	1957.04
969.16	1786.24
969.33	2306.42
969.50	2194.81
969.66	1966.46
969.83	2102.65
970.00	2248.06
970.17	2215.49
970.33	1860.17
970.50	1763.51
970.67	2355.37
970.84	2395.71
971.00	1775.18
971.17	1749.58
971.34	2209.35
971.50	2093.02
971.67	1937.99
971.84	1846.65
972.01	1910.96
972.17	1770.67
972.34	1736.27
972.51	2011.72
972.67	2293.52
972.84	2177.81
973.01	1780.09
973.18	1811.02
973.34	2267.31
973.51	1966.87
973.68	1854.44
973.84	1861.81
974.01	2036.30
974.18	2403.70
974.34	1920.79
974.51	1954.58
974.68	1998.41
974.85	2470.87
975.01	1948.23
975.18	1817.98
975.35	2110.23
975.51	1951.51
975.68	1729.92
975.85	2013.56
976.01	2020.32
976.18	2349.43
976.35	1838.26
976.51	1887.82
976.68	2413.33
976.85	2320.35
977.01	1886.18
977.18	1911.78
977.35	2191.53
977.51	1915.67
977.68	1669.91
977.85	1727.05
978.01	2238.23
978.18	2183.13
978.35	1904.00
978.51	1871.02
978.68	2275.29
978.85	2339.80
979.01	1891.30
979.18	1887.00
979.34	2069.06
979.51	2116.99
979.68	1811.84
979.84	1890.48
980.01	2550.95
980.18	2122.31
980.34	1824.13
980.51	1923.25
980.67	2216.11
980.84	2194.40
981.01	1843.17
981.17	1905.43
981.34	1806.72
981.51	2216.72
981.67	1760.84
981.84	1909.12
982.00	2216.11
982.17	2106.75
982.34	1696.95
982.50	1577.76
982.67	2410.66
982.83	2009.06
983.00	1727.46
983.17	1659.67
983.33	2290.24
983.50	1850.75
983.66	1728.69
983.83	1632.44
984.00	2022.57
984.16	2111.05
984.33	1634.69
984.49	1598.85
984.66	1957.86
984.83	2248.87
984.99	1672.17
985.16	1629.36
985.32	2216.72
985.49	2234.13
985.65	1752.86
985.82	1611.55
985.99	2354.96
986.15	2135.62
986.32	1759.00
986.48	1698.38
986.65	2025.44
986.81	2231.67
986.98	1604.99
987.14	1712.51
987.31	2136.03
987.48	1853.00
987.64	1586.97
987.81	1583.28
987.97	2464.73
988.14	1943.32
988.30	1629.16
988.47	1525.94
988.63	2178.22
988.80	1907.27
988.96	1724.59
989.13	1756.54
989.30	2024.83
989.46	2251.13
989.63	1562.19
989.79	1612.78
989.96	2073.36
990.12	2385.27
990.29	1675.85
990.45	1718.66
990.62	2091.80
990.78	2317.07
990.95	1738.52
991.11	1683.23
991.28	2024.83
991.44	2155.28
991.61	1585.74
991.77	1749.17
991.94	2112.89
992.10	2289.83
992.27	1711.69
992.43	1700.84
992.60	2187.23
992.76	2047.56
992.93	1881.47
993.09	1608.07
993.26	2283.89
993.42	2420.70
993.59	1673.80
993.75	1591.27
993.92	1967.48
994.08	1981.41
994.25	1713.54
994.41	1608.88
994.58	2218.77
994.74	2339.80
994.91	1608.07
995.07	1770.88
995.24	2071.32
995.40	2087.70
995.56	1814.09
995.73	1756.75
995.89	2390.80
996.06	2090.16
996.22	1642.68
996.39	1568.54
996.55	2064.56
996.72	2180.88
996.88	1589.22
997.05	1628.95
997.21	2466.98
997.37	2235.56
997.54	1738.93
997.70	1701.66
997.87	2174.12
998.03	2096.10
998.20	1566.08
998.36	1582.67
998.52	2185.80
998.69	2272.43
998.85	1593.52
999.02	1682.61
999.18	2281.64
999.35	2245.19
999.51	1733.20
999.67	1674.21
999.84	1914.24
1000.00	2225.94
1000.17	1745.07
1000.33	1654.14
1000.49	2029.95
1000.66	2058.21
1000.82	1662.54
1000.99	1712.51
1001.15	2289.83
1001.31	2046.74
1001.48	1709.85
1001.64	1744.05
1001.81	2056.37
1001.97	2462.89
1002.13	1678.72
1002.30	1710.26
1002.46	2332.43
1002.63	2039.57
1002.79	1768.01
1002.95	1633.05
1003.12	2270.58
1003.28	2147.09
1003.45	1659.88
1003.61	1575.50
1003.77	2132.14
1003.94	1876.76
1004.10	1685.27
1004.26	1763.71
1004.43	2191.94
1004.59	2394.08
1004.75	1652.71
1004.92	1619.94
1005.08	2042.23
1005.25	2145.45
1005.41	1661.11
1005.57	1743.03
1005.74	2312.98
1005.90	2016.43
1006.06	1791.15
1006.23	1664.59
1006.39	2202.80
1006.55	2592.52
1006.72	1816.75
1006.88	1598.44
1007.04	1934.51
1007.21	2034.66
1007.37	1706.78
1007.53	1651.07
1007.70	2355.78
1007.86	2226.55
1008.02	1734.22
1008.19	1624.04
1008.35	2145.25
1008.51	1935.54
1008.68	1652.51
1008.84	1622.81
1009.00	1945.16
1009.17	2268.13
1009.33	1839.28
1009.49	1767.19
1009.65	1949.46
1009.82	2173.51
1009.98	1742.41
1010.14	1577.96
1010.31	2243.55
1010.47	2193.17
1010.63	1744.25
1010.80	1712.31
1010.96	2183.54
1011.12	2067.42
1011.28	1694.08
1011.45	1635.51
1011.61	2585.36
1011.77	1949.46
1011.94	1651.28
1012.10	1609.09
1012.26	1929.19
1012.42	1995.54
1012.59	1707.19
1012.75	1706.37
1012.91	2050.02
1013.07	2246.01
1013.24	1620.56
1013.40	1639.60
1013.56	2136.03
1013.72	2064.35
1013.89	1735.04
1014.05	1773.13
1014.21	2422.34
1014.37	2544.19
1014.54	1726.44
1014.70	1592.30
1014.86	2044.69
1015.02	1908.09
1015.19	1674.42
1015.35	1606.84
1015.51	2038.75
1015.67	2016.23
1015.84	1671.55
1016.00	1668.28
1016.16	2285.12
1016.32	2221.64
1016.49	1648.82
1016.65	1609.29
1016.81	2080.12
1016.97	2183.95
1017.14	1812.66
1017.30	1679.54
1017.46	1997.38
1017.62	2144.43
1017.78	1745.48
1017.95	1653.33
1018.11	2243.34
1018.27	2522.89
1018.43	1824.13
1018.59	1729.92
1018.76	2243.55
1018.92	2573.27
1019.08	1661.72
1019.24	1693.87
1019.40	2348.61
1019.57	2141.56
1019.73	1776.61
1019.89	1675.03
1020.05	2164.09
1020.21	2459.20
1020.38	1621.38
1020.54	1844.61
1020.70	2194.60
1020.86	2218.36
1021.02	1656.19
1021.18	1675.03
1021.35	1994.52
1021.51	2176.38
1021.67	1851.77
1021.83	1732.79
1021.99	2123.13
1022.15	2163.27
1022.32	1719.27
1022.48	1725.21
1022.64	2322.40
1022.80	2359.67
1022.96	1748.76
1023.12	1622.20
1023.29	2298.84
1023.45	2159.58
1023.61	1667.25
1023.77	1899.08
1023.93	2112.27
1024.09	1986.94
1024.25	1648.41
1024.42	1614.62
1024.58	2061.08
1024.74	2142.99
1024.90	1678.31
1025.06	1752.24
1025.22	1996.97
1025.38	2397.76
1025.54	1646.36
1025.71	1790.13
1025.87	2208.53
1026.03	2182.93
1026.19	1624.24
1026.35	1859.97
1026.51	2174.53
1026.67	2109.20
1026.83	1735.45
1026.99	1829.66
1027.16	2197.88
1027.32	2070.09
1027.48	1694.08
1027.64	1643.70
1027.80	2199.93
1027.96	2129.07
1028.12	1688.76
1028.28	1685.68
1028.44	2137.46
1028.60	2373.39
1028.77	1817.78
1028.93	1720.70
1029.09	2036.50
1029.25	1931.85
1029.41	1710.26
1029.57	1771.49
1029.73	2145.25
1029.89	2381.58
1030.05	1815.32
1030.21	1755.93
1030.37	2537.23
1030.53	2180.27
1030.69	1736.27
1030.85	1599.46
1031.02	1959.29
1031.18	2076.44
1031.34	1693.87
1031.50	1798.73
1031.66	1976.70
1031.82	2361.92
1031.98	1736.88
1032.14	1630.59
1032.30	1945.98
1032.46	2238.84
1032.62	1799.14
1032.78	1600.69
1032.94	2006.60
1033.10	2037.73
1033.26	1751.22
1033.42	1800.57
1033.58	2486.44
1033.74	2028.92
1033.90	1656.81
1034.06	1862.63
1034.22	2469.03
1034.38	2289.63
1034.54	1746.71
1034.70	1749.58
1034.86	2450.80
>>>>>End Processed Spectral Data<<<<<
