SpectraSuite Data File
++++++++++++++++++++++++++++++++++++
Date: Thu Mar 30 14:32:18 PDT 2017
User: UCSD _CER
Dark Spectrum Present: No
Reference Spectrum Present: No
Number of Sampled Component Spectra: 1
Spectrometers: USB4C00073
Integration Time (usec): 380000 (USB4C00073)
Spectra Averaged: 10 (USB4C00073)
Boxcar Smoothing: 0 (USB4C00073)
Correct for Electrical Dark: No (USB4C00073)
Strobe/Lamp Enabled: No (USB4C00073)
Correct for Detector Non-linearity: No (USB4C00073)
Correct for Stray Light: No (USB4C00073)
Number of Pixels in Processed Spectrum: 3648
>>>>>Begin Processed Spectral Data<<<<<
345.37	1251.10
345.58	1251.10
345.80	1251.10
346.01	1251.92
346.22	1267.28
346.43	2046.54
346.65	1918.54
346.86	2459.20
347.07	2406.77
347.28	1841.33
347.50	1824.94
347.71	2167.57
347.92	1898.06
348.13	1814.09
348.35	1832.32
348.56	2163.06
348.77	1945.37
348.98	1834.16
349.20	1705.34
349.41	2182.32
349.62	2325.06
349.83	1952.53
350.05	1812.45
350.26	2197.27
350.47	2399.40
350.68	1867.13
350.90	1748.76
351.11	2429.30
351.32	2396.74
351.53	1876.96
351.75	1801.19
351.96	2204.43
352.17	2134.39
352.38	1928.78
352.60	1954.38
352.81	2161.84
353.02	2460.84
353.23	1820.64
353.44	1851.98
353.66	2077.05
353.87	2118.01
354.08	1904.20
354.29	1817.16
354.51	2041.01
354.72	2093.64
354.93	1780.71
355.14	1771.49
355.35	1866.11
355.57	2302.12
355.78	1858.74
355.99	1912.39
356.20	2166.34
356.42	2098.55
356.63	1896.01
356.84	1828.22
357.05	2311.13
357.26	2541.32
357.48	1964.41
357.69	1882.90
357.90	2200.75
358.11	2075.62
358.32	1866.11
358.54	1877.78
358.75	2076.23
358.96	2278.77
359.17	1853.62
359.38	1864.47
359.60	2241.09
359.81	2136.44
360.02	1863.65
360.23	1799.75
360.44	2036.50
360.66	2312.98
360.87	1797.91
361.08	1806.10
361.29	2214.67
361.50	2158.97
361.72	1819.42
361.93	1911.78
362.14	2173.30
362.35	1907.07
362.56	1999.64
362.77	1709.03
362.99	2256.04
363.20	2126.61
363.41	1922.84
363.62	1699.81
363.83	2235.36
364.05	2314.82
364.26	1797.71
364.47	1823.31
364.68	2350.45
364.89	2004.14
365.10	1743.64
365.32	1868.57
365.53	1992.67
365.74	2042.64
365.95	1858.33
366.16	1721.73
366.37	2124.36
366.59	2117.60
366.80	1855.87
367.01	1725.41
367.22	2504.26
367.43	2667.48
367.64	1924.89
367.86	1877.58
368.07	2216.52
368.28	2378.10
368.49	1758.18
368.70	1920.59
368.91	2078.69
369.12	2125.59
369.34	1775.79
369.55	1751.01
369.76	2141.97
369.97	2078.28
370.18	1765.35
370.39	1804.47
370.60	1946.18
370.82	1959.70
371.03	1882.29
371.24	1833.34
371.45	2261.98
371.66	2261.78
371.87	1845.42
372.08	1855.05
372.30	1981.82
372.51	2327.11
372.72	1991.44
372.93	1833.75
373.14	2428.69
373.35	2019.91
373.56	1794.64
373.78	1866.93
373.99	2269.15
374.20	2657.24
374.41	1796.68
374.62	1835.39
374.83	2421.93
375.04	2051.45
375.25	1894.78
375.47	1894.58
375.68	2104.70
375.89	2294.13
376.10	1876.35
376.31	1924.68
376.52	2208.73
376.73	2215.49
376.94	1916.08
377.15	1799.35
377.37	2153.03
377.58	2092.61
377.79	1788.29
378.00	1783.58
378.21	2170.23
378.42	2248.87
378.63	1917.92
378.84	1927.34
379.05	2327.31
379.27	2165.32
379.48	1928.78
379.69	1823.31
379.90	2375.85
380.11	1833.34
380.32	1860.58
380.53	1989.81
380.74	2393.05
380.95	2172.69
381.16	1888.02
381.37	1913.42
381.59	2392.85
381.80	2280.82
382.01	1839.08
382.22	1769.24
382.43	2195.42
382.64	2139.31
382.85	1772.93
383.06	1921.20
383.27	2261.78
383.48	2087.70
383.69	1880.44
383.91	1782.96
384.12	2258.91
384.33	2265.87
384.54	1908.71
384.75	1823.10
384.96	2743.25
385.17	2339.80
385.38	1859.76
385.59	1831.91
385.80	2280.41
386.01	2408.41
386.22	1953.97
386.43	1854.03
386.64	2582.90
386.86	2134.19
387.07	1970.76
387.28	1766.17
387.49	2064.76
387.70	2372.37
387.91	1978.13
388.12	1859.76
388.33	2236.79
388.54	2063.12
388.75	1813.27
388.96	1944.96
389.17	2047.97
389.38	2109.41
389.59	1934.72
389.80	1943.32
390.01	2158.56
390.22	2069.68
390.43	1962.57
390.64	1742.21
390.86	2220.00
391.07	2341.85
391.28	1858.74
391.49	1912.80
391.70	1918.33
391.91	2018.07
392.12	1852.18
392.33	1925.50
392.54	2178.83
392.75	2144.63
392.96	1975.47
393.17	1853.41
393.38	2554.02
393.59	2336.12
393.80	1764.94
394.01	1870.82
394.22	2097.32
394.43	2449.17
394.64	1755.72
394.85	1915.26
395.06	2108.38
395.27	2189.28
395.48	1846.24
395.69	1755.31
395.90	2111.46
396.11	2134.80
396.32	1831.09
396.53	1968.71
396.74	2102.24
396.95	2306.42
397.16	1836.00
397.37	1743.23
397.58	2315.43
397.79	2166.14
398.00	1886.38
398.21	1869.39
398.42	2180.27
398.63	2519.00
398.84	1854.03
399.05	1839.49
399.26	2361.10
399.47	2225.53
399.68	1725.62
399.89	1789.31
400.10	1936.35
400.31	2054.93
400.52	1917.72
400.73	1830.27
400.94	1911.16
401.15	2211.60
401.36	1876.35
401.57	1923.66
401.78	2361.51
401.99	2332.23
402.20	1794.23
402.41	2008.65
402.62	2415.99
402.83	2095.07
403.04	1830.88
403.25	2066.40
403.46	2188.25
403.67	2391.82
403.88	1850.13
404.09	1800.16
404.30	2031.18
404.51	2019.09
404.72	1793.41
404.93	1997.38
405.14	2004.76
405.35	2118.01
405.56	1883.31
405.77	1819.62
405.98	2161.43
406.19	2116.17
406.40	1811.22
406.61	1843.99
406.82	2052.68
407.03	2570.82
407.24	1803.24
407.45	1891.30
407.66	2242.94
407.87	2300.69
408.08	1933.69
408.29	1959.29
408.49	2267.51
408.70	2121.08
408.91	1820.85
409.12	1986.53
409.33	1971.58
409.54	2354.55
409.75	1811.84
409.96	1859.35
410.17	2292.09
410.38	2123.95
410.59	1822.69
410.80	1972.81
411.01	2120.26
411.22	2104.90
411.43	1946.39
411.64	1829.45
411.85	1987.76
412.06	1993.90
412.27	1669.09
412.47	1802.83
412.68	2131.94
412.89	2232.49
413.10	1836.21
413.31	1765.96
413.52	2475.58
413.73	2460.84
413.94	1835.80
414.15	2028.51
414.36	2046.94
414.57	1989.19
414.78	1769.04
414.99	1766.17
415.19	2225.94
415.40	2151.80
415.61	1959.91
415.82	1907.89
416.03	2238.43
416.24	2206.07
416.45	1889.05
416.66	1776.82
416.87	1900.51
417.08	2223.48
417.29	1810.20
417.50	1896.62
417.70	2253.79
417.91	2207.71
418.12	1920.18
418.33	1847.47
418.54	2208.73
418.75	2312.16
418.96	1976.70
419.17	1912.19
419.38	2355.37
419.59	2187.85
419.79	1923.45
420.00	1859.15
420.21	2622.42
420.42	2127.84
420.63	1808.56
420.84	1904.20
421.05	2170.64
421.26	2162.66
421.47	1789.31
421.67	2220.61
421.88	2023.19
422.09	1939.02
422.30	2086.47
422.51	1883.93
422.72	2476.61
422.93	2284.30
423.14	1907.68
423.35	1745.48
423.55	1899.90
423.76	1993.70
423.97	1881.67
424.18	1723.37
424.39	2084.22
424.60	2321.99
424.81	1880.44
425.02	1934.31
425.22	2110.43
425.43	2075.62
425.64	2047.76
425.85	1877.78
426.06	2468.62
426.27	2310.11
426.48	1981.41
426.68	1944.75
426.89	2277.55
427.10	2432.37
427.31	1898.67
427.52	1843.79
427.73	2252.56
427.94	2233.31
428.14	2016.23
428.35	1926.11
428.56	2423.77
428.77	2308.06
428.98	1901.13
429.19	1866.11
429.40	2052.47
429.60	2101.42
429.81	2002.71
430.02	1911.16
430.23	2135.42
430.44	2284.10
430.65	1824.54
430.85	1879.63
431.06	2203.20
431.27	1882.29
431.48	1891.30
431.69	1910.75
431.90	2185.18
432.10	2156.31
432.31	1930.21
432.52	1845.02
432.73	2592.93
432.94	2400.01
433.15	2021.14
433.35	1839.69
433.56	2338.99
433.77	2154.46
433.98	2116.37
434.19	1982.23
434.40	2295.98
434.60	2323.22
434.81	2134.39
435.02	2032.40
435.23	2185.39
435.44	2102.44
435.64	1831.50
435.85	1842.56
436.06	2128.04
436.27	2060.05
436.48	1807.33
436.68	1831.09
436.89	2477.22
437.10	2339.60
437.31	1983.05
437.52	2066.20
437.73	2277.55
437.93	2221.43
438.14	1999.23
438.35	1784.80
438.56	2091.18
438.77	2174.12
438.97	2064.76
439.18	1850.54
439.39	2331.41
439.60	1975.27
439.80	1858.53
440.01	1874.10
440.22	2073.36
440.43	2255.84
440.64	1795.04
440.84	1947.21
441.05	1974.65
441.26	2647.41
441.47	1963.39
441.68	1925.50
441.88	2242.73
442.09	2269.15
442.30	2226.14
442.51	2233.11
442.71	2285.12
442.92	2322.81
443.13	1994.31
443.34	1913.62
443.55	2046.94
443.75	2240.48
443.96	1860.17
444.17	1811.63
444.38	2329.56
444.58	2014.79
444.79	1993.08
445.00	1966.87
445.21	2111.05
445.41	2110.64
445.62	1701.66
445.83	1977.31
446.04	2159.17
446.24	1902.97
446.45	1728.08
446.66	1888.64
446.87	2223.27
447.07	2055.55
447.28	2116.99
447.49	1891.09
447.70	2293.93
447.90	2317.28
448.11	1958.27
448.32	2002.50
448.53	2402.68
448.73	2384.86
448.94	1897.85
449.15	2027.90
449.36	2160.81
449.56	2204.02
449.77	1892.94
449.98	1796.89
450.19	2037.73
450.39	2079.92
450.60	1958.47
450.81	1952.12
451.02	2115.96
451.22	2398.38
451.43	1840.92
451.64	1897.03
451.84	2077.25
452.05	2362.13
452.26	1908.30
452.47	1907.68
452.67	2064.15
452.88	2390.39
453.09	1811.84
453.30	1823.31
453.50	2278.57
453.71	2519.00
453.92	2008.24
454.12	2166.14
454.33	2183.54
454.54	2242.53
454.75	1963.80
454.95	1887.41
455.16	2208.32
455.37	2229.21
455.57	2025.44
455.78	1929.60
455.99	2117.39
456.19	2154.05
456.40	1822.49
456.61	1918.13
456.82	2155.08
457.02	2309.90
457.23	2076.03
457.44	2196.65
457.64	2199.52
457.85	2355.57
458.06	2016.84
458.26	2101.63
458.47	2161.84
458.68	2340.21
458.89	1873.48
459.09	2055.75
459.30	2515.32
459.51	2168.39
459.71	1789.72
459.92	1836.82
460.13	2295.57
460.33	2568.36
460.54	1964.21
460.75	1954.38
460.95	1999.02
461.16	2261.78
461.37	1944.34
461.57	1914.24
461.78	2153.03
461.99	1937.58
462.19	2130.71
462.40	1830.27
462.61	2521.46
462.81	2335.50
463.02	1854.85
463.23	1885.36
463.43	2244.98
463.64	2059.64
463.85	3188.89
464.05	1890.68
464.26	2712.94
464.47	2381.58
464.67	2058.21
464.88	2019.09
465.09	2107.16
465.29	2277.75
465.50	2140.95
465.71	2053.50
465.91	2140.54
466.12	2161.02
466.33	1996.16
466.53	1879.42
466.74	2414.96
466.94	2108.38
467.15	1959.91
467.36	2097.32
467.56	1988.17
467.77	2195.83
467.98	1968.30
468.18	1921.40
468.39	2040.39
468.60	2477.43
468.80	1913.21
469.01	1825.56
469.21	2234.95
469.42	2344.11
469.63	1926.52
469.83	1872.87
470.04	2242.53
470.25	2395.30
470.45	2040.39
470.66	1897.65
470.86	2206.69
471.07	2074.39
471.28	1999.84
471.48	1986.73
471.69	2183.54
471.90	2901.15
472.10	2135.21
472.31	2089.54
472.51	2235.97
472.72	2233.51
472.93	1990.63
473.13	2115.96
473.34	2279.39
473.54	2214.88
473.75	2017.25
473.96	2148.73
474.16	2123.33
474.37	2227.37
474.57	2025.24
474.78	1862.42
474.99	2222.87
475.19	2153.03
475.40	1940.66
475.60	1930.42
475.81	2555.05
476.02	2322.40
476.22	2184.77
476.43	2226.76
476.63	2231.67
476.84	2409.23
477.05	1853.41
477.25	1905.02
477.46	2711.92
477.66	2177.20
477.87	1861.40
478.08	1917.51
478.28	2298.84
478.49	2103.88
478.69	1893.14
478.90	1915.87
479.10	2244.37
479.31	2420.70
479.52	1995.34
479.72	2054.32
479.93	2291.47
480.13	2124.56
480.34	1940.66
480.54	2029.54
480.75	2043.87
480.96	2358.24
481.16	1891.50
481.37	2046.74
481.57	2303.76
481.78	2219.38
481.98	2125.59
482.19	2036.91
482.40	2464.12
482.60	2245.60
482.81	2045.51
483.01	1826.38
483.22	2337.14
483.42	2316.66
483.63	1998.00
483.83	1929.60
484.04	2085.65
484.24	2321.58
484.45	2082.37
484.66	1887.41
484.86	2228.60
485.07	2038.14
485.27	1980.18
485.48	1907.07
485.68	2371.75
485.89	2057.59
486.09	2042.03
486.30	1897.24
486.50	2163.06
486.71	2146.07
486.91	2017.66
487.12	2230.65
487.33	2804.69
487.53	2877.81
487.74	2466.78
487.94	2442.41
488.15	2465.55
488.35	2395.92
488.56	2056.98
488.76	1966.66
488.97	2192.56
489.17	2304.99
489.38	2066.20
489.58	1972.60
489.79	2263.82
489.99	2209.14
490.20	1966.05
490.40	2053.50
490.61	2222.05
490.81	2062.92
491.02	2015.61
491.22	1984.69
491.43	2270.58
491.63	2132.55
491.84	2084.22
492.04	1853.41
492.25	2233.92
492.45	2108.18
492.66	1911.37
492.86	1849.11
493.07	2101.42
493.27	2523.30
493.48	1807.95
493.68	1904.61
493.89	2096.10
494.09	2266.90
494.30	1936.15
494.50	2150.16
494.71	2254.40
494.91	1874.10
495.12	1948.64
495.32	2024.62
495.53	2166.55
495.73	1942.70
495.94	2116.58
496.14	1988.99
496.35	2645.77
496.55	2251.54
496.76	1983.25
496.96	2003.73
497.17	2175.35
497.37	2237.61
497.58	1919.56
497.78	1868.16
497.98	2109.41
498.19	2116.58
498.39	1913.01
498.60	2005.99
498.80	1837.23
499.01	2258.70
499.21	1854.85
499.42	1987.96
499.62	2091.18
499.83	2532.31
500.03	1833.55
500.24	2034.86
500.44	2360.08
500.64	2324.24
500.85	1942.29
501.05	2034.04
501.26	1881.26
501.46	2380.56
501.67	1891.91
501.87	1853.21
502.08	2005.37
502.28	2095.69
502.48	2009.88
502.69	2032.20
502.89	1889.05
503.10	1997.38
503.30	2021.55
503.51	1964.00
503.71	1901.54
503.92	2224.91
504.12	1969.94
504.32	1885.77
504.53	2254.81
504.73	2221.84
504.94	2063.12
505.14	2174.33
505.35	2253.99
505.55	2227.78
505.75	1967.28
505.96	2135.21
506.16	2519.41
506.37	2047.76
506.57	1897.65
506.78	2039.57
506.98	2299.05
507.18	1901.54
507.39	1875.73
507.59	1940.66
507.80	1991.85
508.00	2152.42
508.20	2143.81
508.41	1933.49
508.61	2351.68
508.82	2300.28
509.02	2074.59
509.22	1896.21
509.43	1973.42
509.63	2016.02
509.84	1966.46
510.04	1814.91
510.24	2413.33
510.45	2262.19
510.65	1847.06
510.86	1998.20
511.06	1988.58
511.26	2282.26
511.47	2132.55
511.67	1898.47
511.88	2227.37
512.08	2307.86
512.28	1866.31
512.49	1987.14
512.69	2180.47
512.90	2189.69
513.10	1940.25
513.30	1999.23
513.51	2230.44
513.71	2431.76
513.91	2032.61
514.12	2023.80
514.32	2274.47
514.53	2021.75
514.73	2024.21
514.93	1945.37
515.14	2113.30
515.34	2339.19
515.54	1908.91
515.75	2011.11
515.95	2205.05
516.15	2334.68
516.36	1975.06
516.56	2017.66
516.77	1793.41
516.97	2214.26
517.17	1953.76
517.38	2038.14
517.58	2382.40
517.78	2054.93
517.99	2027.28
518.19	1928.78
518.39	2337.96
518.60	2034.66
518.80	1821.26
519.00	1998.20
519.21	2107.16
519.41	2447.73
519.61	1864.68
519.82	2038.14
520.02	2157.94
520.22	2110.02
520.43	1931.85
520.63	1978.34
520.83	2004.35
521.04	1830.47
521.24	2027.90
521.44	1987.35
521.65	1970.76
521.85	2247.85
522.05	1886.79
522.26	1899.70
522.46	2460.43
522.66	2276.73
522.87	1956.83
523.07	2161.43
523.27	2067.01
523.48	2368.68
523.68	1953.76
523.88	2034.45
524.09	2294.34
524.29	2166.75
524.49	1814.50
524.70	2021.75
524.90	2361.31
525.10	2225.32
525.31	1834.37
525.51	1845.42
525.71	2272.63
525.91	2225.12
526.12	1959.91
526.32	1870.41
526.52	2065.17
526.73	2012.74
526.93	2037.93
527.13	1834.98
527.34	2134.80
527.54	2123.33
527.74	1982.64
527.94	1864.27
528.15	1941.88
528.35	2162.86
528.55	2058.82
528.76	1987.96
528.96	1873.48
529.16	2305.81
529.36	2102.65
529.57	1888.64
529.77	2354.14
529.97	1996.77
530.18	2045.72
530.38	1946.18
530.58	2230.03
530.78	2156.31
530.99	1929.19
531.19	2028.92
531.39	1988.99
531.60	2112.48
531.80	2015.20
532.00	2128.25
532.20	2135.21
532.41	2008.85
532.61	1916.90
532.81	1895.19
533.01	2083.81
533.22	2221.64
533.42	2111.25
533.62	1826.79
533.82	2374.01
534.03	2080.94
534.23	2068.24
534.43	1887.82
534.63	2070.70
534.84	2185.39
535.04	2076.03
535.24	2010.08
535.44	2589.04
535.65	2063.33
535.85	1932.05
536.05	1898.06
536.25	2133.78
536.46	1976.09
536.66	2120.06
536.86	2008.03
537.06	2254.81
537.27	2376.87
537.47	2006.39
537.67	1943.11
537.87	2385.47
538.08	2077.25
538.28	1859.97
538.48	1854.23
538.68	2113.09
538.88	2217.95
539.09	1819.21
539.29	1957.24
539.49	2280.21
539.69	2179.04
539.90	2045.72
540.10	1851.36
540.30	2383.22
540.50	2046.74
540.70	1843.58
540.91	1876.96
541.11	2281.23
541.31	2403.50
541.51	2018.68
541.72	2025.24
541.92	2146.68
542.12	2031.99
542.32	2022.78
542.52	1957.04
542.73	2016.23
542.93	2246.21
543.13	1933.28
543.33	2047.35
543.53	2292.70
543.74	2221.43
543.94	1939.22
544.14	2026.06
544.34	2304.37
544.54	2116.99
544.75	2029.95
544.95	2136.65
545.15	2251.54
545.35	2400.63
545.55	2072.34
545.75	1970.35
545.96	2561.39
546.16	2035.27
546.36	1973.83
546.56	1985.51
546.76	2336.32
546.97	2457.56
547.17	2021.14
547.37	2051.86
547.57	2072.75
547.77	2261.57
547.97	2052.88
548.18	2033.43
548.38	2135.83
548.58	2358.44
548.78	1901.33
548.98	1953.56
549.18	2254.81
549.39	2373.60
549.59	2031.18
549.79	2014.59
549.99	2385.06
550.19	2273.86
550.39	2140.13
550.60	1983.87
550.80	2176.38
551.00	2248.46
551.20	1944.34
551.40	1979.36
551.60	2204.23
551.80	2176.99
552.01	2042.23
552.21	1986.53
552.41	2174.12
552.61	2461.45
552.81	2054.11
553.01	1896.42
553.21	2225.12
553.42	1986.73
553.62	1954.79
553.82	1880.24
554.02	2420.08
554.22	2293.93
554.42	1890.68
554.62	2077.25
554.83	2382.40
555.03	2387.52
555.23	2009.88
555.43	2207.51
555.63	2150.16
555.83	2154.67
556.03	2075.62
556.23	1850.34
556.44	2110.23
556.64	2319.94
556.84	1700.02
557.04	1982.43
557.24	2145.66
557.44	2150.57
557.64	2036.70
557.84	1897.65
558.04	2064.56
558.25	2282.26
558.45	1880.85
558.65	1987.35
558.85	2166.75
559.05	1858.12
559.25	1967.07
559.45	2038.55
559.65	2479.68
559.85	2968.74
560.05	2013.56
560.26	2056.16
560.46	2059.03
560.66	2001.07
560.86	1959.91
561.06	1898.26
561.26	2349.84
561.46	2223.27
561.66	1937.38
561.86	2097.94
562.06	1996.77
562.26	2118.62
562.47	2027.08
562.67	1880.85
562.87	2244.98
563.07	1900.51
563.27	2017.86
563.47	1995.95
563.67	2053.09
563.87	2217.34
564.07	1935.94
564.27	1933.08
564.47	2147.50
564.67	2193.17
564.87	1938.61
565.08	2019.91
565.28	2046.13
565.48	2220.00
565.68	2030.97
565.88	2124.15
566.08	2480.50
566.28	2125.79
566.48	1846.24
566.68	1982.43
566.88	2098.35
567.08	2314.20
567.28	1991.44
567.48	2000.25
567.68	2220.41
567.88	1911.78
568.08	1984.07
568.28	2127.84
568.48	2093.02
568.68	2318.71
568.89	2052.47
569.09	1871.64
569.29	2289.01
569.49	2257.68
569.69	1900.92
569.89	1909.94
570.09	1825.97
570.29	2012.74
570.49	1895.60
570.69	1945.78
570.89	2274.68
571.09	2469.65
571.29	1872.05
571.49	2152.62
571.69	2210.78
571.89	2211.40
572.09	1986.73
572.29	2046.33
572.49	2293.93
572.69	2258.70
572.89	2016.63
573.09	1710.05
573.29	2120.47
573.49	2119.24
573.69	1982.64
573.89	2019.09
574.09	2051.66
574.29	2334.27
574.49	2009.26
574.69	1887.20
574.89	1933.49
575.09	1988.37
575.29	1839.28
575.49	1990.42
575.69	2203.82
575.89	1933.69
576.09	1964.82
576.29	2028.51
576.49	1940.45
576.69	2096.30
576.89	1968.10
577.09	2007.62
577.29	1877.58
577.49	2430.53
577.69	1936.56
577.89	2122.31
578.09	2146.27
578.29	1880.65
578.49	2004.14
578.69	1911.78
578.89	2300.48
579.09	2136.44
579.29	1895.40
579.49	2095.48
579.69	2032.20
579.89	2466.98
580.09	1773.95
580.29	1841.53
580.49	2017.86
580.69	1967.48
580.89	1935.54
581.09	1959.09
581.29	2051.86
581.49	2121.49
581.69	1875.94
581.89	1914.65
582.09	1965.85
582.28	1991.44
582.48	2048.99
582.68	2097.94
582.88	2379.33
583.08	2064.56
583.28	2005.58
583.48	2001.07
583.68	2006.19
583.88	2137.67
584.08	1996.77
584.28	2041.01
584.48	2497.50
584.68	2204.02
584.88	1966.46
585.08	2202.18
585.28	2274.06
585.48	2317.48
585.68	2067.63
585.87	2114.73
586.07	2233.51
586.27	2133.78
586.47	2057.18
586.67	1986.12
586.87	2162.25
587.07	2042.85
587.27	1870.00
587.47	2059.03
587.67	2444.87
587.87	2586.79
588.07	2040.39
588.27	1912.60
588.46	2257.89
588.66	2246.42
588.86	1934.92
589.06	2047.35
589.26	2282.67
589.46	2250.31
589.66	1932.67
589.86	1888.23
590.06	2039.78
590.26	2178.01
590.46	1930.01
590.66	2040.80
590.85	1986.53
591.05	2170.23
591.25	1883.72
591.45	1977.11
591.65	2212.22
591.85	2150.37
592.05	1883.11
592.25	2045.92
592.45	2296.59
592.64	2056.16
592.84	2013.15
593.04	1901.33
593.24	2549.93
593.44	2032.40
593.64	2019.71
593.84	2070.70
594.04	2063.12
594.24	2388.75
594.43	1959.50
594.63	1978.54
594.83	2298.84
595.03	2292.70
595.23	1891.71
595.43	1853.82
595.63	2025.65
595.83	2290.86
596.02	1799.75
596.22	1969.94
596.42	2184.77
596.62	2119.44
596.82	1952.53
597.02	2019.30
597.22	2377.08
597.41	2153.23
597.61	1942.09
597.81	2082.78
598.01	2234.74
598.21	2031.99
598.41	1855.87
598.61	1871.23
598.80	2119.65
599.00	2154.67
599.20	2124.15
599.40	1975.27
599.60	2063.12
599.80	2279.18
599.99	2075.41
600.19	1946.39
600.39	2116.58
600.59	2231.88
600.79	2045.92
600.99	2002.50
601.19	2419.47
601.38	2484.60
601.58	2054.11
601.78	1758.39
601.98	2207.10
602.18	2174.12
602.37	2189.69
602.57	2008.85
602.77	2220.82
602.97	2122.31
603.17	2147.91
603.37	2027.49
603.56	2267.10
603.76	2222.25
603.96	2002.09
604.16	2012.95
604.36	2359.06
604.56	2276.52
604.75	1899.90
604.95	2005.58
605.15	2339.39
605.35	2299.25
605.55	1941.27
605.74	1902.36
605.94	2313.80
606.14	2150.78
606.34	1998.82
606.54	2015.00
606.73	2082.78
606.93	2255.02
607.13	1932.87
607.33	2061.28
607.53	2397.76
607.72	2369.50
607.92	2085.86
608.12	2149.96
608.32	2109.61
608.51	2241.50
608.71	1890.07
608.91	2064.76
609.11	2239.45
609.31	2096.10
609.50	1946.39
609.70	2193.17
609.90	2315.64
610.10	2282.26
610.29	1928.78
610.49	1875.53
610.69	2227.37
610.89	2160.81
611.09	1962.36
611.28	2169.00
611.48	2312.57
611.68	2103.47
611.88	1961.54
612.07	1903.79
612.27	2260.96
612.47	2005.58
612.67	2014.38
612.86	2114.94
613.06	2148.11
613.26	1881.06
613.46	1923.25
613.65	2035.07
613.85	2622.22
614.05	2249.08
614.25	2068.24
614.44	1983.25
614.64	2093.23
614.84	2014.79
615.04	1913.21
615.23	1947.21
615.43	2224.91
615.63	2226.35
615.83	1915.67
616.02	1832.73
616.22	2222.66
616.42	1923.04
616.62	1863.65
616.81	2005.37
617.01	2143.61
617.21	2092.20
617.41	1836.41
617.60	2026.26
617.80	2212.01
618.00	2252.56
618.19	2073.77
618.39	1982.64
618.59	2215.29
618.79	2134.19
618.98	1838.87
619.18	1996.56
619.38	2526.58
619.57	2105.31
619.77	1977.72
619.97	1973.42
620.17	2023.39
620.36	1953.97
620.56	2137.67
620.76	1850.75
620.95	1936.35
621.15	2042.03
621.35	1877.78
621.54	1969.53
621.74	2153.44
621.94	2026.26
622.14	1851.16
622.33	1805.69
622.53	2078.48
622.73	2074.39
622.92	1859.76
623.12	1990.63
623.32	2461.45
623.51	2240.89
623.71	1865.70
623.91	2158.15
624.10	1979.57
624.30	2152.82
624.50	1828.22
624.69	1824.94
624.89	2825.17
625.09	2078.07
625.29	1776.00
625.48	1862.42
625.68	2161.84
625.88	2320.35
626.07	2051.25
626.27	1893.14
626.47	2067.42
626.66	1872.46
626.86	2004.35
627.06	2005.58
627.25	2111.46
627.45	2412.92
627.64	1992.47
627.84	2123.95
628.04	1996.56
628.23	2490.74
628.43	1869.59
628.63	1883.31
628.82	2065.17
629.02	2434.01
629.22	2003.73
629.41	2132.96
629.61	2140.74
629.81	2451.42
630.00	1907.89
630.20	1886.79
630.40	2150.16
630.59	2172.08
630.79	1982.02
630.98	1935.94
631.18	2081.35
631.38	2109.00
631.57	2111.87
631.77	1842.35
631.97	2163.06
632.16	2200.34
632.36	1999.43
632.56	2000.46
632.75	2151.39
632.95	2317.28
633.14	1888.43
633.34	2135.62
633.54	1848.09
633.73	2073.77
633.93	1933.28
634.12	1841.33
634.32	2597.85
634.52	2129.68
634.71	1831.09
634.91	2014.18
635.11	1935.94
635.30	2024.21
635.50	1989.60
635.69	1857.92
635.89	2447.12
636.09	2277.14
636.28	1883.52
636.48	1912.39
636.67	2214.26
636.87	2212.63
637.07	2033.43
637.26	1929.80
637.46	2158.56
637.65	2266.90
637.85	2027.90
638.04	1900.72
638.24	2033.63
638.44	2165.93
638.63	2004.35
638.83	1946.59
639.02	2187.23
639.22	2197.47
639.42	1928.78
639.61	1972.19
639.81	2118.21
640.00	2099.99
640.20	2108.38
640.39	2009.47
640.59	2449.99
640.79	2230.44
640.98	2015.82
641.18	1886.18
641.37	2069.68
641.57	1973.01
641.76	1979.16
641.96	1752.04
642.15	2156.10
642.35	2019.30
642.55	2024.21
642.74	1823.51
642.94	2208.73
643.13	2347.59
643.33	1922.84
643.52	1917.10
643.72	2040.39
643.91	2112.68
644.11	1865.90
644.31	1908.30
644.50	2031.18
644.70	2308.06
644.89	1989.40
645.09	2057.39
645.28	2131.53
645.48	2181.29
645.67	1891.71
645.87	1776.41
646.06	2032.81
646.26	2181.09
646.45	1725.00
646.65	1739.75
646.84	2465.14
647.04	2066.40
647.24	1847.68
647.43	1948.44
647.63	2169.21
647.82	2388.55
648.02	1883.31
648.21	1940.45
648.41	2357.83
648.60	2073.57
648.80	2089.13
648.99	1981.00
649.19	2045.10
649.38	1885.77
649.58	1966.25
649.77	2041.21
649.97	2307.24
650.16	2222.66
650.36	1734.42
650.55	2141.36
650.75	2195.83
650.94	2393.26
651.14	1970.15
651.33	2029.54
651.53	2452.65
651.72	2001.07
651.92	1938.20
652.11	1788.70
652.31	2218.15
652.50	2194.60
652.70	2008.44
652.89	1839.69
653.09	2372.16
653.28	2059.64
653.48	1756.13
653.67	1808.36
653.87	2664.00
654.06	2136.44
654.25	2189.48
654.45	1906.86
654.64	2056.57
654.84	2079.51
655.03	1787.67
655.23	2110.02
655.42	2265.67
655.62	2469.85
655.81	2098.76
656.01	1954.79
656.20	2302.33
656.40	2414.96
656.59	2043.26
656.79	2138.49
656.98	2145.45
657.17	2283.28
657.37	1987.76
657.56	1958.47
657.76	2212.22
657.95	2312.57
658.15	1645.75
658.34	1974.86
658.54	2143.40
658.73	1923.66
658.92	1965.64
659.12	1968.10
659.31	2206.69
659.51	1944.75
659.70	2025.85
659.90	1879.01
660.09	2281.64
660.29	2078.28
660.48	1861.19
660.67	2108.18
660.87	2012.13
661.06	2164.09
661.26	2030.77
661.45	2078.07
661.65	2190.10
661.84	2032.20
662.03	1908.50
662.23	1927.14
662.42	2476.40
662.62	1953.15
662.81	1834.16
663.00	1958.68
663.20	2156.72
663.39	2241.91
663.59	2052.68
663.78	1945.16
663.97	2068.04
664.17	2292.29
664.36	1862.01
664.56	1960.93
664.75	2244.98
664.94	2213.85
665.14	2032.20
665.33	1956.83
665.53	2116.78
665.72	2068.45
665.91	2069.47
666.11	1982.23
666.30	2148.52
666.50	2027.08
666.69	2000.05
666.88	1894.17
667.08	2117.39
667.27	2043.87
667.47	1943.11
667.66	1918.95
667.85	2269.56
668.05	2128.86
668.24	1885.36
668.43	2144.22
668.63	2035.68
668.82	2297.41
669.02	2043.67
669.21	1940.86
669.40	1918.33
669.60	2428.07
669.79	1821.46
669.98	2574.09
670.18	1958.27
670.37	1929.39
670.56	1969.74
670.76	2032.20
670.95	2074.80
671.15	2251.33
671.34	1963.39
671.53	1949.05
671.73	2021.55
671.92	1998.41
672.11	1887.61
672.31	1921.81
672.50	2188.25
672.69	1913.42
672.89	1735.45
673.08	1950.28
673.27	2249.69
673.47	2149.14
673.66	2000.05
673.85	1849.93
674.05	2136.65
674.24	2111.46
674.43	1824.54
674.63	1990.42
674.82	2496.68
675.01	1732.99
675.21	2029.13
675.40	1911.98
675.59	1989.19
675.79	2348.82
675.98	1920.99
676.17	2126.00
676.37	2152.42
676.56	2009.88
676.75	1961.75
676.95	1987.96
677.14	2039.37
677.33	2288.20
677.52	1842.56
677.72	1898.06
677.91	2188.87
678.10	1890.28
678.30	1885.36
678.49	1888.43
678.68	2476.61
678.88	1825.35
679.07	2128.86
679.26	1934.51
679.45	2426.23
679.65	2332.64
679.84	1793.41
680.03	1814.50
680.23	2054.93
680.42	2548.90
680.61	1873.07
680.81	1916.90
681.00	2145.04
681.19	2184.77
681.38	2052.88
681.58	2037.32
681.77	2046.54
681.96	2253.58
682.15	1881.67
682.35	2014.38
682.54	2183.54
682.73	1932.26
682.93	1855.25
683.12	1844.81
683.31	2240.07
683.50	2580.44
683.70	1849.32
683.89	2005.37
684.08	1945.37
684.27	2303.35
684.47	1843.99
684.66	1913.62
684.85	2471.69
685.04	2337.55
685.24	1896.62
685.43	1914.85
685.62	1821.87
685.81	2167.16
686.01	2028.31
686.20	1848.09
686.39	1869.39
686.58	2436.06
686.78	1968.92
686.97	1939.43
687.16	2299.87
687.35	2154.87
687.55	1900.31
687.74	1977.72
687.93	1888.23
688.12	2054.52
688.32	1951.71
688.51	1803.85
688.70	2147.50
688.89	1908.71
689.08	1804.06
689.28	1899.29
689.47	2125.59
689.66	2129.48
689.85	2050.84
690.05	1869.59
690.24	2003.12
690.43	2139.10
690.62	1999.23
690.81	1878.60
691.01	2141.77
691.20	2038.55
691.39	1818.60
691.58	1983.46
691.77	2398.17
691.97	2131.94
692.16	2006.80
692.35	1944.55
692.54	2025.24
692.73	2179.45
692.93	1978.75
693.12	2019.30
693.31	2173.30
693.50	2126.20
693.69	2030.97
693.89	1906.45
694.08	2319.73
694.27	2355.98
694.46	1922.22
694.65	1949.46
694.85	2223.68
695.04	2160.81
695.23	1902.56
695.42	2090.36
695.61	2195.22
695.80	2330.59
696.00	2289.83
696.19	2296.59
696.38	2115.55
696.57	2260.34
696.76	2140.33
696.95	2016.23
697.15	2381.58
697.34	2416.40
697.53	1955.61
697.72	2056.57
697.91	2074.18
698.10	2379.94
698.30	1942.70
698.49	1928.98
698.68	2151.39
698.87	2053.09
699.06	1872.25
699.25	1967.69
699.45	2321.99
699.64	2133.98
699.83	2116.37
700.02	1914.44
700.21	2210.37
700.40	2052.27
700.59	1923.66
700.79	1962.77
700.98	2203.00
701.17	1982.43
701.36	1868.77
701.55	1899.08
701.74	2299.05
701.93	1892.94
702.12	1884.75
702.32	1862.63
702.51	2231.47
702.70	2179.86
702.89	1982.02
703.08	1939.22
703.27	2302.53
703.46	2171.67
703.65	1852.39
703.85	1830.68
704.04	1991.24
704.23	2265.26
704.42	1857.71
704.61	1896.62
704.80	2355.98
704.99	2000.66
705.18	2012.33
705.37	1932.05
705.57	2167.98
705.76	2354.96
705.95	1961.75
706.14	2320.55
706.33	2496.88
706.52	2700.86
706.71	2140.95
706.90	2020.32
707.09	2268.33
707.28	2225.94
707.47	1906.25
707.67	2084.83
707.86	1998.82
708.05	2278.57
708.24	1945.16
708.43	1989.81
708.62	2039.78
708.81	1982.02
709.00	1877.78
709.19	1881.26
709.38	2265.05
709.57	1887.61
709.76	1975.06
709.96	1875.73
710.15	2328.75
710.34	2081.97
710.53	2068.04
710.72	1922.02
710.91	2314.00
711.10	2222.66
711.29	2015.82
711.48	1920.18
711.67	1915.87
711.86	2168.80
712.05	1791.56
712.24	1857.92
712.43	2213.65
712.62	2374.62
712.81	1960.73
713.00	2125.79
713.19	1924.27
713.39	2163.27
713.58	1795.45
713.77	1995.75
713.96	2173.30
714.15	2054.73
714.34	1919.15
714.53	1769.04
714.72	2444.46
714.91	1922.22
715.10	2015.82
715.29	1845.63
715.48	2570.41
715.67	2207.30
715.86	1945.16
716.05	1901.54
716.24	2034.04
716.43	1990.22
716.62	1835.39
716.81	1838.67
717.00	2050.63
717.19	2368.07
717.38	1900.51
717.57	1918.33
717.76	1863.86
717.95	2296.59
718.14	1960.32
718.33	1979.36
718.52	1834.16
718.71	1852.18
718.90	1854.23
719.09	1886.79
719.28	2110.02
719.47	2264.03
719.66	2003.73
719.85	2037.11
720.04	2007.21
720.23	2088.11
720.42	1867.34
720.61	2016.43
720.80	1869.80
720.99	2134.39
721.18	1916.49
721.37	1850.95
721.56	2034.86
721.75	2235.56
721.94	1871.23
722.13	1902.97
722.32	2050.84
722.51	2242.94
722.70	1974.24
722.89	2031.79
723.08	2075.62
723.27	2250.72
723.46	2007.42
723.65	1999.43
723.84	2015.41
724.03	2327.11
724.22	1836.41
724.41	1987.55
724.60	2046.13
724.79	2274.47
724.98	1992.88
725.16	1925.30
725.35	2197.47
725.54	1908.91
725.73	1964.21
725.92	1974.65
726.11	2004.96
726.30	2221.84
726.49	1850.75
726.68	1907.68
726.87	2165.52
727.06	2305.19
727.25	1921.40
727.44	2027.28
727.63	2116.17
727.82	2025.24
728.01	1964.21
728.20	2021.96
728.38	2335.30
728.57	2014.59
728.76	1911.57
728.95	2035.27
729.14	1878.60
729.33	1921.40
729.52	1709.23
729.71	1847.27
729.90	1939.02
730.09	1996.36
730.28	1884.13
730.47	1872.66
730.66	2259.11
730.84	2080.12
731.03	1927.34
731.22	1975.47
731.41	2101.83
731.60	2143.20
731.79	1772.72
731.98	1834.37
732.17	2206.48
732.36	2175.56
732.55	1857.30
732.73	1790.95
732.92	2309.70
733.11	2163.88
733.30	1857.71
733.49	1787.47
733.68	2198.70
733.87	2131.53
734.06	1762.69
734.25	1810.81
734.43	1956.83
734.62	2109.41
734.81	1914.24
735.00	1842.97
735.19	2021.96
735.38	2160.81
735.57	1780.50
735.76	1992.06
735.94	2130.30
736.13	2427.87
736.32	1944.96
736.51	1927.34
736.70	2410.66
736.89	2377.49
737.08	2086.27
737.27	2241.50
737.45	2549.11
737.64	2384.65
737.83	2402.06
738.02	2363.56
738.21	2580.85
738.40	2596.82
738.59	2102.04
738.77	2167.77
738.96	2087.70
739.15	2207.30
739.34	2150.57
739.53	2073.57
739.72	2342.26
739.90	2320.14
740.09	1896.01
740.28	1966.87
740.47	2218.56
740.66	2225.12
740.85	1822.90
741.03	1912.60
741.22	1930.01
741.41	2038.96
741.60	1782.55
741.79	1976.90
741.98	2314.20
742.16	2419.47
742.35	1964.82
742.54	1966.25
742.73	2427.87
742.92	2018.68
743.10	1765.96
743.29	1869.80
743.48	2461.45
743.67	1998.61
743.86	1752.86
744.05	1811.63
744.23	1906.66
744.42	1935.13
744.61	1953.97
744.80	1783.99
744.99	1990.22
745.17	1790.33
745.36	1757.16
745.55	2000.87
745.74	2088.93
745.93	1953.35
746.11	1857.51
746.30	1802.01
746.49	2256.45
746.68	1915.47
746.86	1942.50
747.05	1877.58
747.24	2207.30
747.43	2220.61
747.62	1826.99
747.80	1865.09
747.99	2307.24
748.18	2201.77
748.37	1942.09
748.56	1986.73
748.74	2266.90
748.93	2110.23
749.12	2142.99
749.31	2451.83
749.49	2806.54
749.68	3010.31
749.87	3119.06
750.06	2938.63
750.24	3097.35
750.43	3037.55
750.62	2811.86
750.81	2952.15
750.99	3198.72
751.18	3189.10
751.37	2726.05
751.56	2763.32
751.74	3146.29
751.93	3213.06
752.12	2291.06
752.31	2234.95
752.49	2327.11
752.68	2603.79
752.87	2097.12
753.06	2070.70
753.24	2142.18
753.43	2359.06
753.62	1912.19
753.81	1908.91
753.99	2394.28
754.18	2149.96
754.37	1874.92
754.55	1926.93
754.74	2415.17
754.93	1811.22
755.12	1881.88
755.30	1816.75
755.49	2287.38
755.68	2121.49
755.86	2013.56
756.05	1815.11
756.24	2345.13
756.43	1905.02
756.61	1882.08
756.80	1964.21
756.99	2317.07
757.17	2053.29
757.36	1861.19
757.55	1884.75
757.74	2174.33
757.92	2091.80
758.11	1835.39
758.30	1749.78
758.48	2056.78
758.67	1882.90
758.86	1936.15
759.04	1803.24
759.23	2015.82
759.42	2060.87
759.60	1852.39
759.79	1921.81
759.98	2030.15
760.16	1973.01
760.35	1868.57
760.54	1845.83
760.73	2125.79
760.91	1846.24
761.10	1888.02
761.29	1979.16
761.47	2078.69
761.66	2466.98
761.85	1951.10
762.03	2122.11
762.22	2358.03
762.41	2760.87
762.59	3014.81
762.78	3227.19
762.97	3915.92
763.15	3857.76
763.34	3508.99
763.52	2993.52
763.71	3123.36
763.90	3196.67
764.08	2730.76
764.27	2727.08
764.46	2967.92
764.64	2566.51
764.83	2448.76
765.02	2354.34
765.20	2491.76
765.39	2467.80
765.58	1986.53
765.76	2032.61
765.95	2213.04
766.13	2129.27
766.32	1928.98
766.51	1910.75
766.69	2864.29
766.88	2123.33
767.07	1801.60
767.25	1734.22
767.44	2256.86
767.62	2300.07
767.81	1814.71
768.00	1906.66
768.18	2078.28
768.37	1966.05
768.56	1745.69
768.74	1870.61
768.93	1881.88
769.11	2127.23
769.30	1991.65
769.49	1870.41
769.67	2030.36
769.86	2000.46
770.04	1884.95
770.23	1883.93
770.42	2316.25
770.60	2089.34
770.79	1854.44
770.97	1881.88
771.16	2328.95
771.35	2208.53
771.53	2090.77
771.72	2164.91
771.90	2449.17
772.09	2735.47
772.27	2439.95
772.46	2214.06
772.65	2531.90
772.83	2384.65
773.02	2267.31
773.20	2031.18
773.39	2342.06
773.58	2343.29
773.76	1941.68
773.95	1948.64
774.13	2229.83
774.32	2088.93
774.50	1907.89
774.69	1998.82
774.87	2060.46
775.06	2515.11
775.25	1902.97
775.43	1938.81
775.62	2153.44
775.80	2203.41
775.99	1960.93
776.17	1910.96
776.36	2117.19
776.54	2331.82
776.73	1870.41
776.92	1988.99
777.10	2289.01
777.29	2171.05
777.47	1893.55
777.66	1919.36
777.84	2133.37
778.03	2080.53
778.21	1853.62
778.40	1984.89
778.58	2194.81
778.77	2297.21
778.95	1818.39
779.14	1881.47
779.32	2407.80
779.51	2269.15
779.70	1865.90
779.88	1801.80
780.07	2010.70
780.25	2543.58
780.44	1954.38
780.62	2019.09
780.81	2199.72
780.99	2165.32
781.18	1881.47
781.36	1874.92
781.55	2065.79
781.73	2342.47
781.92	1814.91
782.10	1829.25
782.29	2191.53
782.47	2388.14
782.66	1891.91
782.84	1771.49
783.03	1949.67
783.21	2311.34
783.40	1864.06
783.58	1822.69
783.77	1964.82
783.95	2079.92
784.14	1839.69
784.32	1952.33
784.51	2312.16
784.69	1953.97
784.88	1786.44
785.06	1875.12
785.24	1848.29
785.43	2227.78
785.61	1985.71
785.80	1864.88
785.98	2179.45
786.17	2094.66
786.35	1797.71
786.54	1999.64
786.72	2231.26
786.91	2254.40
787.09	1925.91
787.28	1782.55
787.46	2099.37
787.65	2215.08
787.83	1785.01
788.01	1913.83
788.20	1837.03
788.38	2039.98
788.57	1857.51
788.75	1842.35
788.94	2413.53
789.12	2305.81
789.31	1952.74
789.49	2022.37
789.67	1987.35
789.86	2156.51
790.04	1843.79
790.23	1772.72
790.41	2443.23
790.60	2018.68
790.78	1856.07
790.96	1895.60
791.15	2182.52
791.33	2055.55
791.52	1890.89
791.70	1805.49
791.89	2085.24
792.07	2230.85
792.25	1940.25
792.44	1785.21
792.62	2261.37
792.81	2007.62
792.99	1882.08
793.17	1861.81
793.36	1945.37
793.54	2388.75
793.73	2093.64
793.91	2001.28
794.10	2445.89
794.28	2569.59
794.46	2229.21
794.65	2287.79
794.83	2176.99
795.01	2302.53
795.20	2246.01
795.38	2153.64
795.57	2316.87
795.75	2308.88
795.93	2056.16
796.12	2037.32
796.30	2274.06
796.49	2240.27
796.67	1864.68
796.85	2019.09
797.04	2118.01
797.22	2196.86
797.40	1823.92
797.59	1940.45
797.77	2119.03
797.96	1939.63
798.14	1827.40
798.32	1868.16
798.51	2222.05
798.69	2422.54
798.87	1918.54
799.06	1891.50
799.24	1839.28
799.42	2226.35
799.61	2010.29
799.79	2007.42
799.98	2547.06
800.16	2170.03
800.34	2202.18
800.53	2367.25
800.71	2501.18
800.89	2966.69
801.08	2638.40
801.26	2642.90
801.44	2515.93
801.63	2367.45
801.81	2273.45
801.99	2206.69
802.18	2302.74
802.36	2348.82
802.54	2213.65
802.73	1983.87
802.91	2247.85
803.09	2248.26
803.28	2132.96
803.46	2061.89
803.64	2432.99
803.83	1935.94
804.01	1866.72
804.19	1816.75
804.38	2221.43
804.56	2147.91
804.74	1920.18
804.92	1942.70
805.11	1882.08
805.29	2258.50
805.47	1883.72
805.66	1764.53
805.84	1863.65
806.02	2221.02
806.21	1864.68
806.39	2105.11
806.57	2269.15
806.76	2209.96
806.94	1936.76
807.12	1865.70
807.30	1921.81
807.49	2074.39
807.67	1944.75
807.85	2031.79
808.04	2217.13
808.22	2525.35
808.40	1805.08
808.58	1751.63
808.77	2182.52
808.95	2332.84
809.13	1899.08
809.31	2260.34
809.50	2510.81
809.68	2660.93
809.86	2335.71
810.05	2487.46
810.23	3054.75
810.41	3180.50
810.59	4331.66
810.78	5092.89
810.96	5833.02
811.14	6244.87
811.32	5667.75
811.51	4855.94
811.69	4478.09
811.87	4587.86
812.05	3937.02
812.24	3779.53
812.42	3970.19
812.60	3841.17
812.78	3127.45
812.97	2871.66
813.15	3286.17
813.33	2927.16
813.51	2662.56
813.70	2323.83
813.88	2305.19
814.06	2375.23
814.24	2166.75
814.42	1885.36
814.61	2257.27
814.79	2452.24
814.97	1821.87
815.15	1873.48
815.34	2160.20
815.52	2251.95
815.70	1827.20
815.88	1936.15
816.06	1947.00
816.25	1998.20
816.43	1890.48
816.61	2024.62
816.79	2328.95
816.98	1801.80
817.16	1818.39
817.34	1834.98
817.52	2105.11
817.70	2358.24
817.89	1948.23
818.07	1818.80
818.25	2048.99
818.43	2107.77
818.61	1896.83
818.80	1884.34
818.98	2398.38
819.16	2088.31
819.34	1817.16
819.52	2165.52
819.70	1938.20
819.89	2098.35
820.07	1773.34
820.25	1777.84
820.43	2152.62
820.61	2271.40
820.80	1924.48
820.98	1803.44
821.16	1817.16
821.34	1906.66
821.52	1919.36
821.70	2031.59
821.89	2111.87
822.07	2056.78
822.25	1964.21
822.43	1854.03
822.61	2357.62
822.79	2135.62
822.98	1915.87
823.16	1772.93
823.34	2154.05
823.52	2323.63
823.70	1949.46
823.88	1781.32
824.06	2175.97
824.25	2065.99
824.43	2013.15
824.61	1822.08
824.79	2083.81
824.97	2124.77
825.15	1992.06
825.33	2165.32
825.52	2343.90
825.70	2200.75
825.88	2063.53
826.06	2129.07
826.24	2281.44
826.42	2335.09
826.60	2071.93
826.78	2109.61
826.97	2145.45
827.15	2362.95
827.33	1916.90
827.51	1998.61
827.69	2020.32
827.87	2138.08
828.05	2041.82
828.23	1873.69
828.41	2267.92
828.60	2232.90
828.78	1804.87
828.96	2008.65
829.14	2004.14
829.32	2044.90
829.50	1880.04
829.68	1888.43
829.86	2005.58
830.04	2176.99
830.22	2013.97
830.41	1836.41
830.59	2073.16
830.77	2202.18
830.95	1888.23
831.13	1875.53
831.31	1935.94
831.49	2268.13
831.67	2047.97
831.85	2037.52
832.03	2043.05
832.21	2196.65
832.39	1780.30
832.57	1808.56
832.76	2231.47
832.94	2046.54
833.12	1739.14
833.30	1888.64
833.48	2283.49
833.66	2158.35
833.84	1893.96
834.02	1890.28
834.20	2275.91
834.38	2241.50
834.56	1769.44
834.74	1841.94
834.92	1873.89
835.10	2395.10
835.28	1921.81
835.46	1943.11
835.64	2052.88
835.82	1965.85
836.01	2205.46
836.19	2109.61
836.37	2008.24
836.55	1930.01
836.73	1830.68
836.91	1802.83
837.09	2172.89
837.27	2329.36
837.45	1750.19
837.63	1773.34
837.81	1884.34
837.99	2083.81
838.17	2019.71
838.35	1852.39
838.53	2447.32
838.71	2190.30
838.89	1841.53
839.07	1843.38
839.25	2095.89
839.43	2242.94
839.61	1899.08
839.79	2196.65
839.97	2418.45
840.15	2516.95
840.33	2314.82
840.51	2530.27
840.69	2458.59
840.87	2420.08
841.05	2284.51
841.23	2216.93
841.41	2467.39
841.59	2916.72
841.77	2759.64
841.95	2849.13
842.13	3357.64
842.31	2973.65
842.49	2642.29
842.67	2633.28
842.85	2800.39
843.03	2436.06
843.21	2297.82
843.39	2491.76
843.57	2514.09
843.75	2498.11
843.93	2154.05
844.11	2186.41
844.29	2331.61
844.47	2217.34
844.65	2203.41
844.83	2046.74
845.01	2114.73
845.19	2300.89
845.36	2008.85
845.54	2030.97
845.72	2146.68
845.90	2218.36
846.08	1882.70
846.26	1965.85
846.44	2170.44
846.62	2187.85
846.80	2027.08
846.98	1847.88
847.16	2064.76
847.34	2099.78
847.52	1862.83
847.70	1809.59
847.88	2061.69
848.06	2338.78
848.24	2022.57
848.41	1839.90
848.59	2264.23
848.77	2169.00
848.95	1892.53
849.13	1893.96
849.31	2226.14
849.49	2143.81
849.67	1861.19
849.85	1834.98
850.03	2152.21
850.21	2093.64
850.39	1836.21
850.57	2058.62
850.74	2356.80
850.92	2332.02
851.10	2046.54
851.28	1971.17
851.46	2288.81
851.64	2650.28
851.82	2052.06
852.00	2146.68
852.18	2528.22
852.36	2390.80
852.53	2020.73
852.71	2097.53
852.89	2248.87
853.07	2284.92
853.25	1931.23
853.43	1871.23
853.61	2147.09
853.79	2196.04
853.97	1883.72
854.14	1918.33
854.32	2350.25
854.50	2227.17
854.68	1904.41
854.86	1922.22
855.04	1982.84
855.22	2232.90
855.40	1792.59
855.57	1860.78
855.75	2241.91
855.93	2198.90
856.11	1753.88
856.29	1889.87
856.47	1947.62
856.65	2122.51
856.82	1822.08
857.00	1799.96
857.18	2066.61
857.36	1996.97
857.54	2011.51
857.72	2077.05
857.89	2198.90
858.07	2114.32
858.25	2094.46
858.43	1785.62
858.61	2072.13
858.79	2081.15
858.97	1814.30
859.14	2009.88
859.32	2058.00
859.50	2024.62
859.68	1978.54
859.86	1849.11
860.03	2103.26
860.21	2158.15
860.39	1865.90
860.57	2054.52
860.75	2133.98
860.93	2381.17
861.10	2092.61
861.28	1849.52
861.46	2129.48
861.64	2186.00
861.82	1893.14
861.99	2007.21
862.17	2234.13
862.35	2251.74
862.53	1899.70
862.71	1916.49
862.88	2148.32
863.06	2205.25
863.24	1888.23
863.42	1848.29
863.60	2061.89
863.77	2174.94
863.95	1783.37
864.13	1905.63
864.31	2056.78
864.49	2230.85
864.66	1809.59
864.84	1837.44
865.02	2125.38
865.20	2602.76
865.37	1989.60
865.55	1843.99
865.73	1898.26
865.91	2220.00
866.09	2029.54
866.26	1945.98
866.44	2187.64
866.62	2047.15
866.80	1806.10
866.97	1886.79
867.15	2040.39
867.33	2122.51
867.51	1967.48
867.68	1939.84
867.86	2004.14
868.04	1941.68
868.22	1688.96
868.39	1886.79
868.57	2172.69
868.75	2322.40
868.93	1773.54
869.10	1838.67
869.28	2426.23
869.46	2317.48
869.64	1907.89
869.81	1872.25
869.99	2113.30
870.17	2144.22
870.35	1808.36
870.52	1889.66
870.70	2247.85
870.88	2007.42
871.05	1824.54
871.23	1720.70
871.41	2078.69
871.59	2115.96
871.76	1894.78
871.94	1804.06
872.12	2104.49
872.29	1900.11
872.47	1911.98
872.65	1820.44
872.83	2137.26
873.00	2321.99
873.18	1906.25
873.36	1851.16
873.53	2232.29
873.71	1866.93
873.89	1762.28
874.06	1867.95
874.24	2179.04
874.42	2297.21
874.60	2056.16
874.77	1983.25
874.95	1975.88
875.13	2301.92
875.30	1855.87
875.48	1800.98
875.66	2360.90
875.83	1959.50
876.01	1838.05
876.19	1962.98
876.36	1878.81
876.54	2074.39
876.72	1838.26
876.89	1967.07
877.07	2222.46
877.25	1814.30
877.42	1939.84
877.60	1875.73
877.78	2392.64
877.95	2017.25
878.13	1821.87
878.31	2035.48
878.48	2282.46
878.66	2218.15
878.84	1886.59
879.01	1873.69
879.19	2164.70
879.37	2204.23
879.54	1900.72
879.72	1737.09
879.90	1773.54
880.07	2215.49
880.25	1630.39
880.42	2026.26
880.60	2107.97
880.78	2218.56
880.95	1878.60
881.13	1947.82
881.31	2102.44
881.48	2008.24
881.66	1877.37
881.83	1975.06
882.01	1939.84
882.19	1879.01
882.36	1907.68
882.54	1896.42
882.72	2217.54
882.89	2137.26
883.07	1854.85
883.24	1858.53
883.42	2224.50
883.60	2101.01
883.77	1790.54
883.95	1886.59
884.12	2243.96
884.30	2123.74
884.48	2000.87
884.65	1925.50
884.83	2128.66
885.00	2111.87
885.18	1760.23
885.36	1864.88
885.53	2179.04
885.71	2289.63
885.88	1802.83
886.06	1847.47
886.23	2203.82
886.41	1999.64
886.59	1863.04
886.76	1809.38
886.94	2202.59
887.11	2588.43
887.29	1891.30
887.47	1820.23
887.64	2302.33
887.82	2339.80
887.99	1750.40
888.17	1918.95
888.34	2031.99
888.52	1917.72
888.69	1864.47
888.87	1803.24
889.05	2033.63
889.22	2019.09
889.40	1858.74
889.57	2100.60
889.75	2374.01
889.92	2038.75
890.10	1804.06
890.27	1947.00
890.45	1976.49
890.62	1791.97
890.80	1804.47
890.98	1710.46
891.15	2361.72
891.33	2263.62
891.50	1815.93
891.68	1788.29
891.85	2228.80
892.03	2224.30
892.20	1812.45
892.38	1795.86
892.55	2216.52
892.73	2234.54
892.90	1743.23
893.08	1861.40
893.25	1989.81
893.43	2022.98
893.60	1975.27
893.78	1710.87
893.95	2181.70
894.13	2047.35
894.30	1850.75
894.48	1867.75
894.65	2245.60
894.83	2124.77
895.00	1737.70
895.18	1724.39
895.35	2248.26
895.53	2224.30
895.70	1771.29
895.88	1973.42
896.05	2174.74
896.23	1836.82
896.40	1851.77
896.58	1899.08
896.75	2213.24
896.93	2338.37
897.10	1889.66
897.28	1773.34
897.45	2107.77
897.63	2198.08
897.80	1978.75
897.98	1821.46
898.15	2156.92
898.33	1990.83
898.50	1925.09
898.67	1875.53
898.85	2067.22
899.02	2172.69
899.20	2111.25
899.37	1877.99
899.55	2095.28
899.72	2337.14
899.90	1850.95
900.07	1809.59
900.25	2176.38
900.42	2297.00
900.59	1857.10
900.77	1977.72
900.94	2210.37
901.12	2148.93
901.29	1871.84
901.47	2002.09
901.64	2191.74
901.82	2093.23
901.99	1676.26
902.16	1823.72
902.34	2280.21
902.51	2124.77
902.69	1842.56
902.86	1878.19
903.03	2749.19
903.21	2093.64
903.38	1837.44
903.56	1824.13
903.73	2283.89
903.91	2016.84
904.08	1827.61
904.25	1685.48
904.43	1940.45
904.60	2260.34
904.78	1860.58
904.95	1778.87
905.12	2021.55
905.30	2395.30
905.47	1958.06
905.65	2014.18
905.82	2043.26
905.99	2180.06
906.17	1857.71
906.34	1821.46
906.52	1931.85
906.69	2181.50
906.86	1936.76
907.04	1934.72
907.21	2221.02
907.38	2222.46
907.56	1796.07
907.73	1782.35
907.91	2348.20
908.08	2273.45
908.25	1840.51
908.43	1763.51
908.60	2174.12
908.77	2115.96
908.95	1917.10
909.12	1793.00
909.30	2198.70
909.47	1853.21
909.64	1881.47
909.82	2050.02
909.99	2045.31
910.16	2115.76
910.34	1829.66
910.51	1821.05
910.68	2115.35
910.86	2069.06
911.03	1746.71
911.20	1832.73
911.38	2299.25
911.55	2619.76
911.72	2474.36
911.90	2356.60
912.07	2727.48
912.24	2924.50
912.42	2323.83
912.59	2126.61
912.76	2496.68
912.94	2308.06
913.11	1991.24
913.28	1902.15
913.46	1959.50
913.63	2188.87
913.80	2215.90
913.98	1848.50
914.15	2269.35
914.32	2297.62
914.49	1973.42
914.67	1777.84
914.84	2092.61
915.01	2194.60
915.19	1915.67
915.36	1834.16
915.53	2250.31
915.71	2196.45
915.88	1939.43
916.05	1863.04
916.22	2284.10
916.40	2130.91
916.57	1756.75
916.74	2013.56
916.92	2379.53
917.09	1936.76
917.26	1788.08
917.43	1794.43
917.61	2016.43
917.78	1800.78
917.95	1764.33
918.13	1767.40
918.30	2447.73
918.47	2081.97
918.64	1812.25
918.82	1759.00
918.99	2055.34
919.16	2349.02
919.33	1881.06
919.51	1857.92
919.68	2057.39
919.85	2273.45
920.02	1735.45
920.20	1880.24
920.37	2378.72
920.54	2252.36
920.71	1842.56
920.89	1858.94
921.06	2433.81
921.23	1926.93
921.40	1755.72
921.58	1934.10
921.75	2622.01
921.92	1982.23
922.09	1943.93
922.27	1895.40
922.44	2048.99
922.61	2163.27
922.78	1846.65
922.96	1850.95
923.13	2013.15
923.30	2220.20
923.47	1752.24
923.64	1805.08
923.82	2150.78
923.99	2123.74
924.16	1948.03
924.33	1780.91
924.50	2088.11
924.68	2371.14
924.85	1811.02
925.02	1854.64
925.19	2203.00
925.36	2140.54
925.54	1874.30
925.71	1936.76
925.88	2609.32
926.05	2040.39
926.22	1796.68
926.40	1950.28
926.57	2097.94
926.74	2196.86
926.91	1848.29
927.08	2019.91
927.26	2278.16
927.43	2117.80
927.60	1839.08
927.77	1898.47
927.94	2371.75
928.11	2305.60
928.29	1723.78
928.46	1898.67
928.63	1965.85
928.80	2002.30
928.97	1940.45
929.14	1814.50
929.32	2484.80
929.49	2121.49
929.66	1798.73
929.83	1769.45
930.00	1982.84
930.17	2179.04
930.35	1785.01
930.52	1840.30
930.69	2376.46
930.86	1932.05
931.03	1904.61
931.20	1660.08
931.37	2290.45
931.55	2082.78
931.72	1910.55
931.89	1769.04
932.06	1898.67
932.23	2394.08
932.40	1958.88
932.57	1975.47
932.74	2322.19
932.92	2294.75
933.09	2015.00
933.26	1576.32
933.43	2016.43
933.60	2154.26
933.77	1929.19
933.94	1939.22
934.11	2035.48
934.29	2119.65
934.46	1808.77
934.63	1943.11
934.80	1868.77
934.97	2077.66
935.14	1860.58
935.31	1718.04
935.48	1967.89
935.65	2131.94
935.82	1891.91
936.00	1757.16
936.17	2355.57
936.34	2058.21
936.51	1950.28
936.68	1789.52
936.85	2137.67
937.02	2120.88
937.19	1942.29
937.36	1871.02
937.53	2162.25
937.70	2235.56
937.87	1832.93
938.05	1957.04
938.22	2120.06
938.39	1909.94
938.56	1866.72
938.73	1758.18
938.90	2043.87
939.07	1982.64
939.24	1951.10
939.41	1714.15
939.58	2142.38
939.75	2200.75
939.92	1816.96
940.09	2096.10
940.26	2028.72
940.43	2229.01
940.60	1899.70
940.77	1851.57
940.95	2119.24
941.12	2197.68
941.29	1863.04
941.46	1882.90
941.63	2328.54
941.80	2327.52
941.97	1745.69
942.14	1736.06
942.31	2209.55
942.48	2067.42
942.65	1972.81
942.82	1908.30
942.99	2176.58
943.16	2111.05
943.33	1786.03
943.50	1854.64
943.67	2210.17
943.84	2295.77
944.01	1836.62
944.18	1821.46
944.35	2319.32
944.52	1943.52
944.69	1933.49
944.86	1773.75
945.03	2211.40
945.20	2522.28
945.37	1698.18
945.54	1920.18
945.71	2335.30
945.88	2369.30
946.05	1812.45
946.22	1760.23
946.39	2312.98
946.56	2086.27
946.73	1731.56
946.90	1781.32
947.07	2017.04
947.24	2062.10
947.41	1724.80
947.58	1957.04
947.75	2222.87
947.92	2163.06
948.09	1659.47
948.26	1745.69
948.43	2159.17
948.60	2441.79
948.77	1804.06
948.94	1860.17
949.11	2224.71
949.27	2144.22
949.44	1830.68
949.61	1758.80
949.78	2155.90
949.95	2299.25
950.12	1749.78
950.29	1738.52
950.46	2003.32
950.63	2266.69
950.80	1789.72
950.97	1854.44
951.14	2256.66
951.31	2041.21
951.48	1780.09
951.65	1744.87
951.82	2457.97
951.99	2135.01
952.15	1777.23
952.32	1825.76
952.49	1990.83
952.66	1963.59
952.83	1812.45
953.00	1786.44
953.17	2086.88
953.34	2237.20
953.51	1901.95
953.68	1897.44
953.85	2298.03
954.02	2288.20
954.18	1900.72
954.35	1842.35
954.52	1966.25
954.69	2130.91
954.86	1738.93
955.03	1873.07
955.20	2214.47
955.37	2070.09
955.54	1830.68
955.71	1786.24
955.87	2171.67
956.04	2421.93
956.21	1855.46
956.38	1795.86
956.55	2127.43
956.72	2521.05
956.89	1893.76
957.06	1793.61
957.23	1999.84
957.39	2321.78
957.56	1893.35
957.73	1743.44
957.90	1764.12
958.07	2430.94
958.24	1898.67
958.41	1835.59
958.57	2227.99
958.74	2090.36
958.91	1789.72
959.08	1800.78
959.25	2237.61
959.42	2034.04
959.59	1910.55
959.75	1881.67
959.92	2324.24
960.09	2291.88
960.26	1821.05
960.43	1905.84
960.60	2151.60
960.76	2068.65
960.93	1726.44
961.10	1913.83
961.27	2256.66
961.44	2043.87
961.61	1725.82
961.77	1719.27
961.94	2129.27
962.11	2217.95
962.28	1810.81
962.45	1765.35
962.62	2060.05
962.78	2226.55
962.95	1733.40
963.12	1812.04
963.29	2185.39
963.46	2592.93
963.62	1934.31
963.79	1831.50
963.96	2543.99
964.13	2034.25
964.30	1931.85
964.46	1840.51
964.63	1931.85
964.80	2565.70
964.97	1654.76
965.14	1952.53
965.30	2129.68
965.47	2237.61
965.64	1977.31
965.81	1922.22
965.98	2356.80
966.14	2142.79
966.31	1823.31
966.48	1803.03
966.65	2303.15
966.81	2153.44
966.98	1840.30
967.15	1819.83
967.32	2081.15
967.49	1937.17
967.65	1703.71
967.82	1662.13
967.99	2045.10
968.16	1835.80
968.32	1974.65
968.49	1784.40
968.66	2054.73
968.83	2353.73
968.99	1921.61
969.16	1753.27
969.33	2298.23
969.50	2167.16
969.66	1943.11
969.83	2103.67
970.00	2218.77
970.17	2196.86
970.33	1866.11
970.50	1744.66
970.67	2357.21
970.84	2341.85
971.00	1789.31
971.17	1734.63
971.34	2238.63
971.50	2108.59
971.67	1928.78
971.84	1854.64
972.01	1901.54
972.17	1727.46
972.34	1747.94
972.51	2000.46
972.67	2299.25
972.84	2176.17
973.01	1790.54
973.18	1807.74
973.34	2289.01
973.51	1942.29
973.68	1862.63
973.84	1890.68
974.01	2049.20
974.18	2403.09
974.34	1887.61
974.51	1945.16
974.68	1975.06
974.85	2433.81
975.01	1960.11
975.18	1852.18
975.35	2088.31
975.51	1943.73
975.68	1725.62
975.85	2007.83
976.01	2022.98
976.18	2365.40
976.35	1830.27
976.51	1878.60
976.68	2368.48
976.85	2303.56
977.01	1875.12
977.18	1920.99
977.35	2199.93
977.51	1906.66
977.68	1642.06
977.85	1756.13
978.01	2249.90
978.18	2189.89
978.35	1894.37
978.51	1892.12
978.68	2245.60
978.85	2373.80
979.01	1893.76
979.18	1870.82
979.34	2056.78
979.51	2138.08
979.68	1802.83
979.84	1894.99
980.01	2566.51
980.18	2102.24
980.34	1804.06
980.51	1921.61
980.67	2227.99
980.84	2229.62
981.01	1845.63
981.17	1910.96
981.34	1814.91
981.51	2233.92
981.67	1764.33
981.84	1923.86
982.00	2201.57
982.17	2078.28
982.34	1694.08
982.50	1575.30
982.67	2378.72
982.83	2013.77
983.00	1739.95
983.17	1628.54
983.33	2282.67
983.50	1852.18
983.66	1733.20
983.83	1631.62
984.00	2024.62
984.16	2130.30
984.33	1630.59
984.49	1604.79
984.66	1983.66
984.83	2222.46
984.99	1665.61
985.16	1602.95
985.32	2203.20
985.49	2219.59
985.65	1764.94
985.82	1632.64
985.99	2372.57
986.15	2111.66
986.32	1753.47
986.48	1687.12
986.65	2016.23
986.81	2239.86
986.98	1602.33
987.14	1740.77
987.31	2128.04
987.48	1839.90
987.64	1555.02
987.81	1578.37
987.97	2477.02
988.14	1988.58
988.30	1645.75
988.47	1515.50
988.63	2140.13
988.80	1924.89
988.96	1728.90
989.13	1738.93
989.30	2068.65
989.46	2227.58
989.63	1594.55
989.79	1607.66
989.96	2092.61
990.12	2357.62
990.29	1669.71
990.45	1737.70
990.62	2111.25
990.78	2300.89
990.95	1777.23
991.11	1673.19
991.28	2019.71
991.44	2156.72
991.61	1552.36
991.77	1734.02
991.94	2124.36
992.10	2292.70
992.27	1740.98
992.43	1689.57
992.60	2159.99
992.76	2028.51
992.93	1869.39
993.09	1625.88
993.26	2289.01
993.42	2420.29
993.59	1668.07
993.75	1556.05
993.92	1973.83
994.08	1949.67
994.25	1727.87
994.41	1615.85
994.58	2203.41
994.74	2333.05
994.91	1616.26
995.07	1756.13
995.24	2077.87
995.40	2072.34
995.56	1820.64
995.73	1755.31
995.89	2390.18
996.06	2067.42
996.22	1638.17
996.39	1582.47
996.55	2052.68
996.72	2152.21
996.88	1592.09
997.05	1651.28
997.21	2477.02
997.37	2187.44
997.54	1754.09
997.70	1684.04
997.87	2136.85
998.03	2063.94
998.20	1564.65
998.36	1588.81
998.52	2207.10
998.69	2276.52
998.85	1604.38
999.02	1674.62
999.18	2251.13
999.35	2248.67
999.51	1711.08
999.67	1690.80
999.84	1912.80
1000.00	2243.34
1000.17	1752.04
1000.33	1635.51
1000.49	2006.39
1000.66	2056.98
1000.82	1658.85
1000.99	1719.06
1001.15	2309.90
1001.31	2038.75
1001.48	1660.70
1001.64	1753.27
1001.81	2051.25
1001.97	2449.37
1002.13	1695.51
1002.30	1715.38
1002.46	2332.84
1002.63	2014.38
1002.79	1762.48
1002.95	1647.18
1003.12	2280.82
1003.28	2140.33
1003.45	1650.46
1003.61	1616.46
1003.77	2110.84
1003.94	1867.13
1004.10	1664.79
1004.26	1776.61
1004.43	2220.20
1004.59	2385.06
1004.75	1672.58
1004.92	1621.58
1005.08	2017.04
1005.25	2142.99
1005.41	1643.90
1005.57	1750.60
1005.74	2305.81
1005.90	2014.18
1006.06	1791.56
1006.23	1640.42
1006.39	2204.64
1006.55	2562.62
1006.72	1794.84
1006.88	1606.63
1007.04	1953.56
1007.21	2066.61
1007.37	1687.73
1007.53	1634.48
1007.70	2345.54
1007.86	2219.38
1008.02	1736.88
1008.19	1614.21
1008.35	2127.02
1008.51	1922.63
1008.68	1672.99
1008.84	1597.21
1009.00	1931.23
1009.17	2280.82
1009.33	1857.71
1009.49	1786.85
1009.65	1953.15
1009.82	2177.81
1009.98	1730.53
1010.14	1593.73
1010.31	2232.29
1010.47	2200.54
1010.63	1746.92
1010.80	1739.34
1010.96	2174.94
1011.12	2063.33
1011.28	1684.86
1011.45	1641.65
1011.61	2562.83
1011.77	1957.04
1011.94	1634.89
1012.10	1624.86
1012.26	1954.99
1012.42	2016.23
1012.59	1743.44
1012.75	1704.93
1012.91	2072.34
1013.07	2234.13
1013.24	1626.09
1013.40	1651.69
1013.56	2132.75
1013.72	2062.92
1013.89	1761.87
1014.05	1759.82
1014.21	2435.03
1014.37	2514.50
1014.54	1725.41
1014.70	1624.86
1014.86	2047.35
1015.02	1923.04
1015.19	1683.02
1015.35	1631.62
1015.51	2072.13
1015.67	2027.28
1015.84	1669.30
1016.00	1675.44
1016.16	2277.75
1016.32	2235.77
1016.49	1665.82
1016.65	1620.76
1016.81	2090.57
1016.97	2206.28
1017.14	1787.47
1017.30	1693.67
1017.46	1981.61
1017.62	2140.74
1017.78	1740.98
1017.95	1642.27
1018.11	2230.65
1018.27	2516.54
1018.43	1828.02
1018.59	1751.22
1018.76	2216.31
1018.92	2588.84
1019.08	1634.07
1019.24	1676.88
1019.40	2340.62
1019.57	2133.16
1019.73	1789.31
1019.89	1703.91
1020.05	2127.23
1020.21	2443.23
1020.38	1672.99
1020.54	1817.37
1020.70	2205.87
1020.86	2195.42
1021.02	1669.09
1021.18	1652.92
1021.35	2006.19
1021.51	2180.06
1021.67	1855.46
1021.83	1745.28
1021.99	2114.94
1022.15	2139.72
1022.32	1743.85
1022.48	1715.38
1022.64	2348.61
1022.80	2376.46
1022.96	1740.16
1023.12	1612.37
1023.29	2285.33
1023.45	2176.79
1023.61	1675.85
1023.77	1883.11
1023.93	2150.37
1024.09	1942.50
1024.25	1656.40
1024.42	1599.87
1024.58	2047.15
1024.74	2148.73
1024.90	1680.77
1025.06	1757.57
1025.22	1994.11
1025.38	2395.71
1025.54	1618.30
1025.71	1783.37
1025.87	2226.76
1026.03	2186.00
1026.19	1623.63
1026.35	1860.17
1026.51	2184.36
1026.67	2105.72
1026.83	1727.67
1026.99	1828.22
1027.16	2183.54
1027.32	2319.32
1027.48	1687.73
1027.64	1617.08
1027.80	2202.18
1027.96	2127.84
1028.12	1690.60
1028.28	1670.12
1028.44	2145.04
1028.60	2386.70
1028.77	1820.44
1028.93	1736.68
1029.09	2022.16
1029.25	1931.85
1029.41	1721.11
1029.57	1782.35
1029.73	2138.69
1029.89	2354.14
1030.05	1803.85
1030.21	1760.23
1030.37	2507.94
1030.53	2175.97
1030.69	1730.94
1030.85	1610.73
1031.02	1945.37
1031.18	2080.33
1031.34	1660.90
1031.50	1772.72
1031.66	1970.35
1031.82	2354.96
1031.98	1741.80
1032.14	1609.29
1032.30	1943.73
1032.46	2238.43
1032.62	1820.23
1032.78	1626.09
1032.94	1998.00
1033.10	2020.53
1033.26	1753.47
1033.42	1839.08
1033.58	2516.13
1033.74	2015.41
1033.90	1682.61
1034.06	1856.89
1034.22	2481.52
1034.38	2278.57
1034.54	1745.48
1034.70	1740.57
1034.86	2454.08
>>>>>End Processed Spectral Data<<<<<
