SpectraSuite Data File
++++++++++++++++++++++++++++++++++++
Date: Thu Mar 30 14:14:57 PDT 2017
User: UCSD _CER
Dark Spectrum Present: No
Reference Spectrum Present: No
Number of Sampled Component Spectra: 1
Spectrometers: USB4C00073
Integration Time (usec): 380000 (USB4C00073)
Spectra Averaged: 10 (USB4C00073)
Boxcar Smoothing: 0 (USB4C00073)
Correct for Electrical Dark: No (USB4C00073)
Strobe/Lamp Enabled: No (USB4C00073)
Correct for Detector Non-linearity: No (USB4C00073)
Correct for Stray Light: No (USB4C00073)
Number of Pixels in Processed Spectrum: 3648
>>>>>Begin Processed Spectral Data<<<<<
345.37	1241.68
345.58	1241.68
345.80	1241.68
346.01	1221.82
346.22	1221.82
346.43	2010.29
346.65	1889.05
346.86	2373.80
347.07	2295.16
347.28	1809.99
347.50	1792.79
347.71	2074.59
347.92	1837.44
348.13	1800.16
348.35	1771.29
348.56	2097.12
348.77	1878.60
348.98	1800.37
349.20	1634.89
349.41	2105.93
349.62	2208.32
349.83	1888.64
350.05	1778.66
350.26	2171.05
350.47	2293.72
350.68	1821.46
350.90	1706.37
351.11	2337.76
351.32	2264.64
351.53	1831.09
351.75	1779.07
351.96	2135.42
352.17	2064.35
352.38	1872.46
352.60	1882.08
352.81	2109.00
353.02	2396.33
353.23	1769.65
353.44	1813.89
353.66	1981.20
353.87	2054.52
354.08	1889.46
354.29	1804.87
354.51	1970.56
354.72	2025.65
354.93	1760.23
355.14	1754.09
355.35	1810.61
355.57	2195.63
355.78	1810.81
355.99	1881.47
356.20	2063.33
356.42	2027.90
356.63	1883.11
356.84	1771.90
357.05	2210.58
357.26	2447.73
357.48	1924.07
357.69	1860.37
357.90	2165.32
358.11	2034.25
358.32	1805.90
358.54	1870.00
358.75	1996.16
358.96	2175.56
359.17	1791.56
359.38	1823.72
359.60	2172.08
359.81	2052.47
360.02	1819.83
360.23	1741.18
360.44	1951.10
360.66	2221.02
360.87	1751.42
361.08	1758.18
361.29	2113.71
361.50	2074.80
361.72	1800.98
361.93	1880.65
362.14	2088.72
362.35	1834.78
362.56	1955.61
362.77	1668.68
362.99	2168.39
363.20	2070.09
363.41	1881.47
363.62	1693.47
363.83	2181.70
364.05	2228.80
364.26	1730.53
364.47	1777.43
364.68	2240.89
364.89	1943.73
365.10	1739.14
365.32	1836.62
365.53	1910.55
365.74	1974.24
365.95	1794.23
366.16	1686.30
366.37	2035.07
366.59	2045.72
366.80	1795.25
367.01	1670.94
367.22	2397.97
367.43	2568.97
367.64	1860.17
367.86	1819.01
368.07	2145.04
368.28	2265.46
368.49	1729.71
368.70	1856.69
368.91	2008.24
369.12	2045.51
369.34	1737.91
369.55	1687.32
369.76	2054.11
369.97	2004.35
370.18	1688.14
370.39	1774.56
370.60	1842.35
370.82	1898.67
371.03	1829.66
371.24	1765.14
371.45	2179.86
371.66	2183.75
371.87	1806.72
372.08	1814.71
372.30	1929.80
372.51	2209.96
372.72	1937.17
372.93	1804.06
373.14	2327.11
373.35	1953.76
373.56	1767.40
373.78	1830.47
373.99	2213.24
374.20	2567.54
374.41	1792.18
374.62	1806.51
374.83	2328.13
375.04	2007.01
375.25	1830.68
375.47	1813.27
375.68	1993.90
375.89	2198.49
376.10	1803.44
376.31	1914.24
376.52	2166.75
376.73	2123.13
376.94	1823.31
377.15	1787.06
377.37	2102.85
377.58	2031.18
377.79	1721.11
378.00	1762.28
378.21	2132.55
378.42	2172.69
378.63	1858.12
378.84	1924.68
379.05	2234.54
379.27	2084.83
379.48	1923.25
379.69	1787.47
379.90	2291.68
380.11	1775.38
380.32	1829.66
380.53	1966.66
380.74	2320.76
380.95	2082.78
381.16	1872.66
381.37	1847.68
381.59	2301.30
381.80	2233.31
382.01	1779.89
382.22	1735.86
382.43	2165.11
382.64	2052.88
382.85	1751.83
383.06	1854.64
383.27	2156.51
383.48	2015.00
383.69	1828.84
383.91	1772.72
384.12	2217.34
384.33	2204.23
384.54	1874.51
384.75	1788.90
384.96	2632.87
385.17	2268.94
385.38	1829.45
385.59	1815.93
385.80	2212.63
386.01	2342.67
386.22	1937.79
386.43	1832.32
386.64	2459.82
386.86	2073.16
387.07	1947.21
387.28	1735.24
387.49	2012.54
387.70	2281.64
387.91	1929.39
388.12	1800.57
388.33	2147.70
388.54	2008.03
388.75	1777.84
388.96	1893.35
389.17	1985.30
389.38	2045.31
389.59	1883.72
389.80	1915.06
390.01	2059.85
390.22	2021.14
390.43	1920.38
390.64	1700.22
390.86	2177.40
391.07	2271.40
391.28	1838.46
391.49	1870.82
391.70	1873.69
391.91	1958.47
392.12	1816.75
392.33	1899.70
392.54	2124.56
392.75	2014.18
392.96	1918.33
393.17	1803.24
393.38	2431.96
393.59	2242.12
393.80	1750.81
394.01	1815.11
394.22	2042.03
394.43	2351.68
394.64	1716.81
394.85	1889.87
395.06	2065.58
395.27	2094.66
395.48	1810.20
395.69	1719.47
395.90	2013.77
396.11	2089.75
396.32	1800.78
396.53	1922.02
396.74	2037.32
396.95	2232.29
397.16	1777.23
397.37	1685.68
397.58	2216.72
397.79	2070.91
398.00	1846.45
398.21	1843.38
398.42	2095.48
398.63	2411.07
398.84	1800.57
399.05	1779.89
399.26	2287.79
399.47	2154.46
399.68	1668.48
399.89	1756.54
400.10	1899.49
400.31	1982.64
400.52	1871.43
400.73	1827.40
400.94	1859.76
401.15	2150.98
401.36	1819.21
401.57	1868.57
401.78	2275.91
401.99	2202.59
402.20	1784.40
402.41	1944.55
402.62	2361.51
402.83	2031.38
403.04	1783.37
403.25	2003.12
403.46	2095.69
403.67	2312.16
403.88	1793.61
404.09	1769.04
404.30	1951.71
404.51	1950.90
404.72	1776.82
404.93	1949.46
405.14	1962.77
405.35	2055.75
405.56	1862.22
405.77	1770.67
405.98	2111.25
406.19	2038.34
406.40	1764.33
406.61	1811.02
406.82	2007.42
407.03	2493.61
407.24	1767.81
407.45	1868.98
407.66	2166.34
407.87	2225.32
408.08	1901.13
408.29	1909.12
408.49	2178.83
408.70	2036.50
408.91	1769.04
409.12	1926.52
409.33	1914.65
409.54	2291.27
409.75	1761.87
409.96	1826.99
410.17	2207.51
410.38	2023.80
410.59	1780.30
410.80	1911.57
411.01	2036.09
411.22	2047.97
411.43	1889.66
411.64	1793.61
411.85	1922.63
412.06	1914.85
412.27	1629.57
412.47	1753.06
412.68	2060.26
412.89	2156.92
413.10	1814.30
413.31	1737.29
413.52	2380.56
413.73	2379.33
413.94	1777.64
414.15	1957.24
414.36	1957.24
414.57	1899.90
414.78	1721.52
414.99	1750.40
415.19	2166.96
415.40	2064.35
415.61	1971.78
415.82	1884.75
416.03	2158.97
416.24	2129.89
416.45	1811.63
416.66	1733.40
416.87	1861.40
417.08	2150.16
417.29	1764.33
417.50	1864.06
417.70	2153.23
417.91	2117.80
418.12	1877.78
418.33	1815.11
418.54	2098.96
418.75	2207.10
418.96	1945.78
419.17	1871.43
419.38	2254.61
419.59	2135.01
419.79	1924.48
420.00	1837.23
420.21	2526.37
420.42	2043.67
420.63	1787.26
420.84	1868.77
421.05	2069.06
421.26	2087.49
421.47	1717.43
421.67	2170.03
421.88	1955.40
422.09	1889.46
422.30	2062.10
422.51	1830.06
422.72	2376.05
422.93	2184.77
423.14	1882.49
423.35	1737.70
423.55	1793.41
423.76	1926.93
423.97	1857.71
424.18	1712.72
424.39	2026.47
424.60	2204.02
424.81	1830.27
425.02	1919.15
425.22	2026.06
425.43	2001.89
425.64	2007.83
425.85	1887.82
426.06	2428.28
426.27	2214.26
426.48	1944.55
426.68	1914.65
426.89	2222.05
427.10	2377.69
427.31	1845.42
427.52	1802.21
427.73	2179.45
427.94	2158.15
428.14	1980.80
428.35	1884.34
428.56	2336.73
428.77	2236.18
428.98	1869.18
429.19	1866.31
429.40	1990.83
429.60	2041.82
429.81	1953.56
430.02	1874.30
430.23	2042.64
430.44	2184.98
430.65	1781.94
430.85	1833.96
431.06	2143.20
431.27	1801.80
431.48	1835.18
431.69	1892.73
431.90	2081.15
432.10	2103.47
432.31	1910.96
432.52	1834.98
432.73	2475.99
432.94	2337.76
433.15	1998.20
433.35	1814.09
433.56	2266.49
433.77	2095.07
433.98	2053.91
434.19	1965.03
434.40	2244.78
434.60	2248.06
434.81	2072.95
435.02	2013.36
435.23	2133.57
435.44	2047.35
435.64	1788.90
435.85	1796.68
436.06	2022.57
436.27	2003.73
436.48	1768.01
436.68	1818.80
436.89	2387.11
437.10	2253.79
437.31	1948.03
437.52	2025.85
437.73	2169.21
437.93	2158.35
438.14	1936.56
438.35	1727.26
438.56	2012.13
438.77	2056.78
438.97	1992.06
439.18	1829.45
439.39	2285.53
439.60	1906.25
439.80	1829.04
440.01	1834.37
440.22	2020.73
440.43	2175.97
440.64	1768.22
440.84	1866.72
441.05	1869.39
441.26	2524.33
441.47	1924.07
441.68	1861.81
441.88	2186.00
442.09	2164.09
442.30	2181.29
442.51	2155.08
442.71	2213.04
442.92	2266.49
443.13	1948.44
443.34	1868.16
443.55	1969.74
443.75	2165.73
443.96	1836.41
444.17	1762.89
444.38	2215.70
444.58	1919.15
444.79	1917.72
445.00	1867.54
445.21	2024.83
445.41	2001.68
445.62	1664.79
445.83	1941.47
446.04	2084.01
446.24	1859.97
446.45	1667.05
446.66	1871.23
446.87	2145.86
447.07	1979.57
447.28	2097.32
447.49	1861.40
447.70	2218.56
447.90	2249.28
448.11	1892.73
448.32	1980.80
448.53	2284.71
448.73	2296.80
448.94	1859.56
449.15	1990.22
449.36	2086.68
449.56	2129.48
449.77	1834.16
449.98	1742.21
450.19	1983.66
450.39	1991.24
450.60	1914.85
450.81	1906.45
451.02	2024.21
451.22	2329.77
451.43	1800.98
451.64	1819.01
451.84	1997.59
452.05	2245.19
452.26	1859.97
452.47	1865.49
452.67	1998.00
452.88	2306.63
453.09	1770.67
453.30	1752.45
453.50	2195.01
453.71	2409.23
453.92	1920.18
454.12	2121.29
454.33	2116.17
454.54	2131.73
454.75	1890.89
454.95	1847.06
455.16	2154.67
455.37	2163.47
455.57	1966.05
455.78	1871.23
455.99	2073.98
456.19	2093.84
456.40	1811.02
456.61	1884.54
456.82	2074.80
457.02	2212.42
457.23	2041.01
457.44	2168.18
457.64	2124.36
457.85	2287.38
458.06	1986.12
458.26	2082.99
458.47	2088.31
458.68	2240.68
458.89	1828.22
459.09	2036.91
459.30	2424.18
459.51	2090.16
459.71	1726.03
459.92	1826.58
460.13	2219.59
460.33	2481.52
460.54	1929.39
460.75	1902.77
460.95	1922.43
461.16	2126.61
461.37	1891.50
461.57	1882.08
461.78	2113.91
461.99	1887.41
462.19	2113.30
462.40	1820.64
462.61	2398.99
462.81	2218.97
463.02	1800.37
463.23	1851.16
463.43	2175.76
463.64	1958.68
463.85	3044.31
464.05	1826.17
464.26	2594.78
464.47	2281.23
464.67	2015.82
464.88	1981.61
465.09	2036.09
465.29	2233.92
465.50	2101.63
465.71	2041.82
465.91	2090.57
466.12	2104.08
466.33	1966.46
466.53	1829.04
466.74	2294.95
466.94	2045.31
467.15	1902.97
467.36	2066.40
467.56	1912.39
467.77	2126.82
467.98	1910.14
468.18	1849.93
468.39	1993.29
468.60	2398.58
468.80	1868.57
469.01	1818.80
469.21	2156.31
469.42	2293.32
469.63	1880.44
469.83	1776.82
470.04	2170.64
470.25	2296.80
470.45	1959.29
470.66	1852.18
470.86	2101.63
471.07	1987.76
471.28	1964.00
471.48	1976.90
471.69	2125.38
471.90	2837.05
472.10	2053.91
472.31	2063.53
472.51	2171.67
472.72	2158.15
472.93	1952.12
473.13	2065.38
473.34	2231.67
473.54	2149.75
473.75	1969.74
473.96	2068.86
474.16	2038.14
474.37	2168.18
474.57	1978.34
474.78	1808.15
474.99	2113.50
475.19	2091.80
475.40	1885.97
475.60	1857.30
475.81	2484.60
476.02	2238.63
476.22	2155.49
476.43	2209.14
476.63	2137.46
476.84	2349.84
477.05	1811.63
477.25	1876.55
477.46	2610.14
477.66	2122.51
477.87	1823.31
478.08	1850.13
478.28	2220.41
478.49	2036.50
478.69	1854.03
478.90	1847.88
479.10	2174.74
479.31	2341.44
479.52	1939.84
479.72	2009.06
479.93	2209.55
480.13	2067.22
480.34	1930.82
480.54	2018.68
480.75	1974.04
480.96	2290.65
481.16	1852.59
481.37	1977.11
481.57	2223.68
481.78	2190.92
481.98	2079.71
482.19	1999.43
482.40	2385.47
482.60	2171.26
482.81	1997.18
483.01	1790.95
483.22	2190.51
483.42	2225.12
483.63	1957.24
483.83	1903.18
484.04	2021.35
484.24	2207.30
484.45	2035.48
484.66	1842.76
484.86	2173.51
485.07	1965.44
485.27	1941.68
485.48	1845.63
485.68	2279.59
485.89	1967.07
486.09	1983.05
486.30	1864.47
486.50	2094.46
486.71	2021.35
486.91	1977.11
487.12	2175.97
487.33	2693.69
487.53	2778.07
487.74	2496.06
487.94	2378.31
488.15	2384.65
488.35	2313.39
488.56	2033.43
488.76	1958.47
488.97	2135.42
489.17	2250.10
489.38	1988.99
489.58	1929.19
489.79	2189.07
489.99	2161.22
490.20	1908.09
490.40	1992.26
490.61	2162.04
490.81	1987.35
491.02	1928.78
491.22	1956.83
491.43	2194.81
491.63	2038.34
491.84	2046.33
492.04	1808.97
492.25	2172.89
492.45	2050.22
492.66	1879.83
492.86	1777.64
493.07	2008.65
493.27	2419.88
493.48	1772.72
493.68	1866.31
493.89	2023.80
494.09	2189.69
494.30	1893.96
494.50	2105.52
494.71	2153.64
494.91	1835.39
495.12	1867.95
495.32	1958.27
495.53	2086.27
495.73	1890.28
495.94	2092.82
496.14	1916.28
496.35	2574.30
496.55	2182.52
496.76	1979.98
496.96	2005.99
497.17	2069.88
497.37	2140.13
497.58	1899.08
497.78	1812.45
497.98	2013.36
498.19	2048.58
498.39	1875.32
498.60	1931.23
498.80	1795.86
499.01	2171.87
499.21	1819.83
499.42	1934.92
499.62	2043.05
499.83	2448.76
500.03	1771.29
500.24	2014.79
500.44	2311.34
500.64	2251.74
500.85	1868.57
501.05	1999.43
501.26	1836.21
501.46	2301.71
501.67	1849.52
501.87	1791.15
502.08	1948.23
502.28	1999.64
502.48	1940.86
502.69	1980.80
502.89	1859.15
503.10	1968.71
503.30	1948.23
503.51	1926.93
503.71	1840.30
503.92	2156.31
504.12	1922.43
504.32	1850.34
504.53	2188.25
504.73	2138.69
504.94	2033.63
505.14	2131.12
505.35	2171.46
505.55	2156.31
505.75	1943.73
505.96	2080.12
506.16	2471.08
506.37	1997.59
506.57	1839.49
506.78	2004.96
506.98	2241.91
507.18	1863.45
507.39	1832.11
507.59	1878.40
507.80	1957.04
508.00	2077.66
508.20	2106.54
508.41	1905.23
508.61	2281.03
508.82	2246.21
509.02	2035.89
509.22	1837.44
509.43	1910.96
509.63	1958.68
509.84	1942.91
510.04	1772.31
510.24	2305.81
510.45	2178.42
510.65	1806.92
510.86	1941.88
511.06	1882.70
511.26	2183.95
511.47	2063.74
511.67	1860.17
511.88	2139.92
512.08	2241.91
512.28	1854.03
512.49	1951.71
512.69	2100.81
512.90	2106.75
513.10	1889.05
513.30	1955.40
513.51	2138.69
513.71	2346.56
513.91	1982.64
514.12	1999.64
514.32	2215.70
514.53	1957.65
514.73	1975.68
514.93	1876.76
515.14	2053.09
515.34	2277.75
515.54	1855.25
515.75	1970.35
515.95	2164.09
516.15	2277.96
516.36	1920.99
516.56	1978.34
516.77	1695.92
516.97	2129.68
517.17	1921.20
517.38	1999.84
517.58	2284.10
517.78	2042.23
517.99	1967.69
518.19	1901.33
518.39	2213.65
518.60	1962.98
518.80	1800.78
519.00	1949.46
519.21	2042.03
519.41	2354.34
519.61	1863.24
519.82	2003.94
520.02	2056.57
520.22	2035.48
520.43	1890.89
520.63	1931.85
520.83	1946.39
521.04	1796.07
521.24	1966.25
521.44	1888.84
521.65	1938.81
521.85	2170.23
522.05	1826.79
522.26	1855.66
522.46	2369.50
522.66	2207.30
522.87	1920.79
523.07	2076.03
523.27	1967.28
523.48	2315.02
523.68	1916.90
523.88	1991.65
524.09	2235.15
524.29	2109.20
524.49	1762.07
524.70	1992.47
524.90	2273.86
525.10	2138.08
525.31	1778.46
525.51	1791.77
525.71	2170.85
525.91	2155.69
526.12	1876.35
526.32	1803.85
526.52	1999.23
526.73	1933.28
526.93	1964.62
527.13	1786.85
527.34	2037.11
527.54	2039.57
527.74	1920.38
527.94	1809.38
528.15	1905.02
528.35	2069.06
528.55	2014.59
528.76	1953.97
528.96	1816.75
529.16	2237.41
529.36	2029.33
529.57	1820.44
529.77	2274.88
529.97	1908.71
530.18	1997.79
530.38	1888.02
530.58	2145.45
530.78	2095.07
530.99	1901.74
531.19	1965.85
531.39	1950.28
531.60	2027.28
531.80	1946.18
532.00	2056.57
532.20	2115.35
532.41	1946.18
532.61	1893.76
532.81	1863.24
533.01	1997.79
533.22	2122.31
533.42	2035.27
533.62	1789.72
533.82	2307.86
534.03	2013.15
534.23	2019.71
534.43	1858.53
534.63	1978.75
534.84	2090.57
535.04	2017.04
535.24	1940.66
535.44	2520.44
535.65	1976.49
535.85	1894.78
536.05	1838.46
536.25	2046.54
536.46	1912.80
536.66	2070.29
536.86	1944.96
537.06	2163.27
537.27	2264.64
537.47	1977.93
537.67	1890.28
537.87	2285.94
538.08	2053.09
538.28	1817.98
538.48	1812.66
538.68	2038.55
538.88	2166.75
539.09	1772.52
539.29	1899.90
539.49	2191.33
539.69	2136.03
539.90	1978.75
540.10	1830.27
540.30	2283.89
540.50	1973.01
540.70	1765.35
540.91	1875.12
541.11	2194.19
541.31	2319.94
541.51	1966.66
541.72	1975.27
541.92	2070.91
542.12	1937.17
542.32	1957.04
542.52	1873.07
542.73	1955.20
542.93	2160.20
543.13	1898.06
543.33	2011.31
543.53	2172.08
543.74	2145.45
543.94	1863.24
544.14	1992.06
544.34	2223.27
544.54	2040.19
544.75	1993.49
544.95	2081.76
545.15	2171.67
545.35	2292.70
545.55	2052.06
545.75	1915.47
545.96	2431.76
546.16	1981.82
546.36	1919.15
546.56	1942.09
546.76	2236.59
546.97	2351.68
547.17	1977.93
547.37	2036.09
547.57	1983.46
547.77	2192.56
547.97	1984.48
548.18	2029.33
548.38	2019.09
548.58	2261.78
548.78	1858.33
548.98	1921.81
549.18	2175.76
549.39	2260.14
549.59	1969.74
549.79	1949.46
549.99	2293.32
550.19	2174.94
550.39	2058.21
550.60	1945.16
550.80	2101.01
551.00	2151.60
551.20	1908.30
551.40	1942.91
551.60	2137.67
551.80	2104.29
552.01	2011.51
552.21	1929.39
552.41	2101.01
552.61	2368.48
552.81	2000.25
553.01	1858.12
553.21	2131.73
553.42	1907.48
553.62	1895.40
553.82	1862.22
554.02	2338.99
554.22	2207.92
554.42	1826.79
554.62	2046.54
554.83	2316.05
555.03	2306.63
555.23	1939.02
555.43	2174.53
555.63	2076.03
555.83	2069.88
556.03	1982.64
556.23	1795.04
556.44	2068.45
556.64	2237.00
556.84	1690.80
557.04	1934.92
557.24	2091.80
557.44	2042.85
557.64	1949.05
557.84	1861.19
558.04	1999.02
558.25	2171.05
558.45	1851.98
558.65	1977.31
558.85	2041.42
559.05	1786.85
559.25	1919.56
559.45	1982.84
559.65	2406.98
559.85	2836.44
560.05	1950.28
560.26	2012.13
560.46	2011.51
560.66	1954.38
560.86	1893.35
561.06	1832.93
561.26	2274.88
561.46	2157.13
561.66	1916.90
561.86	2034.25
562.06	1952.74
562.26	2048.17
562.47	1970.56
562.67	1822.08
562.87	2128.45
563.07	1838.26
563.27	1962.57
563.47	1968.71
563.67	1980.59
563.87	2165.93
564.07	1868.16
564.27	1915.06
564.47	2044.49
564.67	2103.88
564.87	1884.13
565.08	1980.80
565.28	1971.17
565.48	2176.58
565.68	2014.18
565.88	2053.29
566.08	2400.63
566.28	2050.43
566.48	1838.87
566.68	1923.66
566.88	2008.24
567.08	2201.57
567.28	1965.85
567.48	1966.87
567.68	2124.36
567.88	1856.28
568.08	1950.08
568.28	2091.39
568.48	2025.03
568.68	2248.67
568.89	2008.65
569.09	1813.07
569.29	2198.90
569.49	2212.63
569.69	1835.59
569.89	1858.53
570.09	1771.08
570.29	1952.53
570.49	1810.40
570.69	1910.35
570.89	2220.00
571.09	2393.87
571.29	1836.41
571.49	2095.69
571.69	2105.72
571.89	2133.78
572.09	1938.40
572.29	1983.25
572.49	2188.66
572.69	2153.03
572.89	1975.88
573.09	1649.84
573.29	2065.38
573.49	2056.16
573.69	1915.47
573.89	1960.11
574.09	1969.94
574.29	2267.72
574.49	1951.51
574.69	1856.48
574.89	1896.62
575.09	1893.96
575.29	1828.63
575.49	1920.38
575.69	2102.04
575.89	1875.12
576.09	1918.95
576.29	1941.68
576.49	1895.80
576.69	2013.77
576.89	1891.91
577.09	1989.60
577.29	1821.67
577.49	2365.81
577.69	1896.42
577.89	2040.60
578.09	2060.05
578.29	1811.63
578.49	1935.94
578.69	1859.56
578.89	2221.23
579.09	2079.92
579.29	1853.21
579.49	2056.98
579.69	1970.97
579.89	2349.02
580.09	1754.09
580.29	1790.74
580.49	1964.62
580.69	1893.76
580.89	1881.26
581.09	1926.11
581.29	1988.17
581.49	2015.00
581.69	1825.97
581.89	1872.25
582.09	1909.32
582.28	1927.14
582.48	2020.32
582.68	2087.70
582.88	2276.73
583.08	2023.39
583.28	1937.38
583.48	1928.37
583.68	1946.18
583.88	2057.18
584.08	1965.64
584.28	1961.54
584.48	2399.60
584.68	2149.55
584.88	1895.80
585.08	2147.70
585.28	2201.36
585.48	2264.03
585.68	2009.06
585.87	2065.99
586.07	2140.95
586.27	2092.20
586.47	2015.82
586.67	1935.33
586.87	2060.26
587.07	2003.12
587.27	1829.66
587.47	1981.82
587.67	2318.10
587.87	2498.93
588.07	1992.88
588.27	1888.43
588.46	2183.13
588.66	2181.70
588.86	1900.31
589.06	1957.65
589.26	2182.73
589.46	2183.34
589.66	1852.80
589.86	1832.32
590.06	2017.66
590.26	2103.26
590.46	1888.23
590.66	1986.32
590.85	1910.96
591.05	2050.02
591.25	1829.45
591.45	1947.82
591.65	2141.77
591.85	2050.43
592.05	1862.22
592.25	2015.00
592.45	2181.29
592.64	1984.07
592.84	1916.08
593.04	1856.89
593.24	2505.08
593.44	2012.95
593.64	1962.16
593.84	1988.78
594.04	1976.29
594.24	2331.41
594.43	1908.71
594.63	1941.88
594.83	2215.90
595.03	2172.08
595.23	1853.00
595.43	1816.75
595.63	1937.79
595.83	2218.77
596.02	1727.26
596.22	1974.45
596.42	2077.87
596.62	2065.58
596.82	1902.56
597.02	1976.29
597.22	2284.51
597.41	2096.10
597.61	1882.70
597.81	2023.39
598.01	2163.27
598.21	1970.15
598.41	1827.61
598.61	1854.64
598.80	2058.62
599.00	2087.90
599.20	2088.11
599.40	1919.97
599.60	2011.92
599.80	2191.94
599.99	2071.32
600.19	1904.82
600.39	2051.45
600.59	2121.90
600.79	2003.73
600.99	1988.17
601.19	2327.93
601.38	2396.74
601.58	2023.39
601.78	1702.48
601.98	2119.44
602.18	2087.90
602.37	2169.00
602.57	1957.65
602.77	2135.62
602.97	2051.25
603.17	2068.86
603.37	2009.67
603.56	2235.77
603.76	2144.02
603.96	1950.90
604.16	1985.10
604.36	2279.18
604.56	2215.70
604.75	1831.70
604.95	1951.10
605.15	2247.85
605.35	2172.08
605.55	1902.77
605.74	1869.39
605.94	2236.59
606.14	2068.86
606.34	1963.18
606.54	2005.78
606.73	1982.64
606.93	2173.71
607.13	1898.47
607.33	2015.00
607.53	2317.89
607.72	2223.07
607.92	2036.91
608.12	2079.10
608.32	2044.90
608.51	2164.09
608.71	1851.36
608.91	1998.20
609.11	2169.82
609.31	2003.73
609.50	1934.72
609.70	2145.45
609.90	2216.31
610.10	2217.34
610.29	1895.19
610.49	1816.34
610.69	2166.34
610.89	2058.00
611.09	1895.40
611.28	2124.97
611.48	2227.58
611.68	2054.11
611.88	1927.96
612.07	1851.36
612.27	2166.55
612.47	1935.74
612.67	1971.78
612.86	2055.75
613.06	2082.78
613.26	1805.69
613.46	1889.46
613.65	1971.58
613.85	2490.33
614.05	2184.98
614.25	2014.18
614.44	1932.05
614.64	2030.97
614.84	1972.60
615.04	1858.33
615.23	1915.47
615.43	2129.07
615.63	2158.35
615.83	1872.87
616.02	1766.37
616.22	2162.66
616.42	1863.86
616.62	1797.09
616.81	1930.21
617.01	2072.75
617.21	2004.55
617.41	1804.06
617.60	1970.97
617.80	2149.55
618.00	2170.85
618.19	2019.91
618.39	1951.30
618.59	2148.73
618.79	2067.83
618.98	1798.53
619.18	1933.49
619.38	2418.86
619.57	2040.80
619.77	1923.25
619.97	1921.40
620.17	1959.91
620.36	1857.51
620.56	2067.42
620.76	1817.16
620.95	1857.92
621.15	1977.31
621.35	1821.67
621.54	1937.58
621.74	2077.46
621.94	1918.33
622.14	1813.48
622.33	1784.40
622.53	2017.25
622.73	2006.19
622.92	1803.24
623.12	1949.26
623.32	2363.15
623.51	2190.10
623.71	1813.27
623.91	2102.04
624.10	1922.43
624.30	2107.56
624.50	1811.84
624.69	1780.30
624.89	2749.40
625.09	1988.37
625.29	1741.59
625.48	1812.25
625.68	2069.06
625.88	2224.71
626.07	2005.99
626.27	1864.06
626.47	1965.03
626.66	1823.31
626.86	1949.46
627.06	1926.32
627.25	2053.09
627.45	2328.34
627.64	1954.58
627.84	2118.01
628.04	1932.46
628.23	2409.84
628.43	1836.62
628.63	1852.59
628.82	1970.76
629.02	2360.49
629.22	1977.31
629.41	2069.06
629.61	2043.46
629.81	2386.50
630.00	1874.71
630.20	1814.09
630.40	2067.63
630.59	2103.26
630.79	1936.35
630.98	1893.14
631.18	2024.01
631.38	2033.22
631.57	2048.79
631.77	1790.13
631.97	2070.70
632.16	2105.52
632.36	1932.67
632.56	1978.54
632.75	2102.04
632.95	2230.24
633.14	1841.33
633.34	2088.52
633.54	1803.24
633.73	1993.08
633.93	1896.01
634.12	1785.83
634.32	2499.96
634.52	2076.64
634.71	1770.47
634.91	1998.61
635.11	1882.29
635.30	1944.34
635.50	1943.93
635.69	1858.12
635.89	2352.09
636.09	2178.22
636.28	1839.69
636.48	1845.42
636.67	2146.07
636.87	2141.77
637.07	1999.23
637.26	1888.43
637.46	2080.33
637.65	2204.23
637.85	1972.40
638.04	1857.71
638.24	1971.99
638.44	2070.91
638.63	1934.31
638.83	1887.82
639.02	2122.92
639.22	2172.89
639.42	1905.23
639.61	1925.09
639.81	2063.33
640.00	2038.14
640.20	2034.04
640.39	1983.46
640.59	2363.15
640.79	2168.59
640.98	1954.99
641.18	1860.99
641.37	1997.79
641.57	1945.98
641.76	1937.99
641.96	1734.42
642.15	2065.38
642.35	1947.00
642.55	1957.45
642.74	1815.32
642.94	2161.02
643.13	2235.36
643.33	1908.91
643.52	1860.37
643.72	1968.71
643.91	2045.92
644.11	1843.79
644.31	1862.83
644.50	1941.06
644.70	2268.13
644.89	1961.54
645.09	2019.09
645.28	2053.29
645.48	2150.16
645.67	1823.10
645.87	1765.96
646.06	1957.86
646.26	2096.51
646.45	1739.75
646.65	1694.90
646.84	2342.67
647.04	1997.18
647.24	1776.82
647.43	1912.80
647.63	2090.16
647.82	2301.51
648.02	1842.35
648.21	1897.85
648.41	2262.80
648.60	1992.26
648.80	2062.30
648.99	1940.45
649.19	1985.51
649.38	1795.45
649.58	1939.84
649.77	2003.53
649.97	2235.36
650.16	2134.39
650.36	1709.03
650.55	2057.80
650.75	2083.40
650.94	2291.27
651.14	1948.44
651.33	1978.13
651.53	2326.29
651.72	1944.14
651.92	1917.92
652.11	1750.81
652.31	2136.85
652.50	2101.22
652.70	1935.94
652.89	1814.71
653.09	2310.72
653.28	1972.81
653.48	1744.87
653.67	1762.07
653.87	2541.12
654.06	2058.62
654.25	2154.67
654.45	1864.47
654.64	1984.07
654.84	1995.75
655.03	1729.30
655.23	2090.36
655.42	2206.48
655.62	2401.65
655.81	2068.24
656.01	1876.35
656.20	2240.27
656.40	2335.91
656.59	1992.47
656.79	2076.23
656.98	2108.79
657.17	2213.85
657.37	1935.33
657.56	1897.03
657.76	2118.62
657.95	2243.96
658.15	1606.22
658.34	1971.78
658.54	2046.13
658.73	1861.19
658.92	1916.49
659.12	1936.35
659.31	2137.26
659.51	1887.20
659.70	1965.64
659.90	1860.17
660.09	2196.04
660.29	2018.27
660.48	1825.35
660.67	2099.78
660.87	1973.01
661.06	2107.56
661.26	2001.89
661.45	2037.52
661.65	2119.85
661.84	1938.61
662.03	1871.84
662.23	1877.37
662.42	2394.69
662.62	1861.19
662.81	1827.20
663.00	1895.19
663.20	2074.18
663.39	2146.89
663.59	2028.92
663.78	1913.21
663.97	2023.60
664.17	2232.08
664.36	1794.84
664.56	1867.13
664.75	2174.33
664.94	2158.76
665.14	1988.17
665.33	1913.01
665.53	2069.27
665.72	2004.35
665.91	2032.61
666.11	1927.14
666.30	2071.11
666.50	2081.15
666.69	1959.09
666.88	1873.89
667.08	2068.45
667.27	1992.47
667.47	1921.81
667.66	1893.76
667.85	2222.25
668.05	2045.92
668.24	1843.79
668.43	2119.24
668.63	1982.02
668.82	2208.94
669.02	2014.59
669.21	1897.44
669.40	1853.62
669.60	2346.56
669.79	1786.44
669.98	2518.18
670.18	1895.60
670.37	1854.85
670.56	1938.20
670.76	1983.05
670.95	2011.11
671.15	2165.93
671.34	1962.36
671.53	1918.95
671.73	1955.40
671.92	1920.59
672.11	1841.74
672.31	1891.09
672.50	2108.79
672.69	1823.51
672.89	1688.96
673.08	1901.74
673.27	2169.82
673.47	2070.09
673.66	1947.41
673.85	1802.01
674.05	2041.21
674.24	2043.67
674.43	1798.73
674.63	1975.68
674.82	2404.52
675.01	1726.23
675.21	2013.15
675.40	1892.12
675.59	1948.64
675.79	2300.69
675.98	1885.56
676.17	2044.28
676.37	2067.42
676.56	1947.62
676.75	1905.63
676.95	1918.95
677.14	1959.70
677.33	2213.44
677.52	1767.60
677.72	1872.87
677.91	2084.63
678.10	1819.01
678.30	1806.51
678.49	1813.07
678.68	2398.58
678.88	1748.15
679.07	2084.42
679.26	1887.20
679.45	2371.14
679.65	2241.30
679.84	1739.34
680.03	1793.41
680.23	1991.44
680.42	2466.37
680.61	1805.90
680.81	1859.15
681.00	2072.34
681.19	2112.27
681.38	1999.64
681.58	1970.97
681.77	1966.87
681.96	2195.22
682.15	1849.73
682.35	1985.10
682.54	2094.25
682.73	1833.75
682.93	1812.25
683.12	1808.56
683.31	2177.61
683.50	2495.04
683.70	1826.58
683.89	1925.71
684.08	1885.36
684.27	2192.96
684.47	1771.90
684.66	1924.48
684.85	2388.34
685.04	2234.33
685.24	1839.49
685.43	1909.53
685.62	1771.70
685.81	2116.58
686.01	1971.58
686.20	1829.86
686.39	1807.74
686.58	2368.68
686.78	1941.88
686.97	1920.59
687.16	2180.68
687.35	2069.68
687.55	1870.00
687.74	1909.53
687.93	1862.22
688.12	1960.32
688.32	1911.16
688.51	1726.03
688.70	2080.74
688.89	1866.31
689.08	1742.62
689.28	1846.45
689.47	2034.25
689.66	2034.25
689.85	2001.89
690.05	1844.40
690.24	1911.57
690.43	2076.85
690.62	1956.01
690.81	1867.54
691.01	2033.63
691.20	1961.75
691.39	1762.07
691.58	1960.32
691.77	2328.54
691.97	2049.40
692.16	1977.52
692.35	1901.13
692.54	1926.52
692.73	2096.92
692.93	1948.23
693.12	1955.20
693.31	2093.02
693.50	2045.31
693.69	2009.88
693.89	1871.64
694.08	2220.00
694.27	2266.49
694.46	1885.36
694.65	1903.59
694.85	2126.20
695.04	2083.60
695.23	1876.14
695.42	2091.39
695.61	2226.55
695.80	2338.99
696.00	2345.74
696.19	2373.80
696.38	2187.03
696.57	2298.44
696.76	2156.72
696.95	2015.20
697.15	2367.66
697.34	2356.80
697.53	1926.73
697.72	2073.57
697.91	2048.79
698.10	2322.60
698.30	1893.96
698.49	1889.25
698.68	2106.75
698.87	1984.28
699.06	1829.04
699.25	1910.14
699.45	2224.09
699.64	2072.34
699.83	2084.22
700.02	1859.56
700.21	2121.29
700.40	1960.73
700.59	1868.16
700.79	1927.96
700.98	2145.25
701.17	1943.11
701.36	1863.04
701.55	1874.92
701.74	2168.59
701.93	1820.64
702.12	1861.60
702.32	1791.15
702.51	2131.53
702.70	2109.00
702.89	1923.04
703.08	1867.75
703.27	2211.60
703.46	2113.91
703.65	1824.33
703.85	1761.25
704.04	1885.56
704.23	2193.37
704.42	1816.34
704.61	1845.22
704.80	2307.04
704.99	1916.90
705.18	1955.20
705.37	1901.54
705.57	2118.21
705.76	2306.83
705.95	1991.65
706.14	2357.83
706.33	2500.57
706.52	2719.09
706.71	2184.36
706.90	2055.34
707.09	2220.00
707.28	2165.52
707.47	1904.00
707.67	2077.25
707.86	1954.79
708.05	2251.54
708.24	1921.40
708.43	1971.99
708.62	1977.93
708.81	1924.89
709.00	1825.56
709.19	1831.29
709.38	2214.88
709.57	1854.64
709.76	1905.43
709.96	1830.27
710.15	2252.36
710.34	2020.94
710.53	2009.88
710.72	1915.06
710.91	2235.15
711.10	2144.02
711.29	1995.34
711.48	1871.43
711.67	1847.27
711.86	2102.44
712.05	1766.58
712.24	1803.65
712.43	2139.51
712.62	2249.08
712.81	1900.31
713.00	2079.30
713.19	1838.05
713.39	2107.77
713.58	1786.85
713.77	1933.69
713.96	2103.06
714.15	2004.55
714.34	1884.75
714.53	1732.58
714.72	2368.27
714.91	1846.04
715.10	1958.88
715.29	1773.34
715.48	2501.59
715.67	2102.24
715.86	1927.14
716.05	1867.75
716.24	1991.85
716.43	1947.41
716.62	1786.44
716.81	1778.87
717.00	1975.47
717.19	2293.52
717.38	1888.43
717.57	1873.48
717.76	1814.09
717.95	2181.50
718.14	1891.71
718.33	1930.82
718.52	1774.77
718.71	1821.87
718.90	1808.77
719.09	1833.55
719.28	2028.72
719.47	2164.70
719.66	1974.86
719.85	1983.05
720.04	1967.48
720.23	2020.94
720.42	1798.32
720.61	1950.08
720.80	1825.35
720.99	2060.67
721.18	1859.15
721.37	1777.43
721.56	1960.93
721.75	2146.68
721.94	1808.77
722.13	1874.10
722.32	1979.57
722.51	2182.73
722.70	1925.50
722.89	1970.97
723.08	2013.15
723.27	2167.16
723.46	1980.18
723.65	1919.97
723.84	1935.74
724.03	2229.62
724.22	1799.55
724.41	1900.11
724.60	2018.07
724.79	2182.52
724.98	1937.79
725.16	1877.58
725.35	2153.23
725.54	1868.98
725.73	1908.30
725.92	1943.52
726.11	1958.47
726.30	2163.47
726.49	1846.45
726.68	1888.23
726.87	2126.82
727.06	2273.04
727.25	1899.70
727.44	2005.37
727.63	2004.55
727.82	1950.90
728.01	1961.54
728.20	1965.85
728.38	2271.61
728.57	1981.61
728.76	1882.08
728.95	2016.84
729.14	1824.94
729.33	1855.66
729.52	1652.30
729.71	1794.23
729.90	1850.13
730.09	1942.09
730.28	1829.86
730.47	1832.11
730.66	2175.35
730.84	2009.67
731.03	1907.68
731.22	1913.01
731.41	2009.67
731.60	2046.94
731.79	1712.51
731.98	1797.71
732.17	2135.21
732.36	2073.57
732.55	1838.26
732.73	1753.27
732.92	2217.34
733.11	2095.28
733.30	1824.33
733.49	1758.59
733.68	2094.05
733.87	2037.73
734.06	1769.04
734.25	1782.96
734.43	1866.52
734.62	2043.05
734.81	1853.41
735.00	1808.77
735.19	1949.26
735.38	2089.13
735.57	1751.01
735.76	1950.28
735.94	2055.75
736.13	2372.98
736.32	1950.28
736.51	1872.46
736.70	2328.54
736.89	2319.12
737.08	2058.21
737.27	2225.53
737.45	2600.10
737.64	2485.82
737.83	2502.82
738.02	2494.02
738.21	2637.17
738.40	2643.11
738.59	2173.92
738.77	2237.20
738.96	2129.68
739.15	2224.30
739.34	2154.46
739.53	2086.06
739.72	2323.83
739.90	2289.22
740.09	1874.10
740.28	1946.80
740.47	2148.11
740.66	2131.32
740.85	1787.47
741.03	1875.32
741.22	1853.82
741.41	1964.82
741.60	1737.09
741.79	1955.81
741.98	2231.06
742.16	2335.30
742.35	1901.74
742.54	1908.91
742.73	2341.24
742.92	1959.91
743.10	1745.69
743.29	1832.52
743.48	2409.23
743.67	1939.02
743.86	1715.38
744.05	1764.33
744.23	1860.17
744.42	1868.36
744.61	1896.62
744.80	1744.46
744.99	1919.56
745.17	1735.65
745.36	1720.91
745.55	1939.84
745.74	1994.93
745.93	1914.65
746.11	1813.07
746.30	1761.05
746.49	2189.07
746.68	1870.41
746.86	1870.61
747.05	1833.96
747.24	2102.65
747.43	2112.68
747.62	1765.96
747.80	1796.48
747.99	2180.27
748.18	2153.85
748.37	1907.27
748.56	1962.98
748.74	2184.57
748.93	2058.62
749.12	2101.22
749.31	2540.71
749.49	2900.54
749.68	3208.14
749.87	3395.33
750.06	3247.05
750.24	3344.13
750.43	3269.79
750.62	3136.26
750.81	3288.83
750.99	3469.26
751.18	3457.18
751.37	2972.83
751.56	2970.37
751.74	3291.50
751.93	3333.07
752.12	2408.41
752.31	2339.19
752.49	2359.46
752.68	2609.93
752.87	2164.29
753.06	2088.52
753.24	2137.06
753.43	2311.54
753.62	1875.94
753.81	1875.32
753.99	2309.29
754.18	2135.62
754.37	1837.23
754.55	1899.08
754.74	2342.06
754.93	1746.10
755.12	1849.32
755.30	1796.89
755.49	2171.87
755.68	2063.12
755.86	1954.79
756.05	1747.53
756.24	2285.94
756.43	1854.64
756.61	1817.37
756.80	1951.10
756.99	2218.36
757.17	1995.95
757.36	1808.77
757.55	1874.71
757.74	2096.30
757.92	2039.78
758.11	1778.46
758.30	1717.63
758.48	1975.47
758.67	1831.50
758.86	1897.65
759.04	1799.35
759.23	1920.38
759.42	1993.29
759.60	1809.79
759.79	1886.79
759.98	1950.49
760.16	1884.54
760.35	1815.52
760.54	1768.83
760.73	2052.27
760.91	1805.90
761.10	1865.09
761.29	1935.13
761.47	1996.16
761.66	2382.61
761.85	1920.79
762.03	2072.95
762.22	2359.26
762.41	2962.80
762.59	3410.89
762.78	3742.66
762.97	4503.07
763.15	4496.93
763.34	4159.63
763.52	3450.42
763.71	3515.34
763.90	3480.11
764.08	3026.08
764.27	3011.54
764.46	3173.12
764.64	2747.35
764.83	2638.19
765.02	2484.19
765.20	2517.98
765.39	2491.97
765.58	2028.72
765.76	2042.64
765.95	2138.69
766.13	2109.61
766.32	1921.20
766.51	1889.46
766.69	2794.25
766.88	2101.01
767.07	1782.96
767.25	1679.74
767.44	2198.70
767.62	2221.84
767.81	1792.79
768.00	1864.88
768.18	2016.84
768.37	1902.15
768.56	1708.21
768.74	1804.47
768.93	1820.23
769.11	2086.68
769.30	1937.99
769.49	1843.38
769.67	1963.80
769.86	1916.69
770.04	1845.63
770.23	1827.61
770.42	2235.97
770.60	2024.83
770.79	1787.06
770.97	1814.71
771.16	2250.51
771.35	2197.88
771.53	2147.91
771.72	2306.63
771.90	2547.26
772.09	2787.29
772.27	2556.27
772.46	2248.06
772.65	2581.87
772.83	2413.12
773.02	2257.07
773.20	2055.55
773.39	2327.52
773.58	2329.15
773.76	1926.73
773.95	1949.87
774.13	2172.08
774.32	2060.46
774.50	1877.58
774.69	1962.98
774.87	2004.96
775.06	2409.84
775.25	1858.53
775.43	1877.99
775.62	2082.17
775.80	2133.16
775.99	1935.54
776.17	1866.52
776.36	2087.08
776.54	2259.93
776.73	1894.78
776.92	1999.43
777.10	2237.20
777.29	2149.34
777.47	1848.50
777.66	1883.93
777.84	2051.66
778.03	1993.08
778.21	1829.04
778.40	1952.33
778.58	2126.20
778.77	2208.32
778.95	1809.18
779.14	1835.80
779.32	2314.82
779.51	2171.05
779.70	1844.20
779.88	1729.51
780.07	1966.66
780.25	2439.54
780.44	1874.10
780.62	2006.39
780.81	2125.18
780.99	2087.49
781.18	1834.16
781.36	1814.71
781.55	2018.27
781.73	2292.70
781.92	1759.21
782.10	1770.67
782.29	2095.89
782.47	2280.21
782.66	1865.09
782.84	1735.45
783.03	1909.94
783.21	2198.70
783.40	1834.57
783.58	1848.09
783.77	1935.33
783.95	1983.25
784.14	1800.98
784.32	1885.56
784.51	2226.96
784.69	1892.12
784.88	1742.21
785.06	1871.43
785.24	1796.07
785.43	2127.84
785.61	1938.81
785.80	1780.91
785.98	2108.59
786.17	2028.51
786.35	1740.98
786.54	1974.86
786.72	2147.30
786.91	2185.39
787.09	1898.47
787.28	1753.68
787.46	2010.49
787.65	2129.68
787.83	1739.14
788.01	1859.35
788.20	1829.86
788.38	1980.80
788.57	1807.54
788.75	1795.25
788.94	2330.38
789.12	2178.01
789.31	1899.29
789.49	2001.68
789.67	1917.72
789.86	2072.34
790.04	1783.78
790.23	1689.16
790.41	2336.12
790.60	1990.01
790.78	1812.86
790.96	1868.77
791.15	2114.94
791.33	1959.50
791.52	1879.01
791.70	1772.72
791.89	1964.21
792.07	2160.61
792.25	1873.89
792.44	1752.86
792.62	2204.84
792.81	1926.73
792.99	1863.65
793.17	1816.14
793.36	1861.40
793.54	2317.69
793.73	2124.15
793.91	2063.74
794.10	2526.17
794.28	2637.17
794.46	2324.44
794.65	2350.66
794.83	2218.77
795.01	2318.10
795.20	2300.48
795.38	2182.11
795.57	2299.87
795.75	2282.87
795.93	2010.29
796.12	2049.81
796.30	2209.96
796.49	2206.07
796.67	1854.44
796.85	2017.86
797.04	2044.08
797.22	2132.96
797.40	1808.77
797.59	1934.10
797.77	2035.07
797.96	1887.00
798.14	1777.43
798.32	1844.20
798.51	2139.51
798.69	2344.51
798.87	1900.51
799.06	1855.05
799.24	1776.00
799.42	2187.85
799.61	2030.56
799.79	2021.55
799.98	2550.13
800.16	2239.66
800.34	2318.30
800.53	2522.69
800.71	2616.48
800.89	3118.44
801.08	2809.40
801.26	2818.00
801.44	2656.83
801.63	2459.82
801.81	2395.51
801.99	2302.33
802.18	2335.91
802.36	2346.77
802.54	2229.21
802.73	2018.48
802.91	2239.04
803.09	2210.58
803.28	2115.96
803.46	2063.12
803.64	2383.22
803.83	1922.84
804.01	1842.35
804.19	1783.78
804.38	2149.75
804.56	2067.83
804.74	1893.35
804.92	1898.47
805.11	1851.36
805.29	2185.18
805.47	1828.43
805.66	1776.61
805.84	1811.43
806.02	2153.44
806.21	1804.67
806.39	2026.87
806.57	2136.44
806.76	2141.36
806.94	1893.35
807.12	1833.55
807.30	1887.41
807.49	1989.19
807.67	1888.43
807.85	1985.30
808.04	2145.25
808.22	2412.10
808.40	1777.02
808.58	1728.08
808.77	2095.28
808.95	2249.90
809.13	1885.56
809.31	2298.44
809.50	2592.93
809.68	2791.79
809.86	2568.56
810.05	2688.16
810.23	3300.92
810.41	3690.85
810.59	5201.43
810.78	6153.53
810.96	7055.87
811.14	7554.55
811.32	7036.41
811.51	5937.27
811.69	5261.03
811.87	5341.31
812.05	4646.23
812.24	4415.42
812.42	4460.27
812.60	4299.10
812.78	3564.69
812.97	3295.39
813.15	3528.65
813.33	3105.13
813.51	2874.12
813.70	2427.46
813.88	2390.59
814.06	2364.99
814.24	2127.02
814.42	1926.32
814.61	2146.27
814.79	2388.75
814.97	1788.70
815.15	1849.93
815.34	2095.69
815.52	2169.41
815.70	1793.41
815.88	1868.77
816.06	1892.53
816.25	1932.67
816.43	1821.46
816.61	1972.81
816.79	2218.15
816.98	1777.02
817.16	1777.23
817.34	1777.84
817.52	2045.92
817.70	2281.44
817.89	1867.34
818.07	1784.40
818.25	1985.51
818.43	2043.26
818.61	1866.11
818.80	1838.46
818.98	2297.00
819.16	2054.73
819.34	1772.93
819.52	2107.36
819.70	1890.07
819.89	2003.73
820.07	1741.39
820.25	1723.98
820.43	2049.40
820.61	2177.20
820.80	1877.17
820.98	1733.40
821.16	1744.46
821.34	1840.30
821.52	1868.57
821.70	1963.59
821.89	2025.24
822.07	1980.18
822.25	1901.13
822.43	1813.27
822.61	2285.33
822.79	2075.62
822.98	1867.75
823.16	1732.79
823.34	2076.64
823.52	2218.36
823.70	1947.21
823.88	1712.51
824.06	2090.16
824.25	2006.80
824.43	1963.80
824.61	1766.78
824.79	2024.62
824.97	2029.13
825.15	1953.76
825.33	2109.82
825.52	2326.90
825.70	2205.87
825.88	2080.53
826.06	2180.68
826.24	2302.74
826.42	2355.16
826.60	2089.75
826.78	2137.06
826.97	2118.21
827.15	2316.46
827.33	1927.55
827.51	2001.68
827.69	1969.12
827.87	2107.77
828.05	2003.32
828.23	1839.90
828.41	2215.49
828.60	2178.22
828.78	1749.99
828.96	1958.47
829.14	1905.43
829.32	1974.86
829.50	1873.07
829.68	1858.74
829.86	1958.27
830.04	2094.46
830.22	1942.50
830.41	1782.96
830.59	2004.35
830.77	2133.78
830.95	1796.89
831.13	1831.09
831.31	1881.88
831.49	2146.27
831.67	1999.43
831.85	1990.22
832.03	1943.73
832.21	2110.02
832.39	1736.68
832.57	1777.64
832.76	2156.10
832.94	1959.70
833.12	1688.14
833.30	1849.93
833.48	2224.91
833.66	2066.61
833.84	1838.67
834.02	1903.59
834.20	2158.97
834.38	2160.20
834.56	1730.12
834.74	1767.40
834.92	1831.50
835.10	2316.46
835.28	1892.73
835.46	1904.82
835.64	1998.61
835.82	1946.18
836.01	2136.44
836.19	2060.67
836.37	1945.37
836.55	1863.65
836.73	1812.66
836.91	1764.12
837.09	2097.12
837.27	2270.17
837.45	1721.93
837.63	1740.98
837.81	1831.50
837.99	1976.90
838.17	1890.48
838.35	1782.55
838.53	2367.04
838.71	2117.80
838.89	1828.22
839.07	1807.95
839.25	2040.19
839.43	2149.55
839.61	1889.87
839.79	2189.28
839.97	2465.55
840.15	2573.07
840.33	2416.19
840.51	2666.25
840.69	2543.17
840.87	2452.65
841.05	2346.36
841.23	2275.50
841.41	2567.13
841.59	3060.69
841.77	3023.01
841.95	3150.19
842.13	3611.39
842.31	3288.83
842.49	2858.15
842.67	2809.61
842.85	2907.30
843.03	2573.07
843.21	2462.48
843.39	2603.17
843.57	2571.43
843.75	2529.65
843.93	2192.76
844.11	2223.48
844.29	2304.58
844.47	2212.01
844.65	2230.03
844.83	2018.68
845.01	2085.45
845.19	2242.12
845.36	2001.89
845.54	2008.85
845.72	2082.17
845.90	2187.44
846.08	1829.66
846.26	1902.56
846.44	2116.17
846.62	2109.41
846.80	1963.18
846.98	1818.19
847.16	1968.51
847.34	2045.72
847.52	1805.08
847.70	1746.10
847.88	1995.95
848.06	2267.72
848.24	1979.57
848.41	1769.65
848.59	2191.53
848.77	2088.11
848.95	1863.24
849.13	1839.08
849.31	2214.88
849.49	2071.93
849.67	1838.05
849.85	1776.61
850.03	2078.28
850.21	2055.34
850.39	1796.68
850.57	1968.92
850.74	2258.30
850.92	2258.50
851.10	2018.89
851.28	1975.06
851.46	2280.82
851.64	2621.81
851.82	2112.68
852.00	2171.67
852.18	2486.03
852.36	2310.52
852.53	2033.84
852.71	2085.86
852.89	2223.48
853.07	2218.97
853.25	1938.81
853.43	1843.58
853.61	2111.05
853.79	2132.35
853.97	1849.73
854.14	1867.13
854.32	2264.44
854.50	2159.17
854.68	1888.23
854.86	1844.81
855.04	1935.74
855.22	2159.79
855.40	1737.29
855.57	1814.30
855.75	2143.81
855.93	2118.83
856.11	1721.73
856.29	1823.31
856.47	1897.65
856.65	2056.16
856.82	1797.91
857.00	1737.91
857.18	1985.30
857.36	1931.03
857.54	1924.68
857.72	1989.40
857.89	2101.01
858.07	2018.68
858.25	2062.71
858.43	1757.98
858.61	1973.63
858.79	2027.49
858.97	1802.83
859.14	1960.32
859.32	1982.64
859.50	1964.41
859.68	1920.18
859.86	1800.78
860.03	2045.10
860.21	2065.99
860.39	1818.80
860.57	1972.19
860.75	2067.01
860.93	2320.76
861.10	2049.81
861.28	1775.79
861.46	2040.19
861.64	2044.90
861.82	1834.57
861.99	1951.92
862.17	2193.37
862.35	2158.35
862.53	1883.52
862.71	1870.41
862.88	2066.20
863.06	2140.54
863.24	1842.35
863.42	1804.67
863.60	1987.14
863.77	2108.18
863.95	1724.39
864.13	1862.42
864.31	1963.18
864.49	2148.93
864.66	1761.66
864.84	1804.87
865.02	2088.72
865.20	2495.04
865.37	1947.21
865.55	1802.01
865.73	1855.05
865.91	2139.72
866.09	1964.82
866.26	1913.42
866.44	2146.27
866.62	2001.07
866.80	1782.76
866.97	1832.93
867.15	1979.77
867.33	2054.32
867.51	1943.32
867.68	1899.49
867.86	1942.09
868.04	1946.18
868.22	1662.13
868.39	1841.33
868.57	2074.59
868.75	2287.58
868.93	1740.77
869.10	1821.26
869.28	2328.54
869.46	2225.94
869.64	1858.33
869.81	1815.32
869.99	2069.06
870.17	2032.40
870.35	1790.74
870.52	1861.40
870.70	2172.49
870.88	1909.73
871.05	1795.04
871.23	1650.87
871.41	2001.68
871.59	2002.50
871.76	1828.43
871.94	1777.23
872.12	2020.73
872.29	1817.78
872.47	1839.28
872.65	1770.06
872.83	2049.40
873.00	2203.82
873.18	1876.76
873.36	1795.45
873.53	2129.48
873.71	1810.20
873.89	1778.05
874.06	1849.93
874.24	2075.00
874.42	2229.83
874.60	1985.30
874.77	1904.00
874.95	1930.62
875.13	2186.41
875.30	1827.20
875.48	1803.85
875.66	2232.08
875.83	1867.13
876.01	1816.55
876.19	1934.31
876.36	1828.63
876.54	2025.24
876.72	1786.03
876.89	1932.05
877.07	2131.12
877.25	1726.85
877.42	1864.06
877.60	1850.95
877.78	2315.23
877.95	1971.78
878.13	1767.81
878.31	1967.69
878.48	2163.47
878.66	2136.03
878.84	1827.20
879.01	1832.32
879.19	2083.19
879.37	2113.71
879.54	1864.88
879.72	1706.57
879.90	1723.78
880.07	2149.96
880.25	1600.69
880.42	1977.72
880.60	2028.10
880.78	2149.55
880.95	1837.64
881.13	1888.23
881.31	2034.66
881.48	1935.54
881.66	1789.31
881.83	1938.61
882.01	1906.86
882.19	1836.82
882.36	1860.99
882.54	1842.56
882.72	2102.65
882.89	2043.26
883.07	1780.71
883.24	1825.56
883.42	2134.60
883.60	2026.06
883.77	1759.21
883.95	1850.54
884.12	2166.75
884.30	2022.78
884.48	1965.85
884.65	1863.86
884.83	2046.94
885.00	2039.57
885.18	1708.21
885.36	1827.61
885.53	2122.92
885.71	2208.12
885.88	1746.30
886.06	1831.50
886.23	2104.49
886.41	1974.24
886.59	1821.46
886.76	1765.96
886.94	2118.01
887.11	2527.81
887.29	1856.28
887.47	1766.78
887.64	2231.47
887.82	2265.67
887.99	1683.43
888.17	1872.25
888.34	1952.94
888.52	1853.82
888.69	1824.94
888.87	1733.81
889.05	1967.48
889.22	1945.78
889.40	1813.07
889.57	2040.19
889.75	2294.13
889.92	1957.65
890.10	1758.18
890.27	1894.99
890.45	1900.72
890.62	1770.88
890.80	1750.81
890.98	1675.03
891.15	2282.67
891.33	2158.97
891.50	1791.77
891.68	1723.37
891.85	2111.66
892.03	2135.42
892.20	1779.07
892.38	1771.29
892.55	2127.84
892.73	2150.98
892.90	1701.45
893.08	1786.24
893.25	1905.23
893.43	1923.86
893.60	1893.35
893.78	1678.52
893.95	2064.76
894.13	2013.56
894.30	1777.43
894.48	1869.59
894.65	2164.70
894.83	2060.26
895.00	1670.12
895.18	1679.33
895.35	2146.68
895.53	2133.16
895.70	1723.37
895.88	1946.80
896.05	2092.00
896.23	1774.77
896.40	1794.84
896.58	1868.98
896.75	2115.35
896.93	2238.63
897.10	1834.98
897.28	1703.71
897.45	2033.22
897.63	2107.36
897.80	1920.79
897.98	1798.12
898.15	2091.80
898.33	1920.99
898.50	1870.82
898.67	1823.10
898.85	1974.65
899.02	2071.52
899.20	2038.75
899.37	1812.25
899.55	2044.69
899.72	2244.57
899.90	1805.28
900.07	1786.24
900.25	2098.96
900.42	2201.98
900.59	1779.07
900.77	1929.19
900.94	2103.67
901.12	2067.22
901.29	1818.80
901.47	1948.03
901.64	2086.47
901.82	1967.48
901.99	1635.51
902.16	1771.90
902.34	2180.27
902.51	2073.36
902.69	1809.79
902.86	1814.71
903.03	2611.98
903.21	2003.73
903.38	1808.15
903.56	1765.35
903.73	2161.84
903.91	1966.87
904.08	1778.66
904.25	1653.33
904.43	1920.79
904.60	2157.54
904.78	1821.05
904.95	1741.18
905.12	1956.01
905.30	2297.62
905.47	1928.16
905.65	1974.86
905.82	1983.25
905.99	2079.51
906.17	1826.38
906.34	1790.33
906.52	1870.21
906.69	2109.00
906.86	1910.14
907.04	1889.05
907.21	2144.84
907.38	2151.19
907.56	1765.96
907.73	1789.92
907.91	2276.52
908.08	2183.54
908.25	1821.05
908.43	1722.96
908.60	2088.72
908.77	2053.91
908.95	1832.32
909.12	1742.82
909.30	2095.28
909.47	1795.66
909.64	1829.25
909.82	2007.83
909.99	1954.38
910.16	2022.37
910.34	1787.06
910.51	1786.44
910.68	2047.35
910.86	2012.95
911.03	1719.27
911.20	1824.94
911.38	2304.99
911.55	2651.71
911.72	2597.64
911.90	2527.40
912.07	2889.89
912.24	3101.44
912.42	2434.22
912.59	2193.17
912.76	2487.46
912.94	2291.68
913.11	2016.84
913.28	1888.43
913.46	1939.84
913.63	2155.49
913.80	2179.04
913.98	1849.32
914.15	2216.72
914.32	2268.13
914.49	1947.00
914.67	1772.52
914.84	2087.70
915.01	2136.24
915.19	1910.35
915.36	1813.48
915.53	2156.72
915.71	2134.39
915.88	1924.27
916.05	1823.31
916.22	2165.93
916.40	2064.56
916.57	1722.14
916.74	1949.05
916.92	2256.04
917.09	1906.45
917.26	1776.61
917.43	1726.23
917.61	1950.69
917.78	1778.87
917.95	1727.26
918.13	1739.54
918.30	2375.64
918.47	2017.45
918.64	1743.44
918.82	1741.59
918.99	1974.24
919.16	2244.78
919.33	1837.44
919.51	1797.71
919.68	1986.12
919.85	2189.89
920.02	1702.27
920.20	1821.87
920.37	2273.86
920.54	2130.50
920.71	1761.25
920.89	1787.67
921.06	2303.76
921.23	1865.70
921.40	1739.14
921.58	1898.88
921.75	2539.69
921.92	1959.50
922.09	1902.36
922.27	1886.18
922.44	2074.80
922.61	2124.36
922.78	1813.89
922.96	1837.64
923.13	1977.31
923.30	2141.77
923.47	1729.10
923.64	1768.01
923.82	2084.42
923.99	2054.52
924.16	1907.68
924.33	1733.40
924.50	1999.43
924.68	2286.15
924.85	1770.47
925.02	1815.73
925.19	2143.20
925.36	2048.17
925.54	1829.66
925.71	1875.53
925.88	2534.57
926.05	1964.41
926.22	1759.61
926.40	1926.73
926.57	2043.26
926.74	2128.04
926.91	1785.42
927.08	1967.69
927.26	2198.29
927.43	2019.71
927.60	1777.02
927.77	1834.57
927.94	2300.89
928.11	2221.84
928.29	1693.06
928.46	1867.34
928.63	1877.17
928.80	1967.48
928.97	1898.06
929.14	1749.99
929.32	2375.85
929.49	2053.09
929.66	1781.12
929.83	1722.14
930.00	1935.13
930.17	2076.64
930.35	1736.88
930.52	1801.39
930.69	2286.76
930.86	1855.66
931.03	1879.01
931.20	1629.77
931.37	2178.42
931.55	2002.30
931.72	1863.04
931.89	1736.68
932.06	1851.16
932.23	2278.16
932.40	1928.37
932.57	1936.76
932.74	2230.65
932.92	2204.43
933.09	1963.18
933.26	1569.15
933.43	1953.56
933.60	2085.65
933.77	1880.44
933.94	1893.14
934.11	1987.35
934.29	2036.91
934.46	1765.96
934.63	1895.60
934.80	1798.94
934.97	1999.64
935.14	1850.75
935.31	1657.83
935.48	1860.17
935.65	2063.12
935.82	1863.86
936.00	1725.82
936.17	2253.38
936.34	1988.78
936.51	1907.27
936.68	1714.97
936.85	2081.15
937.02	2070.70
937.19	1893.76
937.36	1851.36
937.53	2081.56
937.70	2140.74
937.87	1813.48
938.05	1928.57
938.22	2058.21
938.39	1830.88
938.56	1832.11
938.73	1730.53
938.90	1996.16
939.07	1918.74
939.24	1891.09
939.41	1649.84
939.58	2061.89
939.75	2098.96
939.92	1781.32
940.09	2047.56
940.26	1947.82
940.43	2152.62
940.60	1862.42
940.77	1820.23
940.95	2079.51
941.12	2133.98
941.29	1825.76
941.46	1849.93
941.63	2229.21
941.80	2269.56
941.97	1707.60
942.14	1688.76
942.31	2116.99
942.48	1988.37
942.65	1936.56
942.82	1829.25
942.99	2107.77
943.16	2039.37
943.33	1729.10
943.50	1791.15
943.67	2146.48
943.84	2219.79
944.01	1808.77
944.18	1791.36
944.35	2251.95
944.52	1888.64
944.69	1892.53
944.86	1718.66
945.03	2124.56
945.20	2394.49
945.37	1666.64
945.54	1838.05
945.71	2240.48
945.88	2301.30
946.05	1769.44
946.22	1742.82
946.39	2219.79
946.56	2016.23
946.73	1677.08
946.90	1737.29
947.07	1922.43
947.24	1994.31
947.41	1676.67
947.58	1912.39
947.75	2108.38
947.92	2063.53
948.09	1620.15
948.26	1686.91
948.43	2036.50
948.60	2326.29
948.77	1749.78
948.94	1809.59
949.11	2134.39
949.27	2087.90
949.44	1765.96
949.61	1711.08
949.78	2086.27
949.95	2185.80
950.12	1691.62
950.29	1692.85
950.46	1956.83
950.63	2182.73
950.80	1754.49
950.97	1808.97
951.14	2197.47
951.31	1974.86
951.48	1751.63
951.65	1720.50
951.82	2346.56
951.99	2051.86
952.15	1749.58
952.32	1797.91
952.49	1947.00
952.66	1971.58
952.83	1807.54
953.00	1749.58
953.17	1990.22
953.34	2167.37
953.51	1842.76
953.68	1848.50
953.85	2185.80
954.02	2185.80
954.18	1855.25
954.35	1797.30
954.52	1905.02
954.69	2053.09
954.86	1695.10
955.03	1841.12
955.20	2118.83
955.37	1993.08
955.54	1786.24
955.71	1753.47
955.87	2096.30
956.04	2307.24
956.21	1806.31
956.38	1762.07
956.55	2035.89
956.72	2439.95
956.89	1845.63
957.06	1733.61
957.23	1916.69
957.39	2245.60
957.56	1815.93
957.73	1702.68
957.90	1694.08
958.07	2333.66
958.24	1845.42
958.41	1797.50
958.57	2126.41
958.74	2035.68
958.91	1720.50
959.08	1756.75
959.25	2115.35
959.42	1975.47
959.59	1870.41
959.75	1816.96
959.92	2221.64
960.09	2191.33
960.26	1760.23
960.43	1863.45
960.60	2069.06
960.76	1966.25
960.93	1676.06
961.10	1861.81
961.27	2191.53
961.44	1989.19
961.61	1689.57
961.77	1705.34
961.94	2053.09
962.11	2177.81
962.28	1781.73
962.45	1725.00
962.62	1992.47
962.78	2166.14
962.95	1694.08
963.12	1735.86
963.29	2145.45
963.46	2500.98
963.62	1837.03
963.79	1790.33
963.96	2472.72
964.13	1958.27
964.30	1860.17
964.46	1811.43
964.63	1849.52
964.80	2459.82
964.97	1616.87
965.14	1908.91
965.30	2085.04
965.47	2158.15
965.64	1921.40
965.81	1907.07
965.98	2243.14
966.14	2059.03
966.31	1760.02
966.48	1775.18
966.65	2219.18
966.81	2088.11
966.98	1781.12
967.15	1793.61
967.32	2008.03
967.49	1879.63
967.65	1684.66
967.82	1652.10
967.99	1970.15
968.16	1777.23
968.32	1948.85
968.49	1749.58
968.66	1970.35
968.83	2284.30
968.99	1859.97
969.16	1705.75
969.33	2228.60
969.50	2124.77
969.66	1911.98
969.83	2058.00
970.00	2145.66
970.17	2106.13
970.33	1793.00
970.50	1729.51
970.67	2290.04
970.84	2280.00
971.00	1746.10
971.17	1684.45
971.34	2124.97
971.50	2007.42
971.67	1884.75
971.84	1832.11
972.01	1866.11
972.17	1709.03
972.34	1704.32
972.51	1957.24
972.67	2239.04
972.84	2095.69
973.01	1741.80
973.18	1760.23
973.34	2163.06
973.51	1864.27
973.68	1821.05
973.84	1827.61
974.01	1966.46
974.18	2298.23
974.34	1848.91
974.51	1887.61
974.68	1924.68
974.85	2353.12
975.01	1915.26
975.18	1787.67
975.35	2019.09
975.51	1933.28
975.68	1722.14
975.85	1932.46
976.01	1928.16
976.18	2250.92
976.35	1830.88
976.51	1814.30
976.68	2302.33
976.85	2220.20
977.01	1823.31
977.18	1882.90
977.35	2090.16
977.51	1847.88
977.68	1628.75
977.85	1700.63
978.01	2193.58
978.18	2094.46
978.35	1848.70
978.51	1858.53
978.68	2159.38
978.85	2304.78
979.01	1821.87
979.18	1859.76
979.34	1992.47
979.51	2060.67
979.68	1725.41
979.84	1843.38
980.01	2459.61
980.18	2014.79
980.34	1743.23
980.51	1861.60
980.67	2179.86
980.84	2148.73
981.01	1777.02
981.17	1856.48
981.34	1740.57
981.51	2142.38
981.67	1738.11
981.84	1880.24
982.00	2104.90
982.17	1998.20
982.34	1654.55
982.50	1541.92
982.67	2288.20
982.83	1923.04
983.00	1703.91
983.17	1620.15
983.33	2191.12
983.50	1780.71
983.66	1675.24
983.83	1593.11
984.00	1951.92
984.16	2032.20
984.33	1590.25
984.49	1569.36
984.66	1873.69
984.83	2136.44
984.99	1632.64
985.16	1563.42
985.32	2141.56
985.49	2178.42
985.65	1723.57
985.82	1577.96
985.99	2272.02
986.15	2028.92
986.32	1706.57
986.48	1626.91
986.65	1954.99
986.81	2130.30
986.98	1624.86
987.14	1672.58
987.31	2046.54
987.48	1766.99
987.64	1532.70
987.81	1578.57
987.97	2385.47
988.14	1883.93
988.30	1601.51
988.47	1474.13
988.63	2077.46
988.80	1844.20
988.96	1652.71
989.13	1712.92
989.30	1961.54
989.46	2145.66
989.63	1564.44
989.79	1561.58
989.96	1995.13
990.12	2252.97
990.29	1624.45
990.45	1632.23
990.62	2013.77
990.78	2222.87
990.95	1716.20
991.11	1640.01
991.28	1950.90
991.44	2050.84
991.61	1532.09
991.77	1707.19
991.94	2058.41
992.10	2203.00
992.27	1670.73
992.43	1663.16
992.60	2099.99
992.76	1929.19
992.93	1826.58
993.09	1573.04
993.26	2159.79
993.42	2340.83
993.59	1613.18
993.75	1555.23
993.92	1901.13
994.08	1901.74
994.25	1699.81
994.41	1570.79
994.58	2121.70
994.74	2254.81
994.91	1569.56
995.07	1704.32
995.24	1993.29
995.40	2030.36
995.56	1763.10
995.73	1731.35
995.89	2286.15
996.06	2005.37
996.22	1607.25
996.39	1538.64
996.55	1994.52
996.72	2098.55
996.88	1548.47
997.05	1578.78
997.21	2356.80
997.37	2090.77
997.54	1720.70
997.70	1650.87
997.87	2061.49
998.03	1985.71
998.20	1556.46
998.36	1532.90
998.52	2121.70
998.69	2157.33
998.85	1554.61
999.02	1653.12
999.18	2159.17
999.35	2161.84
999.51	1670.53
999.67	1637.15
999.84	1831.29
1000.00	2128.04
1000.17	1686.09
1000.33	1586.15
1000.49	1934.72
1000.66	1969.33
1000.82	1618.30
1000.99	1668.07
1001.15	2218.77
1001.31	1972.40
1001.48	1625.88
1001.64	1720.70
1001.81	1981.00
1001.97	2382.81
1002.13	1648.61
1002.30	1653.53
1002.46	2231.88
1002.63	1947.41
1002.79	1744.46
1002.95	1609.50
1003.12	2198.29
1003.28	2105.72
1003.45	1609.50
1003.61	1566.29
1003.77	2020.32
1003.94	1816.34
1004.10	1639.19
1004.26	1720.29
1004.43	2070.29
1004.59	2301.30
1004.75	1618.10
1004.92	1578.78
1005.08	1946.80
1005.25	2069.68
1005.41	1616.26
1005.57	1693.67
1005.74	2203.82
1005.90	1967.89
1006.06	1737.70
1006.23	1625.47
1006.39	2124.77
1006.55	2462.89
1006.72	1755.31
1006.88	1571.20
1007.04	1857.30
1007.21	1985.92
1007.37	1655.37
1007.53	1608.07
1007.70	2265.87
1007.86	2147.30
1008.02	1703.30
1008.19	1589.02
1008.35	2039.16
1008.51	1884.95
1008.68	1644.31
1008.84	1578.78
1009.00	1872.05
1009.17	2205.66
1009.33	1763.92
1009.49	1704.93
1009.65	1908.91
1009.82	2082.99
1009.98	1739.75
1010.14	1535.77
1010.31	2112.07
1010.47	2089.13
1010.63	1717.84
1010.80	1674.21
1010.96	2087.29
1011.12	1966.25
1011.28	1663.77
1011.45	1591.27
1011.61	2475.79
1011.77	1832.32
1011.94	1591.89
1012.10	1573.66
1012.26	1850.95
1012.42	1917.72
1012.59	1710.26
1012.75	1652.10
1012.91	1989.19
1013.07	2166.14
1013.24	1595.98
1013.40	1607.25
1013.56	2063.33
1013.72	1993.49
1013.89	1688.76
1014.05	1743.23
1014.21	2319.73
1014.37	2461.86
1014.54	1686.71
1014.70	1575.71
1014.86	1987.14
1015.02	1852.80
1015.19	1637.56
1015.35	1589.43
1015.51	1999.02
1015.67	1950.49
1015.84	1628.14
1016.00	1636.33
1016.16	2188.05
1016.32	2160.81
1016.49	1629.98
1016.65	1568.74
1016.81	1994.93
1016.97	2115.14
1017.14	1756.54
1017.30	1630.80
1017.46	1932.46
1017.62	2058.41
1017.78	1699.61
1017.95	1581.85
1018.11	2162.04
1018.27	2411.07
1018.43	1779.28
1018.59	1702.89
1018.76	2155.08
1018.92	2467.19
1019.08	1609.29
1019.24	1656.40
1019.40	2266.49
1019.57	2095.28
1019.73	1741.59
1019.89	1642.68
1020.05	2041.82
1020.21	2379.53
1020.38	1604.99
1020.54	1770.47
1020.70	2148.93
1020.86	2141.77
1021.02	1621.58
1021.18	1607.86
1021.35	1930.82
1021.51	2091.59
1021.67	1796.89
1021.83	1685.27
1021.99	2012.95
1022.15	2079.51
1022.32	1695.31
1022.48	1656.19
1022.64	2271.61
1022.80	2302.12
1022.96	1704.73
1023.12	1564.85
1023.29	2174.12
1023.45	2085.24
1023.61	1620.35
1023.77	1840.30
1023.93	2046.13
1024.09	1899.08
1024.25	1639.19
1024.42	1537.41
1024.58	1959.29
1024.74	2086.68
1024.90	1643.09
1025.06	1722.96
1025.22	1924.27
1025.38	2301.92
1025.54	1585.33
1025.71	1715.79
1025.87	2121.70
1026.03	2128.04
1026.19	1599.05
1026.35	1801.19
1026.51	2152.01
1026.67	2036.50
1026.83	1686.91
1026.99	1786.85
1027.16	2096.92
1027.32	1977.52
1027.48	1640.63
1027.64	1612.16
1027.80	2141.77
1027.96	2045.92
1028.12	1664.59
1028.28	1635.30
1028.44	2079.51
1028.60	2265.67
1028.77	1793.20
1028.93	1680.97
1029.09	1933.28
1029.25	1857.10
1029.41	1671.76
1029.57	1740.77
1029.73	2071.52
1029.89	2255.22
1030.05	1748.56
1030.21	1725.62
1030.37	2400.22
1030.53	2124.97
1030.69	1666.02
1030.85	1572.23
1031.02	1874.10
1031.18	2012.33
1031.34	1650.87
1031.50	1737.70
1031.66	1883.31
1031.82	2264.44
1031.98	1693.26
1032.14	1597.21
1032.30	1874.30
1032.46	2138.90
1032.62	1765.76
1032.78	1549.29
1032.94	1930.62
1033.10	1970.15
1033.26	1712.31
1033.42	1780.91
1033.58	2388.96
1033.74	1933.69
1033.90	1630.59
1034.06	1813.48
1034.22	2390.80
1034.38	2186.21
1034.54	1692.85
1034.70	1727.05
1034.86	2359.46
>>>>>End Processed Spectral Data<<<<<
