SpectraSuite Data File
++++++++++++++++++++++++++++++++++++
Date: Thu Mar 30 14:17:14 PDT 2017
User: UCSD _CER
Dark Spectrum Present: No
Reference Spectrum Present: No
Number of Sampled Component Spectra: 1
Spectrometers: USB4C00073
Integration Time (usec): 380000 (USB4C00073)
Spectra Averaged: 10 (USB4C00073)
Boxcar Smoothing: 0 (USB4C00073)
Correct for Electrical Dark: No (USB4C00073)
Strobe/Lamp Enabled: No (USB4C00073)
Correct for Detector Non-linearity: No (USB4C00073)
Correct for Stray Light: No (USB4C00073)
Number of Pixels in Processed Spectrum: 3648
>>>>>Begin Processed Spectral Data<<<<<
345.37	1255.40
345.58	1255.40
345.80	1255.40
346.01	1236.56
346.22	1215.88
346.43	2016.02
346.65	1855.46
346.86	2383.02
347.07	2294.75
347.28	1796.07
347.50	1779.48
347.71	2105.93
347.92	1844.40
348.13	1790.74
348.35	1788.70
348.56	2112.07
348.77	1860.37
348.98	1811.22
349.20	1653.33
349.41	2098.55
349.62	2213.24
349.83	1901.95
350.05	1792.18
350.26	2142.58
350.47	2301.30
350.68	1794.02
350.90	1712.92
351.11	2344.72
351.32	2290.65
351.53	1853.62
351.75	1763.10
351.96	2157.94
352.17	2067.01
352.38	1893.14
352.60	1885.77
352.81	2111.25
353.02	2384.25
353.23	1777.02
353.44	1799.96
353.66	1999.43
353.87	2021.35
354.08	1879.63
354.29	1799.14
354.51	1963.39
354.72	2035.07
354.93	1774.16
355.14	1775.59
355.35	1791.36
355.57	2248.06
355.78	1802.83
355.99	1887.82
356.20	2090.36
356.42	2042.44
356.63	1911.57
356.84	1801.60
357.05	2227.17
357.26	2467.80
357.48	1909.12
357.69	1872.87
357.90	2148.32
358.11	2022.98
358.32	1850.75
358.54	1869.39
358.75	2017.86
358.96	2239.25
359.17	1790.74
359.38	1851.98
359.60	2185.59
359.81	2020.73
360.02	1812.66
360.23	1755.11
360.44	1945.57
360.66	2241.71
360.87	1782.35
361.08	1775.18
361.29	2134.80
361.50	2103.88
361.72	1788.70
361.93	1887.41
362.14	2093.02
362.35	1833.34
362.56	1954.58
362.77	1691.42
362.99	2175.35
363.20	2077.87
363.41	1884.54
363.62	1662.54
363.83	2175.15
364.05	2214.47
364.26	1758.80
364.47	1765.96
364.68	2257.27
364.89	1943.52
365.10	1697.97
365.32	1848.91
365.53	1952.33
365.74	1995.95
365.95	1812.04
366.16	1682.20
366.37	2087.90
366.59	2037.52
366.80	1805.28
367.01	1689.16
367.22	2396.53
367.43	2594.98
367.64	1863.45
367.86	1795.25
368.07	2148.52
368.28	2278.57
368.49	1716.81
368.70	1835.18
368.91	2022.16
369.12	2092.82
369.34	1737.50
369.55	1694.28
369.76	2088.11
369.97	2009.47
370.18	1719.06
370.39	1790.13
370.60	1855.46
370.82	1909.94
371.03	1841.12
371.24	1767.81
371.45	2211.19
371.66	2182.73
371.87	1821.26
372.08	1820.44
372.30	1936.56
372.51	2309.49
372.72	1954.17
372.93	1817.37
373.14	2358.24
373.35	1997.38
373.56	1764.12
373.78	1833.96
373.99	2224.91
374.20	2578.19
374.41	1787.26
374.62	1790.54
374.83	2325.88
375.04	2030.56
375.25	1838.46
375.47	1845.83
375.68	1996.56
375.89	2237.41
376.10	1853.21
376.31	1889.66
376.52	2143.40
376.73	2125.59
376.94	1844.61
377.15	1759.00
377.37	2096.51
377.58	2012.95
377.79	1716.40
378.00	1764.33
378.21	2140.54
378.42	2205.05
378.63	1854.64
378.84	1881.67
379.05	2270.79
379.27	2097.94
379.48	1910.75
379.69	1801.60
379.90	2309.49
380.11	1783.99
380.32	1807.74
380.53	1949.46
380.74	2350.86
380.95	2119.85
381.16	1873.28
381.37	1837.03
381.59	2321.99
381.80	2253.58
382.01	1803.44
382.22	1728.49
382.43	2155.49
382.64	2060.87
382.85	1733.40
383.06	1883.93
383.27	2191.94
383.48	2042.85
383.69	1845.83
383.91	1754.49
384.12	2209.76
384.33	2208.94
384.54	1880.24
384.75	1774.97
384.96	2634.71
385.17	2260.34
385.38	1830.88
385.59	1795.86
385.80	2194.19
386.01	2342.06
386.22	1923.04
386.43	1822.69
386.64	2487.26
386.86	2069.88
387.07	1941.06
387.28	1751.22
387.49	1996.77
387.70	2299.46
387.91	1929.19
388.12	1836.00
388.33	2149.34
388.54	2007.62
388.75	1777.02
388.96	1892.94
389.17	1962.77
389.38	2045.31
389.59	1886.38
389.80	1897.03
390.01	2058.00
390.22	2020.73
390.43	1922.02
390.64	1691.01
390.86	2165.93
391.07	2275.91
391.28	1838.46
391.49	1847.06
391.70	1851.98
391.91	1963.18
392.12	1842.97
392.33	1924.48
392.54	2121.70
392.75	2077.46
392.96	1923.04
393.17	1812.66
393.38	2481.73
393.59	2282.87
393.80	1742.41
394.01	1833.55
394.22	2046.74
394.43	2366.43
394.64	1731.35
394.85	1907.07
395.06	2073.98
395.27	2092.61
395.48	1804.26
395.69	1719.27
395.90	2031.99
396.11	2058.00
396.32	1778.46
396.53	1905.84
396.74	2072.13
396.95	2236.59
397.16	1789.72
397.37	1709.64
397.58	2253.18
397.79	2103.88
398.00	1873.28
398.21	1825.15
398.42	2102.24
398.63	2438.72
398.84	1806.51
399.05	1783.17
399.26	2300.07
399.47	2136.44
399.68	1689.16
399.89	1743.03
400.10	1888.84
400.31	2022.37
400.52	1893.35
400.73	1809.18
400.94	1831.50
401.15	2180.06
401.36	1823.10
401.57	1858.12
401.78	2280.41
401.99	2257.07
402.20	1765.14
402.41	1967.28
402.62	2377.08
402.83	2036.50
403.04	1766.99
403.25	1999.84
403.46	2121.08
403.67	2283.28
403.88	1810.61
404.09	1758.39
404.30	1949.05
404.51	1926.11
404.72	1763.92
404.93	1953.35
405.14	1936.56
405.35	2080.74
405.56	1843.79
405.77	1764.53
405.98	2100.19
406.19	2035.48
406.40	1771.90
406.61	1827.61
406.82	1961.54
407.03	2489.10
407.24	1766.99
407.45	1842.15
407.66	2129.48
407.87	2265.05
408.08	1893.76
408.29	1915.87
408.49	2167.98
408.70	2060.05
408.91	1783.99
409.12	1957.65
409.33	1934.31
409.54	2309.49
409.75	1790.33
409.96	1822.90
410.17	2230.03
410.38	2039.57
410.59	1804.06
410.80	1919.97
411.01	2047.97
411.22	2026.87
411.43	1893.14
411.64	1797.50
411.85	1922.02
412.06	1893.76
412.27	1621.79
412.47	1794.23
412.68	2075.00
412.89	2127.43
413.10	1807.33
413.31	1707.80
413.52	2407.39
413.73	2398.79
413.94	1795.25
414.15	1954.99
414.36	1998.00
414.57	1933.69
414.78	1741.18
414.99	1729.71
415.19	2122.31
415.40	2061.08
415.61	1960.73
415.82	1856.69
416.03	2148.93
416.24	2105.31
416.45	1812.45
416.66	1726.03
416.87	1849.32
417.08	2146.48
417.29	1770.26
417.50	1849.32
417.70	2139.10
417.91	2125.38
418.12	1882.90
418.33	1799.75
418.54	2147.91
418.75	2222.46
418.96	1933.90
419.17	1847.06
419.38	2247.24
419.59	2151.60
419.79	1899.49
420.00	1823.72
420.21	2566.72
420.42	2092.82
420.63	1795.04
420.84	1846.65
421.05	2061.69
421.26	2103.47
421.47	1737.70
421.67	2176.17
421.88	1922.43
422.09	1908.91
422.30	2063.74
422.51	1866.72
422.72	2373.80
422.93	2199.93
423.14	1860.58
423.35	1727.87
423.55	1811.02
423.76	1925.09
423.97	1838.26
424.18	1706.78
424.39	2022.16
424.60	2208.73
424.81	1820.85
425.02	1862.42
425.22	2030.56
425.43	2012.74
425.64	2015.41
425.85	1865.49
426.06	2423.57
426.27	2233.31
426.48	1920.18
426.68	1903.18
426.89	2215.70
427.10	2368.07
427.31	1840.92
427.52	1776.20
427.73	2185.80
427.94	2178.01
428.14	1990.42
428.35	1855.25
428.56	2353.94
428.77	2243.96
428.98	1869.80
429.19	1839.28
429.40	1994.11
429.60	2034.86
429.81	1926.52
430.02	1838.46
430.23	2069.47
430.44	2170.03
430.65	1790.54
430.85	1851.16
431.06	2183.34
431.27	1874.10
431.48	1825.76
431.69	1870.21
431.90	2064.35
432.10	2090.16
432.31	1929.39
432.52	1822.49
432.73	2500.57
432.94	2340.01
433.15	1993.49
433.35	1803.44
433.56	2266.90
433.77	2116.37
433.98	2068.04
434.19	2000.46
434.40	2266.69
434.60	2268.94
434.81	2119.44
435.02	2018.48
435.23	2145.86
435.44	2058.82
435.64	1761.25
435.85	1804.26
436.06	2038.55
436.27	1976.09
436.48	1769.65
436.68	1797.50
436.89	2404.93
437.10	2264.44
437.31	1969.12
437.52	2033.22
437.73	2183.13
437.93	2210.78
438.14	1961.54
438.35	1754.70
438.56	2059.03
438.77	2051.86
438.97	2031.99
439.18	1803.85
439.39	2283.69
439.60	1907.27
439.80	1815.11
440.01	1850.34
440.22	2001.68
440.43	2214.26
440.64	1775.79
440.84	1879.63
441.05	1899.70
441.26	2558.73
441.47	1913.42
441.68	1876.76
441.88	2191.74
442.09	2224.09
442.30	2220.20
442.51	2239.04
442.71	2235.56
442.92	2313.18
443.13	1949.67
443.34	1885.16
443.55	1986.94
443.75	2203.61
443.96	1829.25
444.17	1786.03
444.38	2227.17
444.58	1934.92
444.79	1947.21
445.00	1892.94
445.21	2053.09
445.41	1995.54
445.62	1680.97
445.83	1953.76
446.04	2098.14
446.24	1846.65
446.45	1709.03
446.66	1852.59
446.87	2143.40
447.07	1985.51
447.28	2074.39
447.49	1853.41
447.70	2230.65
447.90	2215.49
448.11	1882.70
448.32	1950.49
448.53	2335.50
448.73	2290.04
448.94	1805.08
449.15	1986.53
449.36	2100.40
449.56	2130.30
449.77	1846.04
449.98	1759.00
450.19	1965.23
450.39	2001.68
450.60	1921.20
450.81	1906.25
451.02	2048.17
451.22	2320.55
451.43	1808.36
451.64	1830.88
451.84	2008.65
452.05	2279.18
452.26	1879.22
452.47	1892.12
452.67	1995.34
452.88	2310.52
453.09	1789.92
453.30	1779.48
453.50	2210.78
453.71	2444.87
453.92	1998.61
454.12	2151.80
454.33	2126.41
454.54	2188.05
454.75	1911.57
454.95	1866.52
455.16	2166.14
455.37	2169.41
455.57	1973.63
455.78	1877.99
455.99	2074.80
456.19	2092.20
456.40	1773.13
456.61	1872.25
456.82	2095.69
457.02	2289.01
457.23	2038.55
457.44	2184.98
457.64	2178.22
457.85	2310.52
458.06	2013.77
458.26	2062.30
458.47	2113.71
458.68	2255.02
458.89	1837.85
459.09	2024.83
459.30	2437.90
459.51	2118.42
459.71	1741.39
459.92	1826.99
460.13	2206.69
460.33	2497.29
460.54	1925.09
460.75	1919.77
460.95	1921.20
461.16	2190.71
461.37	1889.25
461.57	1874.10
461.78	2086.88
461.99	1877.78
462.19	2132.96
462.40	1816.96
462.61	2684.27
462.81	2235.36
463.02	1825.97
463.23	1848.70
463.43	2164.09
463.64	1977.11
463.85	3080.96
464.05	1834.16
464.26	2625.70
464.47	2283.69
464.67	2031.59
464.88	2018.68
465.09	2064.97
465.29	2238.63
465.50	2149.14
465.71	2065.38
465.91	2094.25
466.12	2134.80
466.33	1941.68
466.53	1867.13
466.74	2336.73
466.94	2069.06
467.15	1914.85
467.36	2052.68
467.56	1919.36
467.77	2107.97
467.98	1913.62
468.18	1855.05
468.39	1987.35
468.60	2405.75
468.80	1894.17
469.01	1811.02
469.21	2179.86
469.42	2277.75
469.63	1856.28
469.83	1804.67
470.04	2189.07
470.25	2311.95
470.45	1968.51
470.66	1856.69
470.86	2137.46
471.07	1989.19
471.28	1965.85
471.48	1945.37
471.69	2096.71
471.90	2826.40
472.10	2081.76
472.31	2090.77
472.51	2231.88
472.72	2230.65
472.93	1978.13
473.13	2084.63
473.34	2235.97
473.54	2154.87
473.75	1995.95
473.96	2125.59
474.16	2073.77
474.37	2171.87
474.57	1981.61
474.78	1826.58
474.99	2153.23
475.19	2105.31
475.40	1877.17
475.60	1897.44
475.81	2528.83
476.02	2270.79
476.22	2205.66
476.43	2246.83
476.63	2201.57
476.84	2344.72
477.05	1807.74
477.25	1896.83
477.46	2635.33
477.66	2150.57
477.87	1820.85
478.08	1878.40
478.28	2242.73
478.49	2086.68
478.69	1857.30
478.90	1871.23
479.10	2146.27
479.31	2361.31
479.52	1965.44
479.72	2031.59
479.93	2214.88
480.13	2036.30
480.34	1910.75
480.54	1995.54
480.75	1981.41
480.96	2299.25
481.16	1829.45
481.37	1975.06
481.57	2197.06
481.78	2138.69
481.98	2097.94
482.19	1984.48
482.40	2411.48
482.60	2172.49
482.81	1980.59
483.01	1780.30
483.22	2253.18
483.42	2198.70
483.63	1971.99
483.83	1927.55
484.04	2034.45
484.24	2217.54
484.45	2060.46
484.66	1828.63
484.86	2174.94
485.07	1989.60
485.27	1950.08
485.48	1857.10
485.68	2304.58
485.89	1960.52
486.09	2002.71
486.30	1893.96
486.50	2072.34
486.71	2070.09
486.91	1990.42
487.12	2195.83
487.33	2779.09
487.53	2887.02
487.74	2542.55
487.94	2466.78
488.15	2453.67
488.35	2368.27
488.56	2056.78
488.76	1943.93
488.97	2153.23
489.17	2249.08
489.38	2002.91
489.58	1949.26
489.79	2234.54
489.99	2166.75
490.20	1946.18
490.40	2025.85
490.61	2162.25
490.81	1976.90
491.02	1946.18
491.22	1969.74
491.43	2176.99
491.63	2069.88
491.84	2051.25
492.04	1813.07
492.25	2167.37
492.45	2027.08
492.66	1868.77
492.86	1808.97
493.07	2044.28
493.27	2444.87
493.48	1740.36
493.68	1854.23
493.89	2045.51
494.09	2181.91
494.30	1871.64
494.50	2128.25
494.71	2163.68
494.91	1828.22
495.12	1886.59
495.32	1983.25
495.53	2095.89
495.73	1904.41
495.94	2117.39
496.14	1954.99
496.35	2624.27
496.55	2202.39
496.76	1962.77
496.96	2005.17
497.17	2113.91
497.37	2223.68
497.58	1896.21
497.78	1821.67
497.98	2020.53
498.19	2047.35
498.39	1900.31
498.60	1953.97
498.80	1799.75
499.01	2183.54
499.21	1801.80
499.42	1919.97
499.62	2038.14
499.83	2473.95
500.03	1801.19
500.24	1986.12
500.44	2322.19
500.64	2258.70
500.85	1888.23
501.05	1995.34
501.26	1826.38
501.46	2279.59
501.67	1855.05
501.87	1814.30
502.08	1923.45
502.28	2033.63
502.48	1963.59
502.69	2005.99
502.89	1819.42
503.10	1929.39
503.30	1957.24
503.51	1945.37
503.71	1866.72
503.92	2183.75
504.12	1950.49
504.32	1849.11
504.53	2152.21
504.73	2161.02
504.94	2037.32
505.14	2139.31
505.35	2173.51
505.55	2147.09
505.75	1951.51
505.96	2067.22
506.16	2443.02
506.37	1996.16
506.57	1822.28
506.78	1976.90
506.98	2244.78
507.18	1853.82
507.39	1817.78
507.59	1900.51
507.80	1963.39
508.00	2093.23
508.20	2080.94
508.41	1909.32
508.61	2283.69
508.82	2231.06
509.02	2077.46
509.22	1841.53
509.43	1904.20
509.63	1981.41
509.84	1934.31
510.04	1781.12
510.24	2309.70
510.45	2176.17
510.65	1817.78
510.86	1957.86
511.06	1898.67
511.26	2186.62
511.47	2079.92
511.67	1850.34
511.88	2177.61
512.08	2261.98
512.28	1828.02
512.49	1980.39
512.69	2096.30
512.90	2127.84
513.10	1886.38
513.30	1953.56
513.51	2162.45
513.71	2360.08
513.91	1976.09
514.12	1995.13
514.32	2189.89
514.53	1974.65
514.73	1966.66
514.93	1909.53
515.14	2056.57
515.34	2244.57
515.54	1858.33
515.75	1950.90
515.95	2165.93
516.15	2315.64
516.36	1947.41
516.56	1955.40
516.77	1730.94
516.97	2163.47
517.17	1919.77
517.38	1992.47
517.58	2298.84
517.78	2007.21
517.99	1975.27
518.19	1923.25
518.39	2263.62
518.60	1978.13
518.80	1794.84
519.00	1969.33
519.21	2060.87
519.41	2370.52
519.61	1850.95
519.82	2002.50
520.02	2063.74
520.22	2050.63
520.43	1875.94
520.63	1973.83
520.83	1945.57
521.04	1822.49
521.24	1989.19
521.44	1907.68
521.65	1899.49
521.85	2209.14
522.05	1846.24
522.26	1856.48
522.46	2406.57
522.66	2218.97
522.87	1912.39
523.07	2090.98
523.27	1994.31
523.48	2300.48
523.68	1939.02
523.88	2002.71
524.09	2266.08
524.29	2106.75
524.49	1786.03
524.70	1990.42
524.90	2287.58
525.10	2133.98
525.31	1807.54
525.51	1789.11
525.71	2193.37
525.91	2162.86
526.12	1916.49
526.32	1812.66
526.52	1976.70
526.73	1956.01
526.93	1982.23
527.13	1814.50
527.34	2040.19
527.54	2067.01
527.74	1924.68
527.94	1830.88
528.15	1908.50
528.35	2073.36
528.55	2029.54
528.76	1958.06
528.96	1833.34
529.16	2241.71
529.36	2028.72
529.57	1831.91
529.77	2283.08
529.97	1955.40
530.18	2004.76
530.38	1882.29
530.58	2131.12
530.78	2076.23
530.99	1908.50
531.19	1980.39
531.39	1952.53
531.60	2083.40
531.80	1935.33
532.00	2086.68
532.20	2071.11
532.41	1952.12
532.61	1892.12
532.81	1862.22
533.01	2013.15
533.22	2155.08
533.42	2043.05
533.62	1775.18
533.82	2276.52
534.03	2036.91
534.23	2013.36
534.43	1829.25
534.63	1988.17
534.84	2117.39
535.04	2012.54
535.24	1944.55
535.44	2529.86
535.65	1971.78
535.85	1893.14
536.05	1846.24
536.25	2053.91
536.46	1936.56
536.66	2056.37
536.86	1942.91
537.06	2172.28
537.27	2269.35
537.47	1975.06
537.67	1901.74
537.87	2289.01
538.08	2042.03
538.28	1827.81
538.48	1813.27
538.68	2046.33
538.88	2162.04
539.09	1796.07
539.29	1925.30
539.49	2229.62
539.69	2138.08
539.90	1996.16
540.10	1804.06
540.30	2272.63
540.50	1952.53
540.70	1783.78
540.91	1876.76
541.11	2175.76
541.31	2331.41
541.51	1965.64
541.72	1990.83
541.92	2093.64
542.12	1949.87
542.32	1954.58
542.52	1900.11
542.73	1957.86
542.93	2146.68
543.13	1893.14
543.33	2017.04
543.53	2211.19
543.74	2167.77
543.94	1892.32
544.14	1998.20
544.34	2275.09
544.54	2031.99
544.75	1970.56
544.95	2092.00
545.15	2176.99
545.35	2327.31
545.55	2024.01
545.75	1924.27
545.96	2452.44
546.16	1935.94
546.36	1940.45
546.56	1953.97
546.76	2258.91
546.97	2338.99
547.17	1942.70
547.37	1973.83
547.57	1994.52
547.77	2166.55
547.97	1990.83
548.18	1984.89
548.38	2030.97
548.58	2273.45
548.78	1840.71
548.98	1931.23
549.18	2171.87
549.39	2310.31
549.59	1992.88
549.79	1968.92
549.99	2340.42
550.19	2205.05
550.39	2060.87
550.60	1953.35
550.80	2121.90
551.00	2179.24
551.20	1916.90
551.40	1925.09
551.60	2150.37
551.80	2107.36
552.01	2033.02
552.21	1934.72
552.41	2099.58
552.61	2371.96
552.81	2003.73
553.01	1865.70
553.21	2160.61
553.42	1917.51
553.62	1916.90
553.82	1849.11
554.02	2305.40
554.22	2223.27
554.42	1829.45
554.62	2029.95
554.83	2304.99
555.03	2285.53
555.23	1954.79
555.43	2168.80
555.63	2078.69
555.83	2060.67
556.03	2008.85
556.23	1798.53
556.44	2067.01
556.64	2265.26
556.84	1696.13
557.04	1884.75
557.24	2080.33
557.44	2055.14
557.64	1980.59
557.84	1856.28
558.04	2002.71
558.25	2219.18
558.45	1853.00
558.65	1937.58
558.85	2091.59
559.05	1785.01
559.25	1934.10
559.45	1996.77
559.65	2418.24
559.85	2887.43
560.05	1968.92
560.26	1961.13
560.46	2009.67
560.66	1958.88
560.86	1902.97
561.06	1875.73
561.26	2296.18
561.46	2150.78
561.66	1901.54
561.86	2042.03
562.06	1948.44
562.26	2035.89
562.47	1969.74
562.67	1834.37
562.87	2167.16
563.07	1858.12
563.27	1980.80
563.47	1979.16
563.67	1994.93
563.87	2192.35
564.07	1868.16
564.27	1920.18
564.47	2057.59
564.67	2082.99
564.87	1875.94
565.08	1957.65
565.28	1957.86
565.48	2130.30
565.68	2002.71
565.88	2072.13
566.08	2432.17
566.28	2087.29
566.48	1830.27
566.68	1951.10
566.88	2033.43
567.08	2231.47
567.28	1958.68
567.48	1956.42
567.68	2147.09
567.88	1834.37
568.08	1969.53
568.28	2076.03
568.48	2039.37
568.68	2252.77
568.89	2003.12
569.09	1810.40
569.29	2211.60
569.49	2207.30
569.69	1842.15
569.89	1855.87
570.09	1771.08
570.29	1960.73
570.49	1812.66
570.69	1941.06
570.89	2221.02
571.09	2409.64
571.29	1837.03
571.49	2092.00
571.69	2120.47
571.89	2158.56
572.09	1935.94
572.29	1975.27
572.49	2162.25
572.69	2165.11
572.89	1998.00
573.09	1679.95
573.29	2022.78
573.49	2073.77
573.69	1922.84
573.89	1996.56
574.09	1962.98
574.29	2285.53
574.49	1953.56
574.69	1866.52
574.89	1881.67
575.09	1926.11
575.29	1822.08
575.49	1949.05
575.69	2080.33
575.89	1871.84
576.09	1933.28
576.29	1974.45
576.49	1890.89
576.69	1997.59
576.89	1895.80
577.09	1969.74
577.29	1817.98
577.49	2369.50
577.69	1881.06
577.89	2046.94
578.09	2066.40
578.29	1826.79
578.49	1950.90
578.69	1841.74
578.89	2240.07
579.09	2059.64
579.29	1849.93
579.49	2038.96
579.69	1981.82
579.89	2330.18
580.09	1727.67
580.29	1783.78
580.49	1978.13
580.69	1910.75
580.89	1873.07
581.09	1907.68
581.29	1982.02
581.49	2066.20
581.69	1844.20
581.89	1864.88
582.09	1915.87
582.28	1888.02
582.48	2014.18
582.68	2098.55
582.88	2287.58
583.08	2020.12
583.28	1926.73
583.48	1955.40
583.68	1954.79
583.88	2063.74
584.08	1949.26
584.28	1973.22
584.48	2406.57
584.68	2152.01
584.88	1928.37
585.08	2106.95
585.28	2226.96
585.48	2252.15
585.68	2015.00
585.87	2065.79
586.07	2148.73
586.27	2043.87
586.47	2011.51
586.67	1935.54
586.87	2063.12
587.07	1994.93
587.27	1851.36
587.47	1995.34
587.67	2335.30
587.87	2489.31
588.07	1979.57
588.27	1890.89
588.46	2179.86
588.66	2178.63
588.86	1883.93
589.06	1970.56
589.26	2188.87
589.46	2148.73
589.66	1847.27
589.86	1814.30
590.06	2013.36
590.26	2088.72
590.46	1883.72
590.66	1985.71
590.85	1952.74
591.05	2087.70
591.25	1832.11
591.45	1921.81
591.65	2127.84
591.85	2036.09
592.05	1867.54
592.25	1991.85
592.45	2186.62
592.64	2002.91
592.84	1938.81
593.04	1869.59
593.24	2490.53
593.44	1954.79
593.64	1980.39
593.84	2016.43
594.04	1982.84
594.24	2316.87
594.43	1901.74
594.63	1943.32
594.83	2226.55
595.03	2176.38
595.23	1865.49
595.43	1815.11
595.63	1947.62
595.83	2209.35
596.02	1738.11
596.22	1921.81
596.42	2085.24
596.62	2041.42
596.82	1917.72
597.02	1983.05
597.22	2277.14
597.41	2087.29
597.61	1905.84
597.81	2031.38
598.01	2182.11
598.21	2004.35
598.41	1836.82
598.61	1838.87
598.80	2064.15
599.00	2090.36
599.20	2081.76
599.40	1930.62
599.60	2018.07
599.80	2166.96
599.99	2075.41
600.19	1904.41
600.39	2075.62
600.59	2144.84
600.79	2021.96
600.99	1941.68
601.19	2331.41
601.38	2404.11
601.58	1986.12
601.78	1704.93
601.98	2136.85
602.18	2109.00
602.37	2145.66
602.57	1937.17
602.77	2168.18
602.97	2074.80
603.17	2106.95
603.37	2013.36
603.56	2232.90
603.76	2189.89
603.96	1959.91
604.16	1977.93
604.36	2292.29
604.56	2202.80
604.75	1850.34
604.95	1954.17
605.15	2270.17
605.35	2210.78
605.55	1901.74
605.74	1863.65
605.94	2227.17
606.14	2066.20
606.34	1964.62
606.54	1995.75
606.73	1965.03
606.93	2177.40
607.13	1885.56
607.33	2013.36
607.53	2353.94
607.72	2216.11
607.92	2027.90
608.12	2097.94
608.32	2053.70
608.51	2187.23
608.71	1826.79
608.91	2008.03
609.11	2172.28
609.31	2019.71
609.50	1913.01
609.70	2146.89
609.90	2257.48
610.10	2229.62
610.29	1909.32
610.49	1831.50
610.69	2149.96
610.89	2076.64
611.09	1939.63
611.28	2108.59
611.48	2234.13
611.68	2036.09
611.88	1908.09
612.07	1858.12
612.27	2191.53
612.47	1956.01
612.67	1996.77
612.86	2059.64
613.06	2056.98
613.26	1815.32
613.46	1877.17
613.65	1998.82
613.85	2522.07
614.05	2178.01
614.25	1993.08
614.44	1933.49
614.64	2056.78
614.84	1953.35
615.04	1878.81
615.23	1904.82
615.43	2169.82
615.63	2154.26
615.83	1853.82
616.02	1771.49
616.22	2157.54
616.42	1843.79
616.62	1812.86
616.81	1942.29
617.01	2108.38
617.21	2019.30
617.41	1836.82
617.60	1982.02
617.80	2157.33
618.00	2169.41
618.19	2050.63
618.39	1961.34
618.59	2133.98
618.79	2051.86
618.98	1812.45
619.18	1962.16
619.38	2444.05
619.57	2032.40
619.77	1957.65
619.97	1942.50
620.17	1957.24
620.36	1874.71
620.56	2097.53
620.76	1835.18
620.95	1863.04
621.15	1970.97
621.35	1833.75
621.54	1930.62
621.74	2080.74
621.94	1959.70
622.14	1818.80
622.33	1795.86
622.53	2035.27
622.73	2012.74
622.92	1810.81
623.12	1940.04
623.32	2396.33
623.51	2216.52
623.71	1847.47
623.91	2123.74
624.10	1891.50
624.30	2122.51
624.50	1831.70
624.69	1804.87
624.89	2717.86
625.09	2030.97
625.29	1733.20
625.48	1828.63
625.68	2100.19
625.88	2259.52
626.07	1995.54
626.27	1867.54
626.47	1983.05
626.66	1816.34
626.86	1948.85
627.06	1941.27
627.25	2054.93
627.45	2341.03
627.64	1949.26
627.84	2097.53
628.04	1937.38
628.23	2427.05
628.43	1832.93
628.63	1839.28
628.82	1963.59
629.02	2355.98
629.22	1972.40
629.41	2082.58
629.61	2061.69
629.81	2403.91
630.00	1870.00
630.20	1807.95
630.40	2042.03
630.59	2112.89
630.79	1905.84
630.98	1894.17
631.18	2018.27
631.38	2025.65
631.57	2029.13
631.77	1784.80
631.97	2072.54
632.16	2112.89
632.36	1951.10
632.56	1994.11
632.75	2109.00
632.95	2231.26
633.14	1842.76
633.34	2102.65
633.54	1819.01
633.73	1997.38
633.93	1908.50
634.12	1802.21
634.32	2501.80
634.52	2088.52
634.71	1791.97
634.91	1984.89
635.11	1895.40
635.30	1960.52
635.50	1962.57
635.69	1858.33
635.89	2371.75
636.09	2209.76
636.28	1867.75
636.48	1862.63
636.67	2118.62
636.87	2151.19
637.07	2002.30
637.26	1868.36
637.46	2074.18
637.65	2211.81
637.85	1981.61
638.04	1846.86
638.24	1962.16
638.44	2134.80
638.63	1949.05
638.83	1908.50
639.02	2134.39
639.22	2196.45
639.42	1907.48
639.61	1911.78
639.81	2059.23
640.00	2038.75
640.20	2090.77
640.39	1980.39
640.59	2375.23
640.79	2169.41
640.98	1969.74
641.18	1859.35
641.37	2002.71
641.57	1952.74
641.76	1926.93
641.96	1693.67
642.15	2048.58
642.35	1941.88
642.55	1952.33
642.74	1802.62
642.94	2153.64
643.13	2280.00
643.33	1871.84
643.52	1872.05
643.72	1968.30
643.91	2060.05
644.11	1824.54
644.31	1866.52
644.50	1943.52
644.70	2256.66
644.89	1949.87
645.09	2015.00
645.28	2068.45
645.48	2147.50
645.67	1863.65
645.87	1732.17
646.06	1996.36
646.26	2124.56
646.45	1717.02
646.65	1694.08
646.84	2399.20
647.04	1982.23
647.24	1791.56
647.43	1892.32
647.63	2100.60
647.82	2315.23
648.02	1802.62
648.21	1901.95
648.41	2289.63
648.60	2012.13
648.80	2044.90
648.99	1932.67
649.19	1951.30
649.38	1827.40
649.58	1936.76
649.77	1992.26
649.97	2257.27
650.16	2137.26
650.36	1695.92
650.55	2063.74
650.75	2100.81
650.94	2317.48
651.14	1930.62
651.33	1976.29
651.53	2319.12
651.72	1934.10
651.92	1893.55
652.11	1736.06
652.31	2158.76
652.50	2115.14
652.70	1933.69
652.89	1773.34
653.09	2257.07
653.28	1993.49
653.48	1711.49
653.67	1759.41
653.87	2567.95
654.06	2036.91
654.25	2157.13
654.45	1867.34
654.64	2003.12
654.84	2005.78
655.03	1732.79
655.23	2092.41
655.42	2195.83
655.62	2403.50
655.81	2081.56
656.01	1936.35
656.20	2241.30
656.40	2335.91
656.59	1986.53
656.79	2083.40
656.98	2118.62
657.17	2208.12
657.37	1958.68
657.56	1905.84
657.76	2106.34
657.95	2218.56
658.15	1578.37
658.34	1938.81
658.54	2055.55
658.73	1848.09
658.92	1885.77
659.12	1935.94
659.31	2144.63
659.51	1878.19
659.70	1960.11
659.90	1839.69
660.09	2160.61
660.29	2038.96
660.48	1832.11
660.67	2065.99
660.87	1975.88
661.06	2131.73
661.26	1987.35
661.45	2023.19
661.65	2124.77
661.84	1942.70
662.03	1853.21
662.23	1884.54
662.42	2399.60
662.62	1882.08
662.81	1813.68
663.00	1896.01
663.20	2101.22
663.39	2131.12
663.59	2021.75
663.78	1921.20
663.97	2008.03
664.17	2220.20
664.36	1817.98
664.56	1854.64
664.75	2215.49
664.94	2163.27
665.14	1962.77
665.33	1935.13
665.53	2021.96
665.72	2005.37
665.91	2037.32
666.11	1962.77
666.30	2070.29
666.50	2060.05
666.69	1966.05
666.88	1883.11
667.08	2043.67
667.27	2009.47
667.47	1908.50
667.66	1864.27
667.85	2204.02
668.05	2062.71
668.24	1863.65
668.43	2099.17
668.63	1955.61
668.82	2247.44
669.02	2024.42
669.21	1882.08
669.40	1840.71
669.60	2368.68
669.79	1777.84
669.98	2551.77
670.18	1890.89
670.37	1869.39
670.56	1901.33
670.76	1977.93
670.95	2020.94
671.15	2175.56
671.34	1930.42
671.53	1929.19
671.73	1942.50
671.92	1949.67
672.11	1828.63
672.31	1869.39
672.50	2110.64
672.69	1838.05
672.89	1686.30
673.08	1892.32
673.27	2188.25
673.47	2093.84
673.66	1952.74
673.85	1800.37
674.05	2081.97
674.24	2058.82
674.43	1792.18
674.63	1946.59
674.82	2390.80
675.01	1685.68
675.21	1981.82
675.40	1870.21
675.59	1936.56
675.79	2284.92
675.98	1858.12
676.17	2043.05
676.37	2065.38
676.56	1968.92
676.75	1893.55
676.95	1922.84
677.14	1960.11
677.33	2217.13
677.52	1809.79
677.72	1862.01
677.91	2101.01
678.10	1810.61
678.30	1826.99
678.49	1832.11
678.68	2427.66
678.88	1757.57
679.07	2084.22
679.26	1884.54
679.45	2379.94
679.65	2259.73
679.84	1738.73
680.03	1770.88
680.23	1977.52
680.42	2479.48
680.61	1823.31
680.81	1880.04
681.00	2040.19
681.19	2111.87
681.38	2026.06
681.58	1976.90
681.77	1969.33
681.96	2178.22
682.15	1836.41
682.35	1986.32
682.54	2083.60
682.73	1858.12
682.93	1831.09
683.12	1837.44
683.31	2172.89
683.50	2506.71
683.70	1792.38
683.89	1949.87
684.08	1892.12
684.27	2190.51
684.47	1750.60
684.66	1892.73
684.85	2382.81
685.04	2251.74
685.24	1837.23
685.43	1894.37
685.62	1814.71
685.81	2105.52
686.01	1984.48
686.20	1809.18
686.39	1819.01
686.58	2370.32
686.78	1917.72
686.97	1920.18
687.16	2220.41
687.35	2079.92
687.55	1900.72
687.74	1919.97
687.93	1862.01
688.12	2003.12
688.32	1917.72
688.51	1726.23
688.70	2080.74
688.89	1852.59
689.08	1766.99
689.28	1852.59
689.47	2051.86
689.66	2054.52
689.85	1994.52
690.05	1818.80
690.24	1924.68
690.43	2108.79
690.62	1943.93
690.81	1854.85
691.01	2043.05
691.20	1977.52
691.39	1768.42
691.58	1942.70
691.77	2297.21
691.97	2051.25
692.16	1986.94
692.35	1914.44
692.54	1930.42
692.73	2081.76
692.93	1930.21
693.12	1938.20
693.31	2097.32
693.50	2067.01
693.69	2006.19
693.89	1868.16
694.08	2256.66
694.27	2258.50
694.46	1858.12
694.65	1906.66
694.85	2101.01
695.04	2090.36
695.23	1849.11
695.42	2030.97
695.61	2115.55
695.80	2215.49
696.00	2182.32
696.19	2208.53
696.38	2004.35
696.57	2189.89
696.76	2075.41
696.95	1950.08
697.15	2296.59
697.34	2331.61
697.53	1888.43
697.72	2004.35
697.91	1969.94
698.10	2266.08
698.30	1885.77
698.49	1874.51
698.68	2085.04
698.87	1973.83
699.06	1854.23
699.25	1917.72
699.45	2214.47
699.64	2065.38
699.83	2065.58
700.02	1856.28
700.21	2143.81
700.40	1943.73
700.59	1885.77
700.79	1937.58
700.98	2143.20
701.17	1945.37
701.36	1847.88
701.55	1852.39
701.74	2228.60
701.93	1820.64
702.12	1876.14
702.32	1802.21
702.51	2159.17
702.70	2155.28
702.89	1918.13
703.08	1866.11
703.27	2198.70
703.46	2082.37
703.65	1833.75
703.85	1785.01
704.04	1932.26
704.23	2199.93
704.42	1820.85
704.61	1839.90
704.80	2286.97
704.99	1911.37
705.18	1973.63
705.37	1902.77
705.57	2118.01
705.76	2239.45
705.95	1880.24
706.14	2193.37
706.33	2386.50
706.52	2580.65
706.71	2099.78
706.90	1952.12
707.09	2195.01
707.28	2111.87
707.47	1842.35
707.67	2002.50
707.86	1904.82
708.05	2210.99
708.24	1899.90
708.43	1959.09
708.62	1971.78
708.81	1914.03
709.00	1802.42
709.19	1843.17
709.38	2186.00
709.57	1863.04
709.76	1927.55
709.96	1857.92
710.15	2256.86
710.34	2022.78
710.53	2008.44
710.72	1883.72
710.91	2232.49
711.10	2126.41
711.29	1975.06
711.48	1860.58
711.67	1860.17
711.86	2094.87
712.05	1733.40
712.24	1791.36
712.43	2121.70
712.62	2282.05
712.81	1936.76
713.00	2088.52
713.19	1871.23
713.39	2118.62
713.58	1777.84
713.77	1926.32
713.96	2112.68
714.15	1982.84
714.34	1891.50
714.53	1739.75
714.72	2370.32
714.91	1844.81
715.10	1953.97
715.29	1813.68
715.48	2502.62
715.67	2113.09
715.86	1915.47
716.05	1874.71
716.24	1966.05
716.43	1940.04
716.62	1769.65
716.81	1776.82
717.00	1978.54
717.19	2234.74
717.38	1884.34
717.57	1868.98
717.76	1833.14
717.95	2181.70
718.14	1915.87
718.33	1936.35
718.52	1803.85
718.71	1829.45
718.90	1809.79
719.09	1847.47
719.28	2043.26
719.47	2213.65
719.66	1975.06
719.85	1979.77
720.04	1972.40
720.23	2026.67
720.42	1825.76
720.61	1980.18
720.80	1799.55
720.99	2088.31
721.18	1851.36
721.37	1817.78
721.56	1943.93
721.75	2159.38
721.94	1788.90
722.13	1873.28
722.32	1980.39
722.51	2178.83
722.70	1933.28
722.89	1968.92
723.08	2012.33
723.27	2219.59
723.46	1951.30
723.65	1908.50
723.84	1955.61
724.03	2262.19
724.22	1769.85
724.41	1896.42
724.60	1988.58
724.79	2187.85
724.98	1970.76
725.16	1864.27
725.35	2149.75
725.54	1867.95
725.73	1898.47
725.92	1932.67
726.11	1951.10
726.30	2137.06
726.49	1806.51
726.68	1849.93
726.87	2087.90
727.06	2222.25
727.25	1863.24
727.44	1946.18
727.63	2030.97
727.82	1950.90
728.01	1940.66
728.20	1961.95
728.38	2264.64
728.57	1957.24
728.76	1874.71
728.95	2047.97
729.14	1823.51
729.33	1879.22
729.52	1662.13
729.71	1816.96
729.90	1880.85
730.09	1932.05
730.28	1845.42
730.47	1815.52
730.66	2194.81
730.84	2002.50
731.03	1899.08
731.22	1925.09
731.41	2020.94
731.60	2082.17
731.79	1721.73
731.98	1816.55
732.17	2117.60
732.36	2089.54
732.55	1835.59
732.73	1738.11
732.92	2237.20
733.11	2130.30
733.30	1797.71
733.49	1757.36
733.68	2112.07
733.87	2032.20
734.06	1756.54
734.25	1775.38
734.43	1896.42
734.62	2062.10
734.81	1858.33
735.00	1808.56
735.19	1927.55
735.38	2094.87
735.57	1747.74
735.76	1956.01
735.94	2067.63
736.13	2360.28
736.32	1931.85
736.51	1888.64
736.70	2324.44
736.89	2320.14
737.08	2041.42
737.27	2145.86
737.45	2424.18
737.64	2272.63
737.83	2262.80
738.02	2250.92
738.21	2390.39
738.40	2494.84
738.59	2013.56
738.77	2065.17
738.96	2002.91
739.15	2121.29
739.34	2040.80
739.53	1984.07
739.72	2222.05
739.90	2231.26
740.09	1857.10
740.28	1942.09
740.47	2153.64
740.66	2117.39
740.85	1795.66
741.03	1867.75
741.22	1863.04
741.41	1947.00
741.60	1762.89
741.79	1945.37
741.98	2229.62
742.16	2301.51
742.35	1923.45
742.54	1901.54
742.73	2340.21
742.92	1928.57
743.10	1729.30
743.29	1839.90
743.48	2417.22
743.67	1919.15
743.86	1711.08
744.05	1772.11
744.23	1860.78
744.42	1878.40
744.61	1905.43
744.80	1747.94
744.99	1928.37
745.17	1753.27
745.36	1704.11
745.55	1938.61
745.74	2015.41
745.93	1903.38
746.11	1794.64
746.30	1777.23
746.49	2176.79
746.68	1838.87
746.86	1897.24
747.05	1843.38
747.24	2109.82
747.43	2120.88
747.62	1738.93
747.80	1795.45
747.99	2216.52
748.18	2147.91
748.37	1917.92
748.56	1943.93
748.74	2174.53
748.93	2058.00
749.12	2053.09
749.31	2364.38
749.49	2600.51
749.68	2771.52
749.87	2898.49
750.06	2728.30
750.24	2845.24
750.43	2805.31
750.62	2620.99
750.81	2725.44
750.99	2937.40
751.18	2904.43
751.37	2507.33
751.56	2590.07
751.74	2939.86
751.93	3064.58
752.12	2162.86
752.31	2132.35
752.49	2216.52
752.68	2524.94
752.87	2040.19
753.06	1975.27
753.24	2086.68
753.43	2263.42
753.62	1866.11
753.81	1857.30
753.99	2309.49
754.18	2103.26
754.37	1833.14
754.55	1888.84
754.74	2333.05
754.93	1766.99
755.12	1853.00
755.30	1772.52
755.49	2197.68
755.68	2046.33
755.86	1958.27
756.05	1763.30
756.24	2272.22
756.43	1848.91
756.61	1814.09
756.80	1911.16
756.99	2256.66
757.17	2022.98
757.36	1814.30
757.55	1861.19
757.74	2128.25
757.92	2019.91
758.11	1792.79
758.30	1695.72
758.48	1973.01
758.67	1789.92
758.86	1916.28
759.04	1784.19
759.23	1932.46
759.42	2017.25
759.60	1804.26
759.79	1885.36
759.98	1978.34
760.16	1897.03
760.35	1837.23
760.54	1805.08
760.73	2069.88
760.91	1791.36
761.10	1862.22
761.29	1954.99
761.47	2007.42
761.66	2386.50
761.85	1920.59
762.03	2042.85
762.22	2251.33
762.41	2565.70
762.59	2709.67
762.78	2844.63
762.97	3503.05
763.15	3450.01
763.34	3167.39
763.52	2729.33
763.71	2879.85
763.90	2929.21
764.08	2524.53
764.27	2536.00
764.46	2739.36
764.64	2405.95
764.83	2284.71
765.02	2205.66
765.20	2300.69
765.39	2345.54
765.58	1922.02
765.76	1951.30
765.95	2125.18
766.13	2055.55
766.32	1884.75
766.51	1882.49
766.69	2771.31
766.88	2093.84
767.07	1780.50
767.25	1667.05
767.44	2201.77
767.62	2218.56
767.81	1810.81
768.00	1862.63
768.18	2033.84
768.37	1886.59
768.56	1706.78
768.74	1829.66
768.93	1827.61
769.11	2121.08
769.30	1928.98
769.49	1832.93
769.67	1968.51
769.86	1942.50
770.04	1874.10
770.23	1793.41
770.42	2213.24
770.60	2020.94
770.79	1791.97
770.97	1829.04
771.16	2208.12
771.35	2078.07
771.53	1995.75
771.72	2093.64
771.90	2314.41
772.09	2545.22
772.27	2317.07
772.46	2061.89
772.65	2400.83
772.83	2276.32
773.02	2201.36
773.20	1964.00
773.39	2244.57
773.58	2262.19
773.76	1874.10
773.95	1901.95
774.13	2127.84
774.32	2037.93
774.50	1838.05
774.69	1962.36
774.87	2021.35
775.06	2418.86
775.25	1859.35
775.43	1880.04
775.62	2061.49
775.80	2116.78
775.99	1924.27
776.17	1853.41
776.36	2045.72
776.54	2261.98
776.73	1871.84
776.92	1961.34
777.10	2215.90
777.29	2074.59
777.47	1871.64
777.66	1878.81
777.84	2080.33
778.03	2014.79
778.21	1846.86
778.40	1919.36
778.58	2127.84
778.77	2210.17
778.95	1788.49
779.14	1843.99
779.32	2354.34
779.51	2183.95
779.70	1840.71
779.88	1743.23
780.07	1969.94
780.25	2491.15
780.44	1890.07
780.62	2010.49
780.81	2108.18
780.99	2073.16
781.18	1842.35
781.36	1821.46
781.55	2006.39
781.73	2272.43
781.92	1744.87
782.10	1807.13
782.29	2098.14
782.47	2303.15
782.66	1857.92
782.84	1754.90
783.03	1937.58
783.21	2213.04
783.40	1814.30
783.58	1818.39
783.77	1911.16
783.95	2005.99
784.14	1806.51
784.32	1888.23
784.51	2223.27
784.69	1929.60
784.88	1748.35
785.06	1829.25
785.24	1821.67
785.43	2167.16
785.61	1940.86
785.80	1781.53
785.98	2114.32
786.17	1969.12
786.35	1768.63
786.54	1986.32
786.72	2172.69
786.91	2186.21
787.09	1883.72
787.28	1749.17
787.46	2009.06
787.65	2145.04
787.83	1712.10
788.01	1870.21
788.20	1822.90
788.38	1995.75
788.57	1829.45
788.75	1811.63
788.94	2330.38
789.12	2106.34
789.31	1897.65
789.49	2002.91
789.67	1933.08
789.86	2075.00
790.04	1809.99
790.23	1710.05
790.41	2376.05
790.60	1979.36
790.78	1816.75
790.96	1872.05
791.15	2127.63
791.33	1992.88
791.52	1882.90
791.70	1756.34
791.89	1993.90
792.07	2199.72
792.25	1900.31
792.44	1760.84
792.62	2169.21
792.81	1936.76
792.99	1854.44
793.17	1835.18
793.36	1855.66
793.54	2295.57
793.73	2028.10
793.91	1937.38
794.10	2333.66
794.28	2446.09
794.46	2107.97
794.65	2164.70
794.83	2038.34
795.01	2202.39
795.20	2172.28
795.38	2048.17
795.57	2199.31
795.75	2199.93
795.93	1930.82
796.12	1936.15
796.30	2189.89
796.49	2170.64
796.67	1807.95
796.85	1989.40
797.04	2058.00
797.22	2114.53
797.40	1797.71
797.59	1915.06
797.77	2054.11
797.96	1892.32
798.14	1810.61
798.32	1823.51
798.51	2140.95
798.69	2353.94
798.87	1868.98
799.06	1850.75
799.24	1802.01
799.42	2141.56
799.61	1949.26
799.79	1920.59
799.98	2416.60
800.16	2075.41
800.34	2103.47
800.53	2210.58
800.71	2328.95
800.89	2772.74
801.08	2477.22
801.26	2440.56
801.44	2354.96
801.63	2232.70
801.81	2170.85
801.99	2089.54
802.18	2182.52
802.36	2205.87
802.54	2110.02
802.73	1906.04
802.91	2132.14
803.09	2142.58
803.28	2055.96
803.46	2018.68
803.64	2331.61
803.83	1893.76
804.01	1829.66
804.19	1785.83
804.38	2153.64
804.56	2100.81
804.74	1851.57
804.92	1879.42
805.11	1818.60
805.29	2194.81
805.47	1829.66
805.66	1724.39
805.84	1811.84
806.02	2157.33
806.21	1808.36
806.39	2038.14
806.57	2157.13
806.76	2150.16
806.94	1904.41
807.12	1810.81
807.30	1846.65
807.49	1990.63
807.67	1908.71
807.85	1973.01
808.04	2123.54
808.22	2374.01
808.40	1784.19
808.58	1736.27
808.77	2096.92
808.95	2248.87
809.13	1851.16
809.31	2171.26
809.50	2408.41
809.68	2511.01
809.86	2206.28
810.05	2320.35
810.23	2838.89
810.41	2866.54
810.59	3905.68
810.78	4514.95
810.96	5112.96
811.14	5392.10
811.32	4899.15
811.51	4234.18
811.69	4008.49
811.87	4052.73
812.05	3539.30
812.24	3400.65
812.42	3541.35
812.60	3434.85
812.78	2847.91
812.97	2671.17
813.15	2987.37
813.33	2682.22
813.51	2509.38
813.70	2168.18
813.88	2148.52
814.06	2259.11
814.24	2062.30
814.42	1834.37
814.61	2132.75
814.79	2357.83
814.97	1772.11
815.15	1839.28
815.34	2077.05
815.52	2158.76
815.70	1812.86
815.88	1878.60
816.06	1894.17
816.25	1945.57
816.43	1849.52
816.61	1977.31
816.79	2250.10
816.98	1757.16
817.16	1758.18
817.34	1783.37
817.52	2077.25
817.70	2275.29
817.89	1885.56
818.07	1754.49
818.25	1985.10
818.43	2035.07
818.61	1890.28
818.80	1837.03
818.98	2306.83
819.16	2041.01
819.34	1781.12
819.52	2117.80
819.70	1912.19
819.89	2027.28
820.07	1733.81
820.25	1735.24
820.43	2071.32
820.61	2192.35
820.80	1845.42
820.98	1743.85
821.16	1779.48
821.34	1839.28
821.52	1852.80
821.70	1991.24
821.89	2060.26
822.07	1977.31
822.25	1896.42
822.43	1846.65
822.61	2275.91
822.79	2093.02
822.98	1880.44
823.16	1714.76
823.34	2082.78
823.52	2254.61
823.70	1948.85
823.88	1717.22
824.06	2121.49
824.25	1989.19
824.43	1961.13
824.61	1770.47
824.79	2002.50
824.97	2062.71
825.15	1959.29
825.33	2140.74
825.52	2280.62
825.70	2095.69
825.88	1969.53
826.06	2017.86
826.24	2191.94
826.42	2250.51
826.60	2011.72
826.78	2033.43
826.97	2062.30
827.15	2280.82
827.33	1875.53
827.51	1941.47
827.69	1958.47
827.87	2077.05
828.05	1995.95
828.23	1821.26
828.41	2196.65
828.60	2153.85
828.78	1747.74
828.96	1978.54
829.14	1954.99
829.32	2008.85
829.50	1873.69
829.68	1854.23
829.86	1953.56
830.04	2124.15
830.22	1968.51
830.41	1798.32
830.59	2009.26
830.77	2112.07
830.95	1825.15
831.13	1825.56
831.31	1900.92
831.49	2195.63
831.67	2032.40
831.85	1982.43
832.03	1985.10
832.21	2122.72
832.39	1774.36
832.57	1795.45
832.76	2158.35
832.94	1990.01
833.12	1681.18
833.30	1846.65
833.48	2202.39
833.66	2074.80
833.84	1863.65
834.02	1884.95
834.20	2179.04
834.38	2164.09
834.56	1710.87
834.74	1798.12
834.92	1800.98
835.10	2318.92
835.28	1933.49
835.46	1905.43
835.64	2013.77
835.82	1901.74
836.01	2136.44
836.19	2102.04
836.37	1947.21
836.55	1865.29
836.73	1796.07
836.91	1760.84
837.09	2141.36
837.27	2259.52
837.45	1740.77
837.63	1745.48
837.81	1814.09
837.99	1997.79
838.17	1905.43
838.35	1799.75
838.53	2362.54
838.71	2124.77
838.89	1809.59
839.07	1796.07
839.25	2028.51
839.43	2155.08
839.61	1843.17
839.79	2141.77
839.97	2327.72
840.15	2371.34
840.33	2181.70
840.51	2398.79
840.69	2312.98
840.87	2286.15
841.05	2195.63
841.23	2118.42
841.41	2289.01
841.59	2704.75
841.77	2520.84
841.95	2622.63
842.13	3078.71
842.31	2765.99
842.49	2439.54
842.67	2473.54
842.85	2636.55
843.03	2280.00
843.21	2186.62
843.39	2355.57
843.57	2369.30
843.75	2363.97
843.93	2080.33
844.11	2116.17
844.29	2226.35
844.47	2119.85
844.65	2146.68
844.83	2000.05
845.01	2053.09
845.19	2248.06
845.36	1938.61
845.54	1976.90
845.72	2052.27
845.90	2158.15
846.08	1807.95
846.26	1936.76
846.44	2114.12
846.62	2103.88
846.80	1990.22
846.98	1826.58
847.16	2000.05
847.34	2096.10
847.52	1825.97
847.70	1781.12
847.88	1998.82
848.06	2265.67
848.24	1970.97
848.41	1745.48
848.59	2206.07
848.77	2102.44
848.95	1845.22
849.13	1832.73
849.31	2212.83
849.49	2084.22
849.67	1836.00
849.85	1788.70
850.03	2086.47
850.21	2065.38
850.39	1788.90
850.57	1975.27
850.74	2280.62
850.92	2248.26
851.10	2022.78
851.28	1903.79
851.46	2178.63
851.64	2539.89
851.82	1999.43
852.00	2065.38
852.18	2422.34
852.36	2303.56
852.53	1978.13
852.71	2060.67
852.89	2172.28
853.07	2203.00
853.25	1885.56
853.43	1791.77
853.61	2071.32
853.79	2115.96
853.97	1853.00
854.14	1854.85
854.32	2272.63
854.50	2153.23
854.68	1869.59
854.86	1860.99
855.04	1907.27
855.22	2155.49
855.40	1738.11
855.57	1805.69
855.75	2159.58
855.93	2115.55
856.11	1728.69
856.29	1817.78
856.47	1935.74
856.65	2073.36
856.82	1799.55
857.00	1757.36
857.18	2024.62
857.36	1952.94
857.54	1951.92
857.72	2034.04
857.89	2145.86
858.07	2060.26
858.25	2072.75
858.43	1761.25
858.61	2005.99
858.79	2000.46
858.97	1809.79
859.14	1940.04
859.32	1990.63
859.50	1960.93
859.68	1932.26
859.86	1805.69
860.03	2029.54
860.21	2111.46
860.39	1816.75
860.57	1980.59
860.75	2073.16
860.93	2324.44
861.10	2031.38
861.28	1787.06
861.46	2082.37
861.64	2096.71
861.82	1846.86
861.99	1953.97
862.17	2194.40
862.35	2178.22
862.53	1885.97
862.71	1888.02
862.88	2102.65
863.06	2132.14
863.24	1865.70
863.42	1801.39
863.60	1980.80
863.77	2118.21
863.95	1729.10
864.13	1871.43
864.31	2002.91
864.49	2158.97
864.66	1798.73
864.84	1800.98
865.02	2086.68
865.20	2506.30
865.37	1925.30
865.55	1808.36
865.73	1824.33
865.91	2129.68
866.09	1975.88
866.26	1901.33
866.44	2142.18
866.62	1987.14
866.80	1786.03
866.97	1833.75
867.15	1971.17
867.33	2041.01
867.51	1926.93
867.68	1902.15
867.86	1943.11
868.04	1902.56
868.22	1676.47
868.39	1837.23
868.57	2086.27
868.75	2268.33
868.93	1733.61
869.10	1834.16
869.28	2359.06
869.46	2245.39
869.64	1879.01
869.81	1842.56
869.99	2074.18
870.17	2055.75
870.35	1769.24
870.52	1850.54
870.70	2192.76
870.88	1941.68
871.05	1765.35
871.23	1662.34
871.41	2009.26
871.59	2030.97
871.76	1871.23
871.94	1766.37
872.12	2040.39
872.29	1810.20
872.47	1845.22
872.65	1765.35
872.83	2048.58
873.00	2250.72
873.18	1862.42
873.36	1821.05
873.53	2171.46
873.71	1797.50
873.89	1756.13
874.06	1858.12
874.24	2107.16
874.42	2232.29
874.60	1986.32
874.77	1918.95
874.95	1913.42
875.13	2193.37
875.30	1805.69
875.48	1802.42
875.66	2278.98
875.83	1899.49
876.01	1802.62
876.19	1957.86
876.36	1843.58
876.54	2055.55
876.72	1780.09
876.89	1937.99
877.07	2154.26
877.25	1747.33
877.42	1876.55
877.60	1863.65
877.78	2333.05
877.95	1977.11
878.13	1792.79
878.31	1987.96
878.48	2189.69
878.66	2148.93
878.84	1826.17
879.01	1849.32
879.19	2103.88
879.37	2118.42
879.54	1842.76
879.72	1736.47
879.90	1736.47
880.07	2164.29
880.25	1615.44
880.42	1991.44
880.60	2053.09
880.78	2136.85
880.95	1836.41
881.13	1883.52
881.31	2027.69
881.48	1954.58
881.66	1784.80
881.83	1948.44
882.01	1926.52
882.19	1800.16
882.36	1900.11
882.54	1826.17
882.72	2147.91
882.89	2028.92
883.07	1820.23
883.24	1844.61
883.42	2159.58
883.60	2017.04
883.77	1771.90
883.95	1888.43
884.12	2194.81
884.30	2071.73
884.48	1979.57
884.65	1869.18
884.83	2062.30
885.00	2070.29
885.18	1742.62
885.36	1856.28
885.53	2124.56
885.71	2211.60
885.88	1768.22
886.06	1809.59
886.23	2105.93
886.41	1956.22
886.59	1830.88
886.76	1778.05
886.94	2121.90
887.11	2501.39
887.29	1852.39
887.47	1779.07
887.64	2223.27
887.82	2258.91
887.99	1707.60
888.17	1848.70
888.34	1968.71
888.52	1872.46
888.69	1854.64
888.87	1755.72
889.05	1983.05
889.22	1968.92
889.40	1812.86
889.57	2075.62
889.75	2234.95
889.92	1954.99
890.10	1762.89
890.27	1905.84
890.45	1923.25
890.62	1766.99
890.80	1793.20
890.98	1706.57
891.15	2278.37
891.33	2220.41
891.50	1800.57
891.68	1753.68
891.85	2177.61
892.03	2172.08
892.20	1772.11
892.38	1763.92
892.55	2152.42
892.73	2174.74
892.90	1693.47
893.08	1824.74
893.25	1991.24
893.43	1964.62
893.60	1915.26
893.78	1648.21
893.95	2104.29
894.13	2003.94
894.30	1805.28
894.48	1858.53
894.65	2170.85
894.83	2072.13
895.00	1685.27
895.18	1697.15
895.35	2192.56
895.53	2134.39
895.70	1733.61
895.88	1926.73
896.05	2109.41
896.23	1810.40
896.40	1824.54
896.58	1880.65
896.75	2150.78
896.93	2288.40
897.10	1820.23
897.28	1710.26
897.45	2021.75
897.63	2139.51
897.80	1913.01
897.98	1803.85
898.15	2089.34
898.33	1947.82
898.50	1871.43
898.67	1827.81
898.85	1986.73
899.02	2101.83
899.20	2044.90
899.37	1828.22
899.55	2031.58
899.72	2218.56
899.90	1825.56
900.07	1780.09
900.25	2122.51
900.42	2220.00
900.59	1804.26
900.77	1926.52
900.94	2145.04
901.12	2065.38
901.29	1823.92
901.47	1958.47
901.64	2120.47
901.82	2018.89
901.99	1624.45
902.16	1786.85
902.34	2179.45
902.51	2089.75
902.69	1798.73
902.86	1868.16
903.03	2627.75
903.21	2044.90
903.38	1804.26
903.56	1780.71
903.73	2192.96
903.91	1977.11
904.08	1767.40
904.25	1655.78
904.43	1915.47
904.60	2166.55
904.78	1802.21
904.95	1744.25
905.12	1969.74
905.30	2309.90
905.47	1913.01
905.65	1969.53
905.82	2036.30
905.99	2099.78
906.17	1849.52
906.34	1794.23
906.52	1876.55
906.69	2117.80
906.86	1889.66
907.04	1897.85
907.21	2168.18
907.38	2151.39
907.56	1770.67
907.73	1761.25
907.91	2266.08
908.08	2236.59
908.25	1828.63
908.43	1734.02
908.60	2112.48
908.77	2026.26
908.95	1843.38
909.12	1756.34
909.30	2143.20
909.47	1799.96
909.64	1841.12
909.82	2012.13
909.99	1980.80
910.16	2063.33
910.34	1777.84
910.51	1804.87
910.68	2065.58
910.86	2012.74
911.03	1713.13
911.20	1774.77
911.38	2197.06
911.55	2453.67
911.72	2320.14
911.90	2191.12
912.07	2569.18
912.24	2743.87
912.42	2213.65
912.59	2024.62
912.76	2397.15
912.94	2194.81
913.11	1939.84
913.28	1856.07
913.46	1847.68
913.63	2089.95
913.80	2149.75
913.98	1809.59
914.15	2216.93
914.32	2219.59
914.49	1923.04
914.67	1771.90
914.84	2036.50
915.01	2118.62
915.19	1879.42
915.36	1795.66
915.53	2150.16
915.71	2111.66
915.88	1902.56
916.05	1809.99
916.22	2197.47
916.40	2031.58
916.57	1730.33
916.74	1975.47
916.92	2274.06
917.09	1908.71
917.26	1786.03
917.43	1732.17
917.61	1974.65
917.78	1760.23
917.95	1757.77
918.13	1708.21
918.30	2395.92
918.47	2039.16
918.64	1768.83
918.82	1738.93
918.99	1985.30
919.16	2288.40
919.33	1849.93
919.51	1796.89
919.68	1987.35
919.85	2212.01
920.02	1729.92
920.20	1847.06
920.37	2297.41
920.54	2181.50
920.71	1791.77
920.89	1820.85
921.06	2332.84
921.23	1886.79
921.40	1684.66
921.58	1861.19
921.75	2527.40
921.92	1904.61
922.09	1881.26
922.27	1852.18
922.44	2021.96
922.61	2094.87
922.78	1802.83
922.96	1791.77
923.13	1989.81
923.30	2158.35
923.47	1730.74
923.64	1763.51
923.82	2077.05
923.99	2062.10
924.16	1893.35
924.33	1727.05
924.50	2002.91
924.68	2257.07
924.85	1760.84
925.02	1812.04
925.19	2146.89
925.36	2047.56
925.54	1836.82
925.71	1871.84
925.88	2572.04
926.05	1985.10
926.22	1765.96
926.40	1934.31
926.57	2071.52
926.74	2131.94
926.91	1802.42
927.08	1982.02
927.26	2194.40
927.43	2072.34
927.60	1819.01
927.77	1851.36
927.94	2294.95
928.11	2243.14
928.29	1678.92
928.46	1840.92
928.63	1918.33
928.80	1978.54
928.97	1901.54
929.14	1768.22
929.32	2409.23
929.49	2026.26
929.66	1779.89
929.83	1724.59
930.00	1961.13
930.17	2109.61
930.35	1727.67
930.52	1796.07
930.69	2289.42
930.86	1880.65
931.03	1877.17
931.20	1631.41
931.37	2208.12
931.55	2036.50
931.72	1885.16
931.89	1734.83
932.06	1887.20
932.23	2302.53
932.40	1940.86
932.57	1905.02
932.74	2244.57
932.92	2207.92
933.09	1983.05
933.26	1599.67
933.43	1941.68
933.60	2078.48
933.77	1858.53
933.94	1922.22
934.11	2004.96
934.29	2045.72
934.46	1770.88
934.63	1868.98
934.80	1792.79
934.97	2011.11
935.14	1818.39
935.31	1659.67
935.48	1888.02
935.65	2082.78
935.82	1862.01
936.00	1703.09
936.17	2255.84
936.34	2000.05
936.51	1902.15
936.68	1726.85
936.85	2079.92
937.02	2021.75
937.19	1903.38
937.36	1858.74
937.53	2087.08
937.70	2162.45
937.87	1810.20
938.05	1909.12
938.22	2051.04
938.39	1879.01
938.56	1833.96
938.73	1727.87
938.90	1995.13
939.07	1933.49
939.24	1889.25
939.41	1702.27
939.58	2079.71
939.75	2096.10
939.92	1792.59
940.09	2080.94
940.26	1982.02
940.43	2172.49
940.60	1846.04
940.77	1815.93
940.95	2082.58
941.12	2145.04
941.29	1845.83
941.46	1836.00
941.63	2217.54
941.80	2273.45
941.97	1694.90
942.14	1687.53
942.31	2134.80
942.48	2002.30
942.65	1940.25
942.82	1872.66
942.99	2139.72
943.16	2026.87
943.33	1738.93
943.50	1791.77
943.67	2186.82
943.84	2208.53
944.01	1800.37
944.18	1755.93
944.35	2237.41
944.52	1895.60
944.69	1889.25
944.86	1726.85
945.03	2115.35
945.20	2440.15
945.37	1673.19
945.54	1867.75
945.71	2246.42
945.88	2328.34
946.05	1785.01
946.22	1749.17
946.39	2256.86
946.56	2010.08
946.73	1683.43
946.90	1757.98
947.07	1945.37
947.24	2012.95
947.41	1655.58
947.58	1912.80
947.75	2142.79
947.92	2073.16
948.09	1619.94
948.26	1693.67
948.43	2059.03
948.60	2366.84
948.77	1758.80
948.94	1798.32
949.11	2164.09
949.27	2089.34
949.44	1794.02
949.61	1722.55
949.78	2093.84
949.95	2225.94
950.12	1714.35
950.29	1702.68
950.46	1971.58
950.63	2194.81
950.80	1747.33
950.97	1834.37
951.14	2198.08
951.31	1965.23
951.48	1761.66
951.65	1693.67
951.82	2361.51
951.99	2051.04
952.15	1737.29
952.32	1811.63
952.49	1937.79
952.66	1986.12
952.83	1783.99
953.00	1737.50
953.17	2029.74
953.34	2178.22
953.51	1849.32
953.68	1862.63
953.85	2231.06
954.02	2201.57
954.18	1808.36
954.35	1803.24
954.52	1899.90
954.69	2069.06
954.86	1709.23
955.03	1855.66
955.20	2149.34
955.37	2016.02
955.54	1801.60
955.71	1749.99
955.87	2107.36
956.04	2319.12
956.21	1803.44
956.38	1756.75
956.55	2048.17
956.72	2450.39
956.89	1853.41
957.06	1775.18
957.23	1923.45
957.39	2229.01
957.56	1829.86
957.73	1727.05
957.90	1715.99
958.07	2325.47
958.24	1832.11
958.41	1799.75
958.57	2164.91
958.74	2025.24
958.91	1725.21
959.08	1775.18
959.25	2141.36
959.42	1986.12
959.59	1835.39
959.75	1837.64
959.92	2237.82
960.09	2232.70
960.26	1767.60
960.43	1855.25
960.60	2104.90
960.76	1988.37
960.93	1691.42
961.10	1859.76
961.27	2188.25
961.44	1989.19
961.61	1724.80
961.77	1703.30
961.94	2031.38
962.11	2176.17
962.28	1787.88
962.45	1708.01
962.62	1966.25
962.78	2192.56
962.95	1689.16
963.12	1768.42
963.29	2171.87
963.46	2530.47
963.62	1879.22
963.79	1773.54
963.96	2468.62
964.13	1977.31
964.30	1880.44
964.46	1806.72
964.63	1857.71
964.80	2473.33
964.97	1621.17
965.14	1915.26
965.30	2034.45
965.47	2138.08
965.64	1928.57
965.81	1901.13
965.98	2268.53
966.14	2040.60
966.31	1780.30
966.48	1750.40
966.65	2206.69
966.81	2089.95
966.98	1796.27
967.15	1788.08
967.32	2000.66
967.49	1884.95
967.65	1661.93
967.82	1623.42
967.99	1963.18
968.16	1753.88
968.32	1962.57
968.49	1763.10
968.66	1985.71
968.83	2259.52
968.99	1890.48
969.16	1731.97
969.33	2231.26
969.50	2100.40
969.66	1898.67
969.83	2034.66
970.00	2148.93
970.17	2117.80
970.33	1820.44
970.50	1712.31
970.67	2295.98
970.84	2289.42
971.00	1759.61
971.17	1721.32
971.34	2139.31
971.50	2036.91
971.67	1892.73
971.84	1818.39
972.01	1854.64
972.17	1717.02
972.34	1728.69
972.51	1954.38
972.67	2220.82
972.84	2111.46
973.01	1728.28
973.18	1803.85
973.34	2188.25
973.51	1892.12
973.68	1818.19
973.84	1833.96
974.01	1973.42
974.18	2328.13
974.34	1858.12
974.51	1907.07
974.68	1897.03
974.85	2363.15
975.01	1902.97
975.18	1792.18
975.35	2047.35
975.51	1885.56
975.68	1689.57
975.85	1927.75
976.01	1948.44
976.18	2286.97
976.35	1801.60
976.51	1822.49
976.68	2325.06
976.85	2258.91
977.01	1837.44
977.18	1883.52
977.35	2150.98
977.51	1849.52
977.68	1636.12
977.85	1732.79
978.01	2173.30
978.18	2130.30
978.35	1860.99
978.51	1862.63
978.68	2182.52
978.85	2296.18
979.01	1839.49
979.18	1842.76
979.34	2031.58
979.51	2027.49
979.68	1736.27
979.84	1845.42
980.01	2454.90
980.18	2052.88
980.34	1761.66
980.51	1870.82
980.67	2163.88
980.84	2145.86
981.01	1809.18
981.17	1843.17
981.34	1765.96
981.51	2128.25
981.67	1739.75
981.84	1916.69
982.00	2123.33
982.17	2023.19
982.34	1670.12
982.50	1568.33
982.67	2301.30
982.83	1947.00
983.00	1700.43
983.17	1631.82
983.33	2224.50
983.50	1803.85
983.66	1675.85
983.83	1575.91
984.00	1968.51
984.16	2073.16
984.33	1608.88
984.49	1574.89
984.66	1895.60
984.83	2170.44
984.99	1660.90
985.16	1583.08
985.32	2119.65
985.49	2163.88
985.65	1737.09
985.82	1598.64
985.99	2267.31
986.15	2044.90
986.32	1716.61
986.48	1645.54
986.65	1989.40
986.81	2178.22
986.98	1584.92
987.14	1686.09
987.31	2074.39
987.48	1782.96
987.64	1532.70
987.81	1558.30
987.97	2368.07
988.14	1891.91
988.30	1643.09
988.47	1476.79
988.63	2083.19
988.80	1844.81
988.96	1712.72
989.13	1721.93
989.30	1999.23
989.46	2172.49
989.63	1543.14
989.79	1577.96
989.96	2055.14
990.12	2283.69
990.29	1635.51
990.45	1670.12
990.62	2016.43
990.78	2235.77
990.95	1706.98
991.11	1659.47
991.28	1957.65
991.44	2076.44
991.61	1541.71
991.77	1692.03
991.94	2065.58
992.10	2222.46
992.27	1686.09
992.43	1659.88
992.60	2118.83
992.76	1973.42
992.93	1811.02
993.09	1569.77
993.26	2202.18
993.42	2315.64
993.59	1629.57
993.75	1544.58
993.92	1913.21
994.08	1918.95
994.25	1684.86
994.41	1601.72
994.58	2163.88
994.74	2281.44
994.91	1600.08
995.07	1717.84
995.24	1986.73
995.40	2019.30
995.56	1780.09
995.73	1729.10
995.89	2333.46
996.06	2018.68
996.22	1627.93
996.39	1548.26
996.55	1998.61
996.72	2097.53
996.88	1541.71
997.05	1591.68
997.21	2358.03
997.37	2130.09
997.54	1713.13
997.70	1644.52
997.87	2098.35
998.03	2031.38
998.20	1534.95
998.36	1552.16
998.52	2140.95
998.69	2189.28
998.85	1572.02
999.02	1634.69
999.18	2169.41
999.35	2183.75
999.51	1701.66
999.67	1640.01
999.84	1861.19
1000.00	2161.84
1000.17	1726.03
1000.33	1620.97
1000.49	1946.59
1000.66	2002.09
1000.82	1604.79
1000.99	1681.59
1001.15	2240.89
1001.31	1984.07
1001.48	1623.22
1001.64	1710.05
1001.81	1978.75
1001.97	2352.91
1002.13	1655.58
1002.30	1670.32
1002.46	2260.55
1002.63	1978.54
1002.79	1733.81
1002.95	1613.59
1003.12	2202.80
1003.28	2103.67
1003.45	1607.25
1003.61	1567.31
1003.77	2055.14
1003.94	1824.74
1004.10	1639.19
1004.26	1734.42
1004.43	2150.78
1004.59	2324.44
1004.75	1617.69
1004.92	1581.65
1005.08	1940.66
1005.25	2044.69
1005.41	1641.45
1005.57	1706.57
1005.74	2227.78
1005.90	1927.96
1006.06	1770.26
1006.23	1642.47
1006.39	2128.04
1006.55	2488.69
1006.72	1755.11
1006.88	1565.88
1007.04	1870.61
1007.21	2003.73
1007.37	1657.22
1007.53	1616.87
1007.70	2257.48
1007.86	2142.99
1008.02	1748.97
1008.19	1602.95
1008.35	2098.76
1008.51	1882.29
1008.68	1637.97
1008.84	1566.49
1009.00	1901.95
1009.17	2219.38
1009.33	1806.10
1009.49	1754.49
1009.65	1904.41
1009.82	2083.81
1009.98	1714.97
1010.14	1562.40
1010.31	2158.76
1010.47	2104.29
1010.63	1705.14
1010.80	1694.69
1010.96	2125.18
1011.12	2012.33
1011.28	1657.01
1011.45	1604.17
1011.61	2476.81
1011.77	1880.44
1011.94	1614.00
1012.10	1585.95
1012.26	1844.40
1012.42	1931.03
1012.59	1697.36
1012.75	1676.47
1012.91	1995.75
1013.07	2167.16
1013.24	1600.90
1013.40	1598.03
1013.56	2055.34
1013.72	2016.84
1013.89	1700.63
1014.05	1743.44
1014.21	2367.86
1014.37	2482.96
1014.54	1705.14
1014.70	1590.66
1014.86	1992.67
1015.02	1839.28
1015.19	1624.45
1015.35	1580.83
1015.51	1988.58
1015.67	1942.09
1015.84	1622.61
1016.00	1660.29
1016.16	2231.67
1016.32	2145.86
1016.49	1619.74
1016.65	1574.27
1016.81	2024.83
1016.97	2117.19
1017.14	1752.86
1017.30	1660.70
1017.46	1914.24
1017.62	2068.04
1017.78	1712.51
1017.95	1627.93
1018.11	2147.70
1018.27	2424.39
1018.43	1779.68
1018.59	1714.35
1018.76	2184.98
1018.92	2479.68
1019.08	1608.47
1019.24	1650.87
1019.40	2279.80
1019.57	2098.14
1019.73	1742.41
1019.89	1658.24
1020.05	2045.31
1020.21	2381.99
1020.38	1607.86
1020.54	1803.65
1020.70	2142.18
1020.86	2138.49
1021.02	1617.28
1021.18	1623.83
1021.35	1957.86
1021.51	2109.20
1021.67	1811.22
1021.83	1696.33
1021.99	2034.45
1022.15	2100.19
1022.32	1704.11
1022.48	1677.90
1022.64	2276.52
1022.80	2309.90
1022.96	1716.20
1023.12	1597.83
1023.29	2188.05
1023.45	2106.34
1023.61	1643.09
1023.77	1816.34
1023.93	2058.82
1024.09	1896.62
1024.25	1620.15
1024.42	1580.01
1024.58	1953.97
1024.74	2069.88
1024.90	1661.52
1025.06	1712.31
1025.22	1955.61
1025.38	2308.88
1025.54	1589.63
1025.71	1755.93
1025.87	2132.14
1026.03	2097.53
1026.19	1611.34
1026.35	1821.87
1026.51	2121.90
1026.67	2030.97
1026.83	1701.66
1026.99	1786.85
1027.16	2120.47
1027.32	2011.92
1027.48	1663.36
1027.64	1624.24
1027.80	2124.77
1027.96	2063.53
1028.12	1646.98
1028.28	1650.05
1028.44	2075.82
1028.60	2287.38
1028.77	1763.30
1028.93	1695.72
1029.09	1957.45
1029.25	1869.18
1029.41	1721.52
1029.57	1734.22
1029.73	2090.57
1029.89	2273.86
1030.05	1768.63
1030.21	1721.73
1030.37	2449.99
1030.53	2129.68
1030.69	1698.59
1030.85	1582.26
1031.02	1875.53
1031.18	2037.52
1031.34	1658.45
1031.50	1748.76
1031.66	1902.77
1031.82	2289.01
1031.98	1684.04
1032.14	1595.16
1032.30	1873.48
1032.46	2183.54
1032.62	1794.84
1032.78	1589.02
1032.94	1930.82
1033.10	2008.65
1033.26	1701.04
1033.42	1789.11
1033.58	2403.50
1033.74	1946.39
1033.90	1624.65
1034.06	1842.15
1034.22	2412.10
1034.38	2196.45
1034.54	1703.30
1034.70	1694.08
1034.86	2369.09
>>>>>End Processed Spectral Data<<<<<
