SpectraSuite Data File
++++++++++++++++++++++++++++++++++++
Date: Thu Mar 30 16:22:13 PDT 2017
User: UCSD _CER
Dark Spectrum Present: No
Reference Spectrum Present: No
Number of Sampled Component Spectra: 1
Spectrometers: USB4C00073
Integration Time (usec): 250000 (USB4C00073)
Spectra Averaged: 10 (USB4C00073)
Boxcar Smoothing: 0 (USB4C00073)
Correct for Electrical Dark: No (USB4C00073)
Strobe/Lamp Enabled: No (USB4C00073)
Correct for Detector Non-linearity: No (USB4C00073)
Correct for Stray Light: No (USB4C00073)
Number of Pixels in Processed Spectrum: 3648
>>>>>Begin Processed Spectral Data<<<<<
345.37	1294.73
345.58	1294.73
345.80	1294.73
346.01	1244.14
346.22	1287.56
346.43	1972.19
346.65	1774.77
346.86	2152.01
347.07	2105.72
347.28	1809.18
347.50	1790.54
347.71	1939.02
347.92	1703.91
348.13	1820.03
348.35	1723.78
348.56	1901.54
348.77	1765.96
348.98	1809.99
349.20	1684.25
349.41	1920.99
349.62	2002.50
349.83	1841.12
350.05	1733.20
350.26	1965.23
350.47	2081.97
350.68	1772.93
350.90	1730.53
351.11	2113.91
351.32	2062.71
351.53	1805.28
351.75	1726.44
351.96	1931.23
352.17	1933.28
352.38	1852.18
352.60	1852.18
352.81	1926.73
353.02	2118.21
353.23	1763.92
353.44	1792.38
353.66	1861.19
353.87	1879.01
354.08	1892.94
354.29	1814.50
354.51	1828.02
354.72	1913.83
354.93	1807.95
355.14	1740.36
355.35	1752.04
355.57	2061.28
355.78	1837.44
355.99	1883.72
356.20	1961.54
356.42	1925.71
356.63	1925.50
356.84	1859.76
357.05	2030.15
357.26	2180.47
357.48	1910.35
357.69	1860.58
357.90	1969.12
358.11	1842.35
358.32	1788.29
358.54	1857.71
358.75	1835.39
358.96	1964.41
359.17	1785.42
359.38	1799.55
359.60	2004.35
359.81	1909.94
360.02	1823.72
360.23	1769.45
360.44	1813.07
360.66	2071.93
360.87	1747.94
361.08	1746.10
361.29	1940.25
361.50	1899.08
361.72	1784.60
361.93	1848.91
362.14	1939.84
362.35	1732.58
362.56	1898.47
362.77	1729.71
362.99	2024.62
363.20	1936.15
363.41	1901.13
363.62	1707.60
363.83	1992.88
364.05	2014.18
364.26	1721.52
364.47	1761.87
364.68	2056.57
364.89	1832.93
365.10	1725.21
365.32	1807.13
365.53	1814.09
365.74	1844.20
365.95	1829.04
366.16	1694.08
366.37	1898.88
366.59	1884.95
366.80	1797.50
367.01	1676.06
367.22	2166.14
367.43	2292.29
367.64	1810.20
367.86	1809.79
368.07	1961.54
368.28	2070.70
368.49	1736.68
368.70	1851.57
368.91	1869.80
369.12	1913.42
369.34	1707.60
369.55	1730.74
369.76	1911.16
369.97	1849.32
370.18	1729.51
370.39	1748.76
370.60	1744.66
370.82	1741.59
371.03	1789.72
371.24	1748.15
371.45	1991.44
371.66	1963.39
371.87	1809.99
372.08	1763.51
372.30	1781.53
372.51	2024.01
372.72	1873.69
372.93	1770.67
373.14	2099.17
373.35	1817.57
373.56	1757.98
373.78	1825.56
373.99	2012.13
374.20	2276.93
374.41	1795.25
374.62	1820.85
374.83	2077.66
375.04	1865.90
375.25	1806.92
375.47	1749.78
375.68	1869.39
375.89	2003.94
376.10	1804.26
376.31	1907.07
376.52	1989.81
376.73	1966.05
376.94	1831.70
377.15	1775.59
377.37	1900.11
377.58	1866.93
377.79	1685.89
378.00	1723.98
378.21	1913.21
378.42	1984.48
378.63	1832.11
378.84	1874.71
379.05	2037.52
379.27	1926.73
379.48	1927.75
379.69	1766.37
379.90	2045.10
380.11	1684.86
380.32	1784.40
380.53	1909.12
380.74	2085.45
380.95	1893.55
381.16	1808.15
381.37	1754.49
381.59	2068.86
381.80	2028.72
382.01	1764.94
382.22	1689.57
382.43	1990.22
382.64	1939.02
382.85	1764.12
383.06	1874.30
383.27	2017.86
383.48	1899.70
383.69	1869.39
383.91	1731.97
384.12	1971.58
384.33	1946.18
384.54	1826.99
384.75	1689.57
384.96	2295.36
385.17	2031.38
385.38	1772.72
385.59	1764.12
385.80	1977.72
386.01	2098.96
386.22	1882.29
386.43	1815.11
386.64	2187.85
386.86	1895.80
387.07	1910.75
387.28	1692.44
387.49	1821.26
387.70	2072.34
387.91	1877.58
388.12	1735.45
388.33	1954.38
388.54	1862.83
388.75	1806.51
388.96	1864.27
389.17	1855.87
389.38	1898.88
389.59	1858.94
389.80	1806.92
390.01	1923.66
390.22	1865.70
390.43	1921.20
390.64	1672.17
390.86	1944.75
391.07	2069.47
391.28	1799.14
391.49	1842.15
391.70	1756.95
391.91	1808.15
392.12	1806.31
392.33	1795.25
392.54	1900.72
392.75	1855.05
392.96	1892.94
393.17	1742.21
393.38	2194.60
393.59	2051.86
393.80	1763.92
394.01	1890.68
394.22	2020.94
394.43	2276.93
394.64	1925.09
394.85	2080.94
395.06	2044.69
395.27	1991.04
395.48	1851.57
395.69	1728.08
395.90	1939.22
396.11	1879.83
396.32	1778.05
396.53	1884.75
396.74	1883.52
396.95	2018.07
397.16	1780.30
397.37	1716.61
397.58	2017.45
397.79	1895.19
398.00	1874.51
398.21	1797.50
398.42	1927.34
398.63	2184.36
398.84	1797.50
399.05	1780.71
399.26	2068.24
399.47	1978.34
399.68	1645.75
399.89	1745.07
400.10	1744.05
400.31	1849.32
400.52	1815.11
400.73	1760.64
400.94	1716.61
401.15	1954.99
401.36	1821.67
401.57	1860.37
401.78	2043.46
401.99	2019.09
402.20	1737.91
402.41	1904.20
402.62	2115.55
402.83	1873.28
403.04	1759.82
403.25	1937.58
403.46	2010.29
403.67	2223.27
403.88	2017.66
404.09	2017.04
404.30	2074.18
404.51	2003.32
404.72	1870.82
404.93	1991.44
405.14	1881.88
405.35	1916.69
405.56	1813.07
405.77	1781.12
405.98	1955.40
406.19	1876.55
406.40	1745.48
406.61	1771.08
406.82	1832.52
407.03	2187.64
407.24	1725.00
407.45	1854.44
407.66	1945.57
407.87	2026.26
408.08	1855.66
408.29	1873.07
408.49	1992.06
408.70	1893.55
408.91	1822.69
409.12	1910.55
409.33	1790.13
409.54	2081.35
409.75	1778.66
409.96	1787.67
410.17	2015.20
410.38	1872.66
410.59	1781.12
410.80	1891.30
411.01	1879.22
411.22	1885.97
411.43	1844.40
411.64	1770.47
411.85	1829.04
412.06	1783.37
412.27	1653.94
412.47	1805.49
412.68	1885.97
412.89	1938.20
413.10	1763.10
413.31	1706.78
413.52	2164.29
413.73	2139.92
413.94	1757.77
414.15	1920.59
414.36	1844.81
414.57	1841.74
414.78	1861.60
414.99	2397.56
415.19	2998.64
415.40	3185.82
415.61	3375.05
415.82	3224.12
416.03	3071.34
416.24	2721.14
416.45	2365.81
416.66	2052.27
416.87	1855.25
417.08	2080.94
417.29	1873.48
417.50	2023.39
417.70	2192.76
417.91	2212.01
418.12	2169.41
418.33	2333.46
418.54	2518.59
418.75	2707.82
418.96	2866.75
419.17	3218.59
419.38	3906.71
419.59	3931.69
419.79	3844.24
420.00	3639.24
420.21	3474.99
420.42	2702.50
420.63	2297.41
420.84	2160.61
421.05	1975.06
421.26	1942.70
421.47	1756.95
421.67	2032.40
421.88	1834.78
422.09	1760.43
422.30	1979.98
422.51	1829.66
422.72	2142.79
422.93	1995.54
423.14	1813.27
423.35	1708.21
423.55	1720.09
423.76	1834.78
423.97	1826.38
424.18	1743.03
424.39	1962.57
424.60	2106.95
424.81	1930.42
425.02	2153.03
425.22	2322.60
425.43	2380.76
425.64	2555.87
425.85	2589.86
426.06	2878.83
426.27	2727.48
426.48	2795.68
426.68	2798.14
426.89	2817.39
427.10	2868.18
427.31	2378.92
427.52	2055.14
427.73	2209.76
427.94	2090.36
428.14	1965.85
428.35	1849.52
428.56	2081.35
428.77	2058.41
428.98	1940.25
429.19	2145.25
429.40	2240.89
429.60	2367.04
429.81	2437.29
430.02	2368.48
430.23	2207.71
430.44	2195.01
430.65	1945.98
430.85	1933.08
431.06	2016.43
431.27	1735.04
431.48	1812.86
431.69	1851.16
431.90	1937.38
432.10	1928.16
432.31	1905.84
432.52	2045.10
432.73	2710.08
432.94	2737.32
433.15	2582.90
433.35	2471.08
433.56	2617.51
433.77	2307.86
433.98	2252.56
434.19	2080.53
434.40	2159.99
434.60	2032.20
434.81	1887.00
435.02	1929.39
435.23	1953.76
435.44	1870.21
435.64	1718.25
435.85	1760.64
436.06	1896.42
436.27	1847.47
436.48	1735.45
436.68	1787.67
436.89	2131.94
437.10	1970.56
437.31	1832.11
437.52	1891.09
437.73	1921.40
437.93	1923.04
438.14	1867.13
438.35	1694.69
438.56	1877.78
438.77	1872.05
438.97	1954.17
439.18	1766.17
439.39	2045.10
439.60	1736.27
439.80	1687.12
440.01	1822.49
440.22	1860.17
440.43	2007.83
440.64	1740.77
440.84	1847.06
441.05	1775.79
441.26	2276.11
441.47	1865.90
441.68	1780.71
441.88	1880.24
442.09	1886.79
442.30	1942.09
442.51	1868.98
442.71	1863.65
442.92	1969.33
443.13	1767.19
443.34	1754.90
443.55	1800.57
443.75	1974.04
443.96	1781.73
444.17	1769.24
444.38	2028.51
444.58	1808.56
444.79	1895.60
445.00	1842.56
445.21	1900.92
445.41	1885.77
445.62	1622.40
445.83	1919.56
446.04	1939.84
446.24	1777.02
446.45	1663.77
446.66	1800.57
446.87	1968.92
447.07	1855.87
447.28	2003.12
447.49	1843.38
447.70	2015.20
447.90	2044.90
448.11	1806.31
448.32	1899.90
448.53	2071.32
448.73	2080.53
448.94	1795.86
449.15	1928.98
449.36	1927.55
449.56	1973.63
449.77	1822.69
449.98	1737.29
450.19	1968.92
450.39	2088.72
450.60	2105.72
450.81	2081.76
451.02	2135.21
451.22	2264.64
451.43	1924.07
451.64	1942.50
451.84	1991.85
452.05	2212.63
452.26	1972.19
452.47	1865.90
452.67	1886.38
452.88	2129.68
453.09	1805.28
453.30	1767.19
453.50	2018.27
453.71	2115.76
453.92	1817.37
454.12	1936.56
454.33	1837.03
454.54	1877.78
454.75	1778.25
454.95	1759.41
455.16	1914.85
455.37	1964.00
455.57	1856.07
455.78	1842.97
455.99	1901.95
456.19	1932.46
456.40	1764.12
456.61	1837.03
456.82	1916.28
457.02	1984.07
457.23	1886.38
457.44	1988.58
457.64	1883.31
457.85	1991.24
458.06	1877.17
458.26	2032.40
458.47	1950.90
458.68	2067.83
458.89	1841.33
459.09	2051.04
459.30	2284.30
459.51	2059.64
459.71	1797.30
459.92	1822.28
460.13	2012.33
460.33	2200.13
460.54	1816.34
460.75	1828.43
460.95	1788.08
461.16	1953.56
461.37	1814.50
461.57	1854.64
461.78	1939.02
461.99	1825.76
462.19	2073.98
462.40	1859.56
462.61	2442.82
462.81	2125.38
463.02	1797.09
463.23	1831.09
463.43	2027.08
463.64	1898.26
463.85	2807.56
464.05	1852.59
464.26	2370.32
464.47	2157.54
464.67	2038.14
464.88	1924.89
465.09	1838.26
465.29	1960.32
465.50	1957.65
465.71	1887.00
465.91	1850.54
466.12	1913.21
466.33	1890.68
466.53	1821.67
466.74	2103.06
466.94	1893.35
467.15	1847.68
467.36	2011.72
467.56	1820.64
467.77	1968.71
467.98	1877.99
468.18	1779.68
468.39	1871.84
468.60	2176.99
468.80	1864.47
469.01	1794.64
469.21	1993.08
469.42	2095.28
469.63	1958.47
469.83	1895.80
470.04	2139.92
470.25	2292.29
470.45	1976.29
470.66	1841.74
470.86	2022.78
471.07	1939.02
471.28	1959.50
471.48	2008.24
471.69	1979.77
471.90	2391.21
472.10	1808.56
472.31	1859.15
472.51	1852.39
472.72	1838.05
472.93	1753.88
473.13	1936.76
473.34	1947.82
473.54	1898.26
473.75	1874.51
473.96	2021.55
474.16	1924.48
474.37	2032.20
474.57	1969.33
474.78	1924.07
474.99	2069.88
475.19	2044.08
475.40	1877.37
475.60	1805.49
475.81	2166.14
476.02	1969.94
476.22	2010.70
476.43	2086.06
476.63	2013.15
476.84	2196.45
477.05	1774.56
477.25	1850.34
477.46	2336.32
477.66	1936.97
477.87	1748.76
478.08	1887.20
478.28	2064.15
478.49	1906.25
478.69	1812.45
478.90	1838.46
479.10	2032.20
479.31	2140.95
479.52	1906.86
479.72	1991.44
479.93	2037.52
480.13	1882.70
480.34	1818.60
480.54	1913.42
480.75	1823.92
480.96	2061.28
481.16	1803.44
481.37	1938.20
481.57	2003.73
481.78	1968.71
481.98	2030.97
482.19	1906.66
482.40	2196.86
482.60	2040.39
482.81	1948.64
483.01	1888.64
483.22	2147.70
483.42	2147.30
483.63	2030.56
483.83	1958.68
484.04	1898.88
484.24	2037.73
484.45	1917.51
484.66	1743.85
484.86	1983.05
485.07	1864.27
485.27	1884.95
485.48	1805.69
485.68	2110.84
485.89	1862.63
486.09	1967.89
486.30	1856.89
486.50	1956.42
486.71	2016.23
486.91	2057.18
487.12	2132.96
487.33	2383.02
487.53	2390.18
487.74	2141.36
487.94	2092.61
488.15	2254.20
488.35	2339.19
488.56	2200.95
488.76	2163.88
488.97	2172.89
489.17	2180.47
489.38	1980.80
489.58	1947.41
489.79	2073.77
489.99	1997.38
490.20	1925.09
490.40	2003.53
490.61	2041.82
490.81	1899.70
491.02	1921.20
491.22	1972.81
491.43	2081.76
491.63	1983.05
491.84	2036.09
492.04	1828.84
492.25	2009.26
492.45	1907.48
492.66	1853.62
492.86	1767.60
493.07	1927.96
493.27	2247.85
493.48	1790.33
493.68	1911.57
493.89	1925.30
494.09	2042.03
494.30	1846.65
494.50	2109.41
494.71	2080.74
494.91	1924.48
495.12	1986.12
495.32	2112.89
495.53	2071.11
495.73	1865.29
495.94	1918.13
496.14	1749.37
496.35	2145.04
496.55	1925.91
496.76	1910.75
496.96	1922.43
497.17	1980.59
497.37	2045.51
497.58	1866.72
497.78	1843.17
497.98	1959.09
498.19	1959.70
498.39	1983.46
498.60	2012.54
498.80	1816.34
499.01	2070.70
499.21	1848.09
499.42	1927.14
499.62	1905.43
499.83	2238.63
500.03	1765.55
500.24	1941.47
500.44	2122.92
500.64	2099.99
500.85	1874.30
501.05	1979.16
501.26	1757.98
501.46	2123.74
501.67	1809.59
501.87	1785.62
502.08	1835.59
502.28	1908.91
502.48	1973.63
502.69	2047.56
502.89	1844.81
503.10	1922.02
503.30	1972.81
503.51	1928.16
503.71	1824.13
503.92	2108.59
504.12	2040.60
504.32	2010.70
504.53	2220.82
504.73	2229.42
504.94	2202.18
505.14	2353.94
505.35	2355.98
505.55	2341.65
505.75	2259.93
505.96	2344.72
506.16	2428.28
506.37	2072.75
506.57	1977.31
506.78	2073.57
506.98	2207.92
507.18	1906.04
507.39	1876.55
507.59	1990.01
507.80	1932.87
508.00	2065.17
508.20	2135.62
508.41	1976.90
508.61	2215.08
508.82	2114.94
509.02	2018.07
509.22	1808.56
509.43	1828.02
509.63	1880.85
509.84	1926.52
510.04	1783.58
510.24	2133.37
510.45	2050.84
510.65	1802.21
510.86	1939.43
511.06	1868.57
511.26	2132.14
511.47	2076.64
511.67	1894.37
511.88	2093.84
512.08	2120.06
512.28	1816.55
512.49	1982.02
512.69	2005.17
512.90	1988.37
513.10	1839.90
513.30	1931.85
513.51	2005.99
513.71	2146.48
513.91	1958.68
514.12	1980.80
514.32	2129.68
514.53	2059.03
514.73	2171.46
514.93	2123.74
515.14	2237.61
515.34	2495.45
515.54	2379.13
515.75	2500.16
515.95	2674.24
516.15	2711.92
516.36	2344.72
516.56	2227.58
516.77	1906.45
516.97	2171.26
517.17	2051.04
517.38	2112.89
517.58	2323.63
517.78	2186.21
517.99	2426.84
518.19	2543.17
518.39	2791.38
518.60	2657.24
518.80	2439.34
519.00	2368.07
519.21	2215.49
519.41	2374.01
519.61	1974.45
519.82	2066.40
520.02	2068.45
520.22	2053.50
520.43	2049.81
520.63	2022.37
520.83	1991.24
521.04	1937.58
521.24	2316.25
521.44	2415.17
521.65	2495.25
521.85	2740.18
522.05	2498.52
522.26	2333.87
522.46	2472.31
522.66	2251.54
522.87	2035.27
523.07	2162.04
523.27	2025.44
523.48	2270.99
523.68	2087.90
523.88	2105.93
524.09	2245.80
524.29	2153.85
524.49	2046.54
524.70	2388.55
524.90	2526.78
525.10	2435.03
525.31	2146.48
525.51	1999.23
525.71	2190.51
525.91	2095.69
526.12	1923.86
526.32	1823.31
526.52	1917.51
526.73	1891.09
526.93	1947.21
527.13	1787.88
527.34	1958.47
527.54	2005.99
527.74	1927.55
527.94	1861.60
528.15	1915.06
528.35	2025.44
528.55	2072.75
528.76	2005.37
528.96	1760.84
529.16	2089.75
529.36	2026.87
529.57	1816.75
529.77	2104.49
529.97	1830.47
530.18	2016.84
530.38	1877.58
530.58	2015.82
530.78	1970.35
530.99	1885.56
531.19	2035.68
531.39	1908.71
531.60	1979.57
531.80	1906.25
532.00	2033.63
532.20	1999.64
532.41	1901.13
532.61	1873.07
532.81	1904.82
533.01	1886.38
533.22	1984.28
533.42	1992.06
533.62	1744.46
533.82	2102.65
534.03	1951.51
534.23	1978.34
534.43	1850.75
534.63	1897.03
534.84	1983.87
535.04	1923.25
535.24	1918.54
535.44	2245.80
535.65	1877.17
535.85	1833.34
536.05	1826.58
536.25	1932.46
536.46	1889.66
536.66	2109.82
536.86	2010.49
537.06	2155.69
537.27	2224.91
537.47	2052.06
537.67	1907.48
537.87	2164.29
538.08	1936.97
538.28	1841.53
538.48	1879.01
538.68	1978.75
538.88	2078.48
539.09	1826.17
539.29	1974.45
539.49	2118.42
539.69	2007.62
539.90	2013.56
540.10	1881.26
540.30	2199.93
540.50	1985.30
540.70	1887.41
540.91	2033.63
541.11	2207.71
541.31	2353.73
541.51	2244.16
541.72	2303.56
541.92	2354.96
542.12	2159.79
542.32	2090.57
542.52	2001.68
542.73	1979.16
542.93	2103.06
543.13	1976.09
543.33	2107.16
543.53	2272.63
543.74	2263.01
543.94	2138.49
544.14	2335.50
544.34	2514.70
544.54	2439.54
544.75	2539.28
544.95	2723.59
545.15	2613.82
545.35	2627.95
545.55	2391.00
545.75	2164.09
545.96	2449.99
546.16	2023.19
546.36	2059.23
546.56	2077.46
546.76	2229.62
546.97	2284.30
547.17	2005.99
547.37	2034.86
547.57	1915.87
547.77	2078.69
547.97	1986.94
548.18	2015.00
548.38	2069.88
548.58	2671.17
548.78	2813.50
548.98	3248.28
549.18	3620.81
549.39	3848.75
549.59	3394.51
549.79	3062.12
549.99	3072.77
550.19	2879.85
550.39	2679.36
550.60	2417.42
550.80	2357.62
551.00	2345.33
551.20	2104.08
551.40	2046.13
551.60	2147.30
551.80	2107.97
552.01	2163.06
552.21	2060.87
552.41	2135.83
552.61	2291.47
552.81	2048.17
553.01	1914.65
553.21	2096.30
553.42	1876.76
553.62	1890.07
553.82	1885.56
554.02	2161.43
554.22	2051.86
554.42	1858.12
554.62	2033.43
554.83	2445.68
555.03	2807.77
555.23	2830.91
555.43	3261.60
555.63	3272.24
555.83	3087.72
556.03	2705.16
556.23	2498.52
556.44	2649.05
556.64	2721.75
556.84	2281.64
557.04	2511.83
557.24	2495.45
557.44	2360.69
557.64	2220.82
557.84	2070.50
558.04	2060.46
558.25	2182.93
558.45	1976.49
558.65	2064.97
558.85	2136.85
559.05	1936.56
559.25	2095.89
559.45	2284.51
559.65	2747.76
559.85	3321.60
560.05	2820.26
560.26	2947.85
560.46	2986.55
560.66	2757.79
560.86	2500.57
561.06	2341.65
561.26	2517.98
561.46	2372.37
561.66	2173.71
561.86	2204.02
562.06	2036.91
562.26	2114.12
562.47	2054.11
562.67	1904.41
562.87	2116.78
563.07	1859.15
563.27	2041.42
563.47	2055.75
563.67	2024.62
563.87	2167.77
564.07	2141.56
564.27	2247.65
564.47	2356.19
564.67	2485.62
564.87	2372.37
565.08	2396.94
565.28	2237.82
565.48	2324.65
565.68	2240.89
565.88	2158.76
566.08	2305.40
566.28	2042.44
566.48	1864.88
566.68	1933.49
566.88	1915.26
567.08	2092.20
567.28	1976.70
567.48	2007.83
567.68	2129.07
567.88	1957.86
568.08	2189.48
568.28	2250.51
568.48	2147.50
568.68	2309.70
568.89	2108.59
569.09	1914.85
569.29	2165.93
569.49	2118.01
569.69	1897.24
569.89	1851.36
570.09	1750.40
570.29	1902.56
570.49	1790.33
570.69	1861.60
570.89	2053.50
571.09	2184.98
571.29	1785.21
571.49	2018.07
571.69	2009.47
571.89	1983.46
572.09	1872.25
572.29	1859.35
572.49	2004.35
572.69	2005.17
572.89	1989.60
573.09	1825.76
573.29	2174.12
573.49	2205.05
573.69	2223.48
573.89	2283.28
574.09	2060.67
574.29	2263.21
574.49	1959.29
574.69	1912.60
574.89	1855.05
575.09	1835.80
575.29	1851.16
575.49	1925.09
575.69	1968.10
575.89	1796.27
576.09	1948.64
576.29	1975.27
576.49	1868.98
576.69	2021.35
576.89	1971.17
577.09	2075.00
577.29	1855.46
577.49	2233.92
577.69	1914.85
577.89	2032.61
578.09	1978.13
578.29	1800.98
578.49	1946.18
578.69	1866.72
578.89	2073.16
579.09	1951.51
579.29	1863.04
579.49	2095.28
579.69	1938.81
579.89	2252.97
580.09	1797.71
580.29	1830.68
580.49	1884.95
580.69	1822.69
580.89	1875.12
581.09	1887.82
581.29	1873.69
581.49	1872.05
581.69	1799.96
581.89	1821.46
582.09	1837.64
582.28	1822.69
582.48	2070.50
582.68	2190.10
582.88	2262.80
583.08	2092.61
583.28	2089.54
583.48	2040.39
583.68	1930.82
583.88	2029.54
584.08	1968.10
584.28	1951.10
584.48	2195.63
584.68	2033.84
584.88	1892.94
585.08	2084.63
585.28	2112.48
585.48	2153.44
585.68	2089.95
585.87	2098.96
586.07	2090.16
586.27	1975.68
586.47	2027.49
586.67	1949.26
586.87	1952.12
587.07	1895.19
587.27	1870.00
587.47	2051.25
587.67	2381.99
587.87	2772.74
588.07	2679.77
588.27	2709.87
588.46	2970.37
588.66	2979.79
588.86	2637.99
589.06	2547.67
589.26	2469.65
589.46	2358.03
589.66	2098.35
589.86	1989.19
590.06	2083.81
590.26	2328.75
590.46	2289.83
590.66	2457.97
590.85	2412.71
591.05	2491.76
591.25	2184.98
591.45	2181.09
591.65	2285.94
591.85	2308.88
592.05	2302.74
592.25	2456.95
592.45	2586.58
592.64	2402.88
592.84	2338.17
593.04	2108.18
593.24	2550.54
593.44	2156.92
593.64	2241.91
593.84	2238.23
594.04	2166.55
594.24	2353.73
594.43	2015.20
594.63	2075.82
594.83	2166.14
595.03	2106.54
595.23	1912.19
595.43	1810.40
595.63	1913.42
595.83	2081.76
596.02	1751.83
596.22	1992.88
596.42	2073.77
596.62	2043.46
596.82	2004.35
597.02	2112.07
597.22	2159.99
597.41	2056.78
597.61	1950.69
597.81	2116.99
598.01	2189.07
598.21	2071.52
598.41	2076.03
598.61	2061.28
598.80	2117.60
599.00	2141.77
599.20	2219.38
599.40	2093.43
599.60	2102.85
599.80	2253.38
599.99	2206.69
600.19	2072.95
600.39	2125.18
600.59	2133.78
600.79	2133.57
600.99	2087.29
601.19	2281.03
601.38	2339.39
601.58	2134.39
601.78	1934.92
601.98	2475.79
602.18	3469.26
602.37	4278.00
602.57	4642.95
602.77	5228.67
602.97	5359.33
603.17	4977.59
603.37	4729.17
603.56	4730.40
603.76	4581.31
603.96	4408.05
604.16	4095.53
604.36	3768.47
604.56	3388.98
604.75	2944.77
604.95	2865.31
605.15	2894.39
605.35	2740.59
605.55	2491.76
605.74	2345.74
605.94	2496.47
606.14	2254.81
606.34	2183.75
606.54	2073.77
606.73	2022.78
606.93	2105.31
607.13	1929.19
607.33	2005.58
607.53	2166.96
607.72	2099.58
607.92	2026.26
608.12	2085.04
608.32	2021.14
608.51	2124.15
608.71	1962.16
608.91	2142.38
609.11	2247.44
609.31	2200.95
609.50	2394.49
609.70	2621.81
609.90	2607.47
610.10	2571.43
610.29	2448.14
610.49	2267.10
610.69	2380.35
610.89	2246.62
611.09	2209.55
611.28	2256.45
611.48	2214.06
611.68	2080.33
611.88	2022.98
612.07	1968.71
612.27	2191.33
612.47	2004.55
612.67	2037.93
612.86	2124.77
613.06	1984.69
613.26	1809.59
613.46	2003.73
613.65	2145.45
613.85	2557.91
614.05	2374.01
614.25	2331.61
614.44	2244.98
614.64	2246.01
614.84	2193.78
615.04	2138.69
615.23	2138.49
615.43	2278.37
615.63	2247.24
615.83	2066.40
616.02	2067.42
616.22	2451.01
616.42	2343.29
616.62	2417.83
616.81	2531.49
617.01	2563.44
617.21	2437.29
617.41	2219.38
617.60	2256.04
617.80	2259.11
618.00	2221.43
618.19	2126.82
618.39	2098.35
618.59	2073.16
618.79	1974.65
618.98	1782.76
619.18	1897.85
619.38	2197.47
619.57	1914.65
619.77	1902.56
619.97	1901.95
620.17	1963.80
620.36	2004.55
620.56	2324.85
620.76	2192.56
620.95	2272.63
621.15	2318.51
621.35	2205.25
621.54	2185.18
621.74	2183.54
621.94	2059.03
622.14	1975.06
622.33	1927.75
622.53	1984.89
622.73	1962.98
622.92	1816.34
623.12	1932.67
623.32	2201.77
623.51	2025.24
623.71	1783.17
623.91	2065.58
624.10	1848.50
624.30	1975.06
624.50	1845.83
624.69	1818.60
624.89	2425.61
625.09	1913.21
625.29	1741.39
625.48	1799.96
625.68	1921.20
625.88	2060.46
626.07	1931.85
626.27	1803.03
626.47	1838.46
626.66	1743.23
626.86	1885.56
627.06	1885.77
627.25	1930.82
627.45	2124.36
627.64	1869.18
627.84	2049.61
628.04	1838.87
628.23	2189.69
628.43	1807.95
628.63	1940.45
628.82	2028.51
629.02	2373.39
629.22	2231.88
629.41	2320.14
629.61	2208.12
629.81	2499.55
630.00	2187.64
630.20	2221.43
630.40	2372.98
630.59	2372.57
630.79	2194.19
630.98	2121.29
631.18	2097.12
631.38	2076.44
631.57	2144.63
631.77	1835.59
631.97	2018.27
632.16	2003.12
632.36	1926.52
632.56	1905.43
632.75	1931.64
632.95	2054.73
633.14	1776.82
633.34	2034.86
633.54	1704.93
633.73	1833.55
633.93	1828.84
634.12	1725.00
634.32	2236.79
634.52	1924.89
634.71	1771.70
634.91	1925.71
635.11	1776.82
635.30	1827.61
635.50	1951.30
635.69	1844.81
635.89	2235.36
636.09	2141.56
636.28	1919.77
636.48	1960.93
636.67	2130.91
636.87	2086.47
637.07	2057.80
637.26	1940.04
637.46	2109.00
637.65	2201.57
637.85	2129.07
638.04	2027.69
638.24	2090.98
638.44	2116.37
638.63	2016.02
638.83	1959.91
639.02	2051.25
639.22	2043.26
639.42	1944.96
639.61	1924.89
639.81	1950.69
640.00	1909.32
640.20	1987.55
640.39	2071.93
640.59	2594.78
640.79	2671.78
640.98	2782.58
641.18	2849.75
641.37	2899.51
641.57	2613.62
641.76	2532.31
641.96	2254.61
642.15	2380.35
642.35	2234.13
642.55	2235.97
642.74	2026.26
642.94	2208.73
643.13	2233.72
643.33	1962.98
643.52	1867.54
643.72	1877.37
643.91	1930.21
644.11	1856.89
644.31	1824.33
644.50	1838.26
644.70	2065.17
644.89	1883.93
645.09	1975.47
645.28	1913.62
645.48	1979.98
645.67	1834.37
645.87	1739.95
646.06	1920.99
646.26	1979.16
646.45	1735.65
646.65	1715.58
646.84	2155.28
647.04	1879.83
647.24	1820.64
647.43	1944.96
647.63	1969.94
647.82	2102.24
648.02	1782.96
648.21	1840.71
648.41	2076.03
648.60	1876.55
648.80	2032.20
648.99	1940.25
649.19	1862.63
649.38	1737.70
649.58	1925.09
649.77	1921.40
649.97	2063.94
650.16	1954.38
650.36	1696.54
650.55	2020.73
650.75	1957.24
650.94	2126.20
651.14	1900.31
651.33	1929.80
651.53	2112.89
651.72	1803.65
651.92	1877.78
652.11	1659.47
652.31	1974.24
652.50	1964.00
652.70	1961.75
652.89	1808.77
653.09	2144.02
653.28	1922.02
653.48	1760.64
653.67	1799.96
653.87	2353.12
654.06	1968.92
654.25	2077.66
654.45	1846.86
654.64	1878.81
654.84	1917.72
655.03	1706.98
655.23	2026.47
655.42	2021.35
655.62	2134.80
655.81	1931.23
656.01	1819.62
656.20	2048.79
656.40	2118.21
656.59	1920.18
656.79	2037.73
656.98	1931.44
657.17	2039.98
657.37	1923.45
657.56	1809.59
657.76	1961.34
657.95	2042.85
658.15	1585.13
658.34	1893.76
658.54	1908.91
658.73	1777.02
658.92	1867.54
659.12	1950.08
659.31	2039.37
659.51	1905.63
659.70	2068.24
659.90	2014.79
660.09	2197.06
660.29	2076.44
660.48	1949.46
660.67	2133.98
660.87	1914.03
661.06	2021.14
661.26	2056.37
661.45	2003.73
661.65	2015.00
661.84	1874.71
662.03	1863.45
662.23	1874.10
662.42	2157.74
662.62	1794.64
662.81	1779.07
663.00	1851.77
663.20	1922.02
663.39	1981.61
663.59	1976.49
663.78	1865.90
663.97	1869.59
664.17	2010.70
664.36	1743.03
664.56	1799.96
664.75	2029.74
664.94	2030.97
665.14	1971.17
665.33	1957.04
665.53	2016.23
665.72	2047.56
665.91	2143.20
666.11	2001.28
666.30	2046.54
666.50	1956.83
666.69	2000.46
666.88	1969.53
667.08	2048.17
667.27	1919.15
667.47	1967.07
667.66	1893.14
667.85	2046.74
668.05	1947.21
668.24	1856.48
668.43	2029.95
668.63	1886.38
668.82	2082.58
669.02	2012.95
669.21	1934.72
669.40	1834.78
669.60	2205.46
669.79	1786.24
669.98	2407.80
670.18	1863.04
670.37	1803.85
670.56	1877.58
670.76	1965.23
670.95	1962.57
671.15	2075.62
671.34	2030.97
671.53	1978.95
671.73	1959.29
671.92	1899.90
672.11	1817.57
672.31	1904.41
672.50	2005.17
672.69	1824.33
672.89	1690.19
673.08	1892.94
673.27	2013.77
673.47	1977.11
673.66	1960.93
673.85	1823.92
674.05	2127.23
674.24	2567.33
674.43	2744.28
674.63	3276.55
674.82	3672.21
675.01	3156.33
675.21	3243.57
675.40	2923.48
675.59	2854.05
675.79	2964.43
675.98	2617.92
676.17	2673.62
676.37	2574.09
676.56	2363.15
676.75	2284.92
676.95	2204.23
677.14	2055.96
677.33	2198.70
677.52	1884.75
677.72	1910.55
677.91	1996.77
678.10	1782.76
678.30	1796.27
678.49	1775.59
678.68	2203.61
678.88	1715.38
679.07	2038.75
679.26	1859.35
679.45	2146.68
679.65	2076.03
679.84	1706.78
680.03	1729.71
680.23	1859.35
680.42	2266.90
680.61	1800.37
680.81	1860.17
681.00	1933.08
681.19	2003.12
681.38	2022.98
681.58	2021.75
681.77	1916.28
681.96	2053.50
682.15	1910.14
682.35	1996.77
682.54	2042.85
682.73	1836.82
682.93	1859.35
683.12	1833.34
683.31	2016.23
683.50	2255.22
683.70	1828.02
683.89	1918.54
684.08	1829.04
684.27	2038.55
684.47	1796.48
684.66	1925.09
684.85	2200.34
685.04	2094.66
685.24	1837.23
685.43	1919.15
685.62	1739.95
685.81	2023.19
686.01	2242.53
686.20	2421.52
686.39	2546.44
686.58	3095.30
686.78	2952.35
686.97	2861.22
687.16	2715.20
687.35	2594.37
687.55	2488.69
687.74	2508.15
687.93	2374.21
688.12	2428.28
688.32	2386.09
688.51	2168.80
688.70	2287.99
688.89	2003.32
689.08	1905.63
689.28	1962.36
689.47	2032.20
689.66	1990.01
689.85	2055.75
690.05	1924.89
690.24	1870.41
690.43	1983.87
690.62	1953.76
690.81	1837.85
691.01	1944.96
691.20	1877.99
691.39	1830.27
691.58	1981.00
691.77	2169.82
691.97	1941.27
692.16	1965.64
692.35	1904.61
692.54	1922.63
692.73	2163.47
692.93	2182.52
693.12	2310.11
693.31	2377.28
693.50	2346.56
693.69	2310.31
693.89	2131.73
694.08	2341.44
694.27	2364.38
694.46	2044.08
694.65	2151.80
694.85	2251.33
695.04	2220.41
695.23	2213.65
695.42	2999.46
695.61	3627.98
695.80	4099.42
696.00	4533.18
696.19	4686.98
696.38	4122.56
696.57	3644.36
696.76	3536.84
696.95	3294.57
697.15	3289.86
697.34	3149.98
697.53	2777.86
697.72	2681.20
697.91	2481.32
698.10	2565.29
698.30	2212.22
698.49	2123.95
698.68	2141.36
698.87	2018.89
699.06	1852.39
699.25	1959.50
699.45	2088.72
699.64	1984.69
699.83	2032.81
700.02	1825.15
700.21	2005.78
700.40	1869.18
700.59	1900.11
700.79	1878.60
700.98	1961.95
701.17	1848.09
701.36	1833.75
701.55	1859.97
701.74	2187.03
701.93	2302.74
702.12	2748.37
702.32	2912.01
702.51	3321.60
702.70	3368.09
702.89	3056.59
703.08	2683.45
703.27	2901.36
703.46	2695.95
703.65	2542.55
703.85	2330.18
704.04	2338.58
704.23	2467.80
704.42	2151.39
704.61	2090.16
704.80	2286.97
704.99	1943.11
705.18	2027.90
705.37	2032.81
705.57	2624.47
705.76	3615.07
705.95	3893.80
706.14	4643.36
706.33	5005.24
706.52	5053.77
706.71	4078.94
706.90	3712.56
707.09	3618.35
707.28	3393.07
707.47	3102.67
707.67	3082.19
707.86	2796.30
708.05	2899.72
708.24	2537.23
708.43	2378.72
708.62	2143.20
708.81	2018.27
709.00	1885.77
709.19	1874.30
709.38	2098.55
709.57	1902.15
709.76	2080.53
709.96	2046.13
710.15	2308.06
710.34	2169.62
710.53	2195.22
710.72	2053.09
710.91	2227.78
711.10	2112.07
711.29	2110.23
711.48	1973.42
711.67	1924.68
711.86	2120.06
712.05	1945.16
712.24	1991.04
712.43	2120.67
712.62	2178.01
712.81	1999.64
713.00	2089.54
713.19	1829.86
713.39	2026.26
713.58	1859.56
713.77	2050.02
713.96	2157.94
714.15	2088.11
714.34	2042.64
714.53	1970.15
714.72	2318.51
714.91	2011.51
715.10	2118.21
715.29	2023.80
715.48	2550.75
715.67	2246.01
715.86	2108.59
716.05	2055.75
716.24	2007.62
716.43	1969.94
716.62	1882.49
716.81	1846.86
717.00	1966.46
717.19	2184.77
717.38	1977.72
717.57	1928.37
717.76	1775.38
717.95	2075.62
718.14	1933.90
718.33	1867.95
718.52	1744.87
718.71	1747.12
718.90	1773.54
719.09	1873.69
719.28	1929.80
719.47	2083.60
719.66	2145.04
719.85	2202.80
720.04	2200.75
720.23	2278.37
720.42	2177.40
720.61	2227.17
720.80	1975.47
720.99	2148.11
721.18	2032.61
721.37	1978.75
721.56	2017.45
721.75	2127.84
721.94	1921.40
722.13	1982.64
722.32	1944.75
722.51	2092.00
722.70	1930.42
722.89	1960.52
723.08	1911.16
723.27	2033.22
723.46	1921.20
723.65	1876.55
723.84	1870.41
724.03	2086.68
724.22	1762.69
724.41	1952.33
724.60	1874.71
724.79	2015.00
724.98	1932.05
725.16	1865.29
725.35	2006.39
725.54	1844.61
725.73	1979.57
725.92	1952.53
726.11	2095.28
726.30	2398.38
726.49	2315.64
726.68	2481.52
726.87	2640.45
727.06	2680.59
727.25	2298.44
727.44	2375.23
727.63	2323.63
727.82	2221.64
728.01	2244.78
728.20	2258.30
728.38	2363.77
728.57	2100.81
728.76	2067.63
728.95	2139.72
729.14	1848.70
729.33	1837.64
729.52	1712.51
729.71	1851.57
729.90	1844.20
730.09	1978.95
730.28	2038.14
730.47	2101.42
730.66	2394.89
730.84	2287.58
731.03	2268.13
731.22	2267.92
731.41	2218.15
731.60	2206.89
731.79	1932.05
731.98	1992.47
732.17	2157.54
732.36	2108.79
732.55	1929.19
732.73	1879.42
732.92	2137.67
733.11	2025.24
733.30	1870.00
733.49	1806.10
733.68	2042.03
733.87	2046.13
734.06	1938.40
734.25	2119.44
734.43	2352.71
734.62	2577.16
734.81	2602.56
735.00	2602.56
735.19	2514.29
735.38	2425.82
735.57	2190.92
735.76	2402.27
735.94	2540.30
736.13	3193.81
736.32	3362.97
736.51	3544.83
736.70	3956.68
736.89	4064.60
737.08	3904.04
737.27	4472.76
737.45	5720.39
737.64	6076.94
737.83	6783.08
738.02	7044.19
738.21	6730.65
738.40	5656.69
738.59	5143.27
738.77	4828.50
738.96	4458.43
739.15	4188.10
739.34	3937.63
739.53	3604.43
739.72	3447.55
739.90	3206.10
740.09	2724.82
740.28	2628.77
740.47	2519.21
740.66	2366.63
740.85	2102.65
741.03	2110.02
741.22	1967.69
741.41	2068.04
741.60	1945.37
741.79	2125.59
741.98	2269.35
742.16	2374.21
742.35	2217.95
742.54	2258.91
742.73	2618.53
742.92	2436.67
743.10	2339.39
743.29	2351.48
743.48	2659.70
743.67	2222.46
743.86	2064.76
744.05	2093.23
744.23	2064.15
744.42	2032.20
744.61	2078.48
744.80	1969.53
744.99	1983.66
745.17	1844.81
745.36	1813.68
745.55	1997.18
745.74	1947.41
745.93	1892.73
746.11	1851.98
746.30	1787.88
746.49	2051.04
746.68	1829.66
746.86	1910.35
747.05	1890.68
747.24	2034.04
747.43	2117.19
747.62	1883.52
747.80	2012.95
747.99	2259.32
748.18	2189.28
748.37	2112.68
748.56	2101.22
748.74	2206.07
748.93	2099.58
749.12	2449.99
749.31	3397.99
749.49	4153.28
749.68	4675.51
749.87	5170.92
750.06	5316.73
750.24	5464.19
750.43	6020.00
750.62	6686.41
750.81	7183.05
750.99	7649.98
751.18	7514.20
751.37	6430.01
751.56	5524.81
751.74	5623.72
751.93	5307.72
752.12	4420.34
752.31	4051.09
752.49	3739.59
752.68	3672.83
752.87	3208.76
753.06	2906.68
753.24	2712.33
753.43	2655.19
753.62	2266.69
753.81	2167.98
753.99	2327.31
754.18	2122.92
754.37	1916.49
754.55	2025.44
754.74	2197.68
754.93	1793.20
755.12	1930.01
755.30	1882.49
755.49	2065.38
755.68	1967.28
755.86	1974.65
756.05	1811.02
756.24	2128.86
756.43	1781.32
756.61	1824.33
756.80	1963.18
756.99	2092.61
757.17	1932.46
757.36	1813.68
757.55	1925.30
757.74	2010.49
757.92	1961.54
758.11	1785.21
758.30	1730.53
758.48	1911.98
758.67	1789.92
758.86	1933.69
759.04	1811.02
759.23	1921.40
759.42	1951.92
759.60	1859.56
759.79	1912.60
759.98	1860.37
760.16	1793.82
760.35	1826.99
760.54	1789.11
760.73	1929.19
760.91	1771.49
761.10	1954.17
761.29	1966.66
761.47	1934.10
761.66	2240.07
761.85	1993.29
762.03	2207.30
762.22	3241.32
762.41	6532.61
762.59	10243.53
762.78	12275.52
762.97	14795.14
763.15	15762.19
763.34	14302.60
763.52	10744.26
763.71	10043.85
763.90	9334.23
764.08	8626.04
764.27	8012.88
764.46	7492.49
764.64	6607.98
764.83	5988.06
765.02	5417.29
765.20	4789.79
765.39	4125.02
765.58	3205.28
765.76	2897.26
765.95	2607.88
766.13	2378.72
766.32	2206.69
766.51	2127.84
766.69	2635.53
766.88	2076.44
767.07	1894.58
767.25	1803.24
767.44	2095.69
767.62	2137.26
767.81	1876.35
768.00	1956.01
768.18	1993.70
768.37	1944.55
768.56	1825.76
768.74	1911.98
768.93	1832.32
769.11	2015.61
769.30	1980.80
769.49	1863.24
769.67	1930.82
769.86	1918.33
770.04	1911.57
770.23	1890.28
770.42	2105.11
770.60	1934.10
770.79	1816.34
770.97	1915.26
771.16	2548.29
771.35	3503.87
771.53	4453.31
771.72	5024.49
771.90	5790.63
772.09	6192.24
772.27	5519.89
772.46	4370.98
772.65	4468.67
772.83	4129.52
773.02	3950.74
773.20	3596.64
773.39	3592.14
773.58	3370.75
773.76	2954.81
773.95	2874.12
774.13	2761.28
774.32	2523.92
774.50	2226.14
774.69	2190.92
774.87	2028.31
775.06	2294.95
775.25	1872.87
775.43	1927.96
775.62	1977.93
775.80	1992.88
775.99	1958.06
776.17	1867.34
776.36	1945.37
776.54	2091.59
776.73	1881.47
776.92	1990.22
777.10	2128.04
777.29	2032.81
777.47	1839.90
777.66	1877.17
777.84	1962.16
778.03	1947.41
778.21	1816.96
778.40	1935.33
778.58	1993.49
778.77	2083.19
778.95	1784.40
779.14	1849.32
779.32	2145.45
779.51	2049.40
779.70	1904.61
779.88	1791.56
780.07	1872.46
780.25	2227.17
780.44	1868.16
780.62	1996.56
780.81	1999.02
780.99	1974.04
781.18	1844.20
781.36	1861.19
781.55	1891.71
781.73	2116.58
781.92	1772.11
782.10	1776.20
782.29	1969.12
782.47	2104.49
782.66	1911.16
782.84	1787.06
783.03	1823.92
783.21	2098.76
783.40	1868.36
783.58	1841.94
783.77	1843.79
783.95	1868.98
784.14	1803.24
784.32	1910.96
784.51	2079.30
784.69	1894.99
784.88	1796.68
785.06	1934.31
785.24	1854.85
785.43	2087.08
785.61	2014.79
785.80	1879.01
785.98	2055.14
786.17	1973.01
786.35	1865.09
786.54	1993.49
786.72	2066.20
786.91	2083.81
787.09	1920.99
787.28	1805.08
787.46	1953.15
787.65	2045.92
787.83	1813.89
788.01	1963.80
788.20	1870.00
788.38	2017.86
788.57	1987.96
788.75	2030.36
788.94	2278.57
789.12	2181.70
789.31	2010.90
789.49	2072.75
789.67	1958.27
789.86	2034.04
790.04	1876.55
790.23	1815.32
790.41	2306.83
790.60	1998.00
790.78	1986.32
790.96	1973.42
791.15	2068.04
791.33	1970.56
791.52	1936.97
791.70	1845.22
791.89	1970.35
792.07	2061.69
792.25	1926.52
792.44	1818.19
792.62	2076.44
792.81	1900.72
792.99	1928.57
793.17	1850.34
793.36	1908.91
793.54	2415.78
793.73	2977.13
793.91	3756.79
794.10	4408.46
794.28	4956.70
794.46	5040.67
794.65	4870.68
794.83	4017.71
795.01	3840.15
795.20	3858.58
795.38	3514.93
795.57	3434.24
795.75	3324.47
795.93	3073.39
796.12	2924.91
796.30	2863.27
796.49	2734.65
796.67	2417.22
796.85	2460.84
797.04	2281.23
797.22	2250.51
797.40	1943.11
797.59	2062.71
797.77	2024.42
797.96	1892.12
798.14	1907.68
798.32	1902.36
798.51	2051.04
798.69	2213.65
798.87	1941.88
799.06	1935.74
799.24	1814.91
799.42	2321.17
799.61	2701.48
799.79	3072.16
799.98	3633.71
800.16	3783.83
800.34	4654.21
800.53	5693.76
800.71	6115.64
800.89	7057.71
801.08	7227.28
801.26	7204.75
801.44	6183.84
801.63	5140.61
801.81	5031.45
801.99	4682.27
802.18	4401.70
802.36	4253.43
802.54	3986.37
802.73	3484.62
802.91	3326.31
803.09	3101.65
803.28	2952.15
803.46	2753.70
803.64	2730.97
803.83	2214.67
804.01	2106.13
804.19	2013.77
804.38	2222.87
804.56	2140.13
804.74	2040.60
804.92	2065.17
805.11	1931.44
805.29	2174.74
805.47	1965.03
805.66	1868.36
805.84	1880.44
806.02	2136.44
806.21	1924.48
806.39	2065.38
806.57	2120.26
806.76	2078.69
806.94	2012.13
807.12	1931.23
807.30	1951.10
807.49	2087.90
807.67	2056.78
807.85	2147.91
808.04	2161.22
808.22	2335.30
808.40	1885.97
808.58	1862.01
808.77	2066.81
808.95	2263.42
809.13	2500.37
809.31	4139.76
809.50	5684.34
809.68	6648.12
809.86	7378.63
810.05	7991.17
810.23	8705.30
810.41	10969.74
810.59	17201.50
810.78	20935.36
810.96	24069.16
811.14	26024.56
811.32	25425.53
811.51	20699.84
811.69	16615.99
811.87	16459.12
812.05	14488.35
812.24	13538.10
812.42	12521.08
812.60	11268.33
812.78	9563.19
812.97	8198.02
813.15	7497.41
813.33	6520.53
813.51	5653.42
813.70	4601.58
813.88	3847.52
814.06	3328.77
814.24	2836.85
814.42	2358.85
814.61	2335.50
814.79	2403.09
814.97	1929.60
815.15	1985.30
815.34	2023.80
815.52	2102.65
815.70	1847.06
815.88	1901.13
816.06	1844.81
816.25	1887.20
816.43	1832.52
816.61	2019.09
816.79	2141.15
816.98	1822.08
817.16	1936.35
817.34	1886.59
817.52	2043.46
817.70	2220.00
817.89	1917.51
818.07	1836.82
818.25	1956.01
818.43	1966.87
818.61	1928.16
818.80	1863.24
818.98	2137.06
819.16	1967.07
819.34	1799.96
819.52	2100.19
819.70	1830.88
819.89	1930.62
820.07	1788.29
820.25	1733.40
820.43	1928.78
820.61	2053.29
820.80	1900.11
820.98	1825.15
821.16	1743.23
821.34	1774.56
821.52	1841.33
821.70	1914.44
821.89	1913.83
822.07	1867.34
822.25	1840.51
822.43	1797.71
822.61	2112.27
822.79	1941.47
822.98	1859.97
823.16	1703.91
823.34	1949.67
823.52	2073.57
823.70	1957.24
823.88	1736.68
824.06	1966.46
824.25	1887.82
824.43	2010.29
824.61	1822.90
824.79	1982.64
824.97	2041.21
825.15	2194.81
825.33	2608.70
825.52	3205.28
825.70	3487.90
825.88	3734.88
826.06	4035.32
826.24	4100.24
826.42	3766.42
826.60	3247.67
826.78	3265.08
826.97	3016.04
827.15	3108.61
827.33	2726.05
827.51	2793.43
827.69	2560.58
827.87	2531.90
828.05	2456.54
828.23	2183.13
828.41	2372.98
828.60	2312.57
828.78	1954.58
828.96	2067.22
829.14	1951.92
829.32	1962.36
829.50	1905.02
829.68	1867.13
829.86	1880.04
830.04	2005.37
830.22	1960.52
830.41	1797.30
830.59	1901.13
830.77	2015.61
830.95	1821.46
831.13	1828.22
831.31	1816.96
831.49	2020.94
831.67	2039.16
831.85	1965.03
832.03	1903.18
832.21	1980.18
832.39	1788.49
832.57	1804.67
832.76	2018.89
832.94	1926.93
833.12	1740.77
833.30	1923.04
833.48	2072.34
833.66	1965.85
833.84	1829.66
834.02	1890.68
834.20	2027.69
834.38	2031.79
834.56	1727.46
834.74	1768.83
834.92	1738.93
835.10	2141.36
835.28	1925.91
835.46	1913.21
835.64	1894.37
835.82	1826.17
836.01	2080.53
836.19	1994.93
836.37	1850.34
836.55	1811.22
836.73	1792.38
836.91	1761.87
837.09	1993.70
837.27	2111.05
837.45	1751.22
837.63	1804.47
837.81	1797.91
837.99	1962.98
838.17	1922.02
838.35	1902.56
838.53	2322.19
838.71	2142.38
838.89	1979.98
839.07	1979.57
839.25	2061.49
839.43	2191.53
839.61	2323.01
839.79	3477.86
839.97	4667.73
840.15	5323.90
840.33	5889.14
840.51	6338.46
840.69	6100.28
840.87	5151.46
841.05	4692.92
841.23	4866.38
841.41	6006.28
841.59	8222.18
841.77	9213.20
841.95	9887.18
842.13	10662.75
842.31	10127.41
842.49	8247.58
842.67	7093.96
842.85	6969.03
843.03	6070.59
843.21	5808.24
843.39	5476.88
843.57	4932.12
843.75	4523.55
843.93	4000.30
844.11	3633.30
844.29	3422.36
844.47	3149.57
844.65	3102.06
844.83	2700.86
845.01	2538.46
845.19	2488.49
845.36	2167.98
845.54	2131.12
845.72	2062.30
845.90	2093.43
846.08	1822.08
846.26	1918.95
846.44	2012.74
846.62	1983.25
846.80	1913.83
846.98	1818.39
847.16	1860.17
847.34	1935.94
847.52	1761.25
847.70	1776.41
847.88	1868.57
848.06	2095.48
848.24	1929.60
848.41	1717.02
848.59	2019.50
848.77	1955.81
848.95	1853.21
849.13	1814.09
849.31	1986.12
849.49	1964.62
849.67	1794.84
849.85	1740.16
850.03	1933.28
850.21	1917.51
850.39	1804.67
850.57	1949.26
850.74	2101.22
850.92	2144.43
851.10	2291.47
851.28	2700.25
851.46	3058.64
851.64	3535.61
851.82	3357.24
852.00	3402.50
852.18	3262.82
852.36	2953.17
852.53	2730.56
852.71	2714.38
852.89	2652.53
853.07	2605.43
853.25	2356.60
853.43	2233.72
853.61	2313.18
853.79	2258.50
853.97	2044.90
854.14	2034.45
854.32	2253.38
854.50	2162.25
854.68	1958.68
854.86	1941.68
855.04	1878.19
855.22	2016.02
855.40	1768.22
855.57	1824.94
855.75	1983.87
855.93	1982.02
856.11	1708.62
856.29	1768.42
856.47	1826.38
856.65	1941.27
856.82	1790.54
857.00	1744.25
857.18	1902.77
857.36	1830.06
857.54	1882.49
857.72	1965.85
857.89	1976.49
858.07	1887.82
858.25	1986.12
858.43	1744.46
858.61	1868.16
858.79	1898.67
858.97	1787.88
859.14	1911.78
859.32	1887.00
859.50	1825.76
859.68	1920.38
859.86	1847.47
860.03	1944.55
860.21	2036.70
860.39	1885.97
860.57	2000.87
860.75	2001.28
860.93	2163.68
861.10	2043.67
861.28	1878.60
861.46	2025.24
861.64	2030.36
861.82	1899.70
861.99	1983.25
862.17	2074.18
862.35	2034.04
862.53	1896.42
862.71	1891.30
862.88	1956.01
863.06	1990.01
863.24	1878.81
863.42	1816.75
863.60	1874.71
863.77	1951.51
863.95	1684.86
864.13	1874.92
864.31	1844.20
864.49	1986.53
864.66	1733.20
864.84	1812.25
865.02	1897.85
865.20	2235.56
865.37	1874.92
865.55	1789.52
865.73	1772.31
865.91	2115.96
866.09	2102.65
866.26	2093.43
866.44	2236.59
866.62	2137.67
866.80	1984.48
866.97	2073.98
867.15	2037.32
867.33	2047.97
867.51	2072.95
867.68	1975.68
867.86	1980.18
868.04	1921.61
868.22	1769.85
868.39	1873.28
868.57	1962.77
868.75	2122.11
868.93	1765.14
869.10	1813.68
869.28	2155.49
869.46	2099.17
869.64	1847.68
869.81	1836.62
869.99	1929.19
870.17	1892.73
870.35	1783.78
870.52	1809.79
870.70	2025.85
870.88	1818.60
871.05	1746.10
871.23	1641.86
871.41	1873.48
871.59	1886.59
871.76	1847.06
871.94	1808.15
872.12	1853.21
872.29	1706.98
872.47	1795.45
872.65	1763.71
872.83	1932.46
873.00	2058.41
873.18	1834.78
873.36	1806.92
873.53	1995.13
873.71	1738.52
873.89	1796.89
874.06	1855.66
874.24	1927.75
874.42	2045.92
874.60	1960.11
874.77	1890.07
874.95	1808.77
875.13	1992.88
875.30	1805.90
875.48	1837.64
875.66	2124.97
875.83	1856.69
876.01	1899.29
876.19	2006.60
876.36	1796.27
876.54	1923.25
876.72	1759.41
876.89	1934.31
877.07	1986.12
877.25	1695.92
877.42	1883.11
877.60	1837.23
877.78	2119.03
877.95	1838.67
878.13	1781.53
878.31	1928.78
878.48	2001.07
878.66	1982.43
878.84	1805.69
879.01	1858.12
879.19	1950.28
879.37	1988.37
879.54	1833.14
879.72	1728.69
879.90	1680.15
880.07	1966.87
880.25	1591.48
880.42	1944.34
880.60	1922.84
880.78	2010.08
880.95	1809.99
881.13	1846.45
881.31	1882.29
881.48	1807.74
881.66	1778.87
881.83	1901.33
882.01	1796.48
882.19	1721.11
882.36	1881.67
882.54	1811.84
882.72	1968.92
882.89	1888.23
883.07	1733.20
883.24	1811.43
883.42	1992.26
883.60	1878.60
883.77	1781.53
883.95	1831.91
884.12	2043.46
884.30	1996.16
884.48	2051.86
884.65	1988.58
884.83	2019.91
885.00	2015.41
885.18	1819.42
885.36	1858.33
885.53	2009.06
885.71	2065.79
885.88	1756.95
886.06	1851.77
886.23	1994.93
886.41	1857.92
886.59	1798.73
886.76	1809.79
886.94	1981.20
887.11	2269.76
887.29	1870.41
887.47	1708.62
887.64	2028.10
887.82	2065.99
887.99	1695.31
888.17	1852.39
888.34	1834.78
888.52	1736.88
888.69	1838.05
888.87	1755.31
889.05	1842.15
889.22	1842.97
889.40	1790.74
889.57	1978.34
889.75	2031.99
889.92	1843.99
890.10	1764.12
890.27	1840.30
890.45	1776.00
890.62	1662.75
890.80	1745.07
890.98	1698.99
891.15	2053.50
891.33	1984.89
891.50	1770.06
891.68	1704.93
891.85	1955.20
892.03	1962.57
892.20	1801.80
892.38	1723.78
892.55	1971.37
892.73	1942.29
892.90	1725.00
893.08	1807.13
893.25	1799.14
893.43	1835.59
893.60	1920.59
893.78	1652.71
893.95	1929.80
894.13	1873.48
894.30	1752.65
894.48	1838.46
894.65	1969.94
894.83	1881.67
895.00	1660.08
895.18	1678.92
895.35	1995.13
895.53	1969.94
895.70	1741.39
895.88	1937.79
896.05	1969.33
896.23	1729.71
896.40	1806.51
896.58	1890.89
896.75	2019.09
896.93	2072.13
897.10	1797.71
897.28	1718.66
897.45	1903.79
897.63	1959.09
897.80	1948.64
897.98	1833.75
898.15	1910.55
898.33	1800.78
898.50	1893.35
898.67	1819.01
898.85	1825.56
899.02	1949.67
899.20	1991.44
899.37	1863.24
899.55	1897.24
899.72	2075.00
899.90	1786.24
900.07	1781.53
900.25	1911.98
900.42	2009.06
900.59	1780.91
900.77	1878.60
900.94	1930.21
901.12	1945.57
901.29	1788.49
901.47	1904.41
901.64	1940.66
901.82	1886.38
901.99	1595.98
902.16	1768.63
902.34	2039.78
902.51	1918.54
902.69	1798.94
902.86	1852.59
903.03	2327.72
903.21	1860.99
903.38	1851.16
903.56	1772.31
903.73	2014.79
903.91	1831.70
904.08	1725.82
904.25	1667.66
904.43	1791.77
904.60	1972.60
904.78	1805.28
904.95	1774.56
905.12	1856.28
905.30	2124.15
905.47	1917.31
905.65	1971.58
905.82	1905.43
905.99	2012.95
906.17	1912.60
906.34	1855.66
906.52	1916.90
906.69	2092.82
906.86	2017.45
907.04	1976.70
907.21	2119.03
907.38	2098.55
907.56	1849.73
907.73	1844.61
907.91	2119.03
908.08	2060.26
908.25	1794.23
908.43	1788.70
908.60	1985.10
908.77	1944.55
908.95	1831.50
909.12	1740.16
909.30	2005.58
909.47	1731.35
909.64	1843.79
909.82	1956.01
909.99	1860.78
910.16	1919.15
910.34	1803.03
910.51	1806.31
910.68	1923.86
910.86	1880.65
911.03	1787.06
911.20	2060.67
911.38	2887.23
911.55	4062.56
911.72	4566.36
911.90	4779.96
912.07	5258.98
912.24	5244.03
912.42	4152.05
912.59	3315.25
912.76	3278.59
912.94	2891.32
913.11	2648.84
913.28	2465.34
913.46	2336.12
913.63	2433.60
913.80	2571.43
913.98	2239.66
914.15	2389.98
914.32	2362.54
914.49	2227.99
914.67	2058.21
914.84	2198.49
915.01	2230.85
915.19	2127.23
915.36	1983.66
915.53	2156.31
915.71	2061.49
915.88	1974.65
916.05	1825.97
916.22	2033.22
916.40	1937.79
916.57	1778.87
916.74	1892.73
916.92	2054.52
917.09	1804.67
917.26	1781.53
917.43	1735.24
917.61	1854.23
917.78	1707.60
917.95	1668.89
918.13	1748.35
918.30	2183.13
918.47	1904.41
918.64	1801.80
918.82	1820.44
918.99	1960.93
919.16	2228.80
919.33	1990.83
919.51	1920.99
919.68	2007.21
919.85	2127.43
920.02	1798.32
920.20	1871.02
920.37	2132.35
920.54	2031.99
920.71	1780.71
920.89	1834.98
921.06	2131.32
921.23	1819.42
921.40	1829.25
921.58	2165.93
921.75	2784.83
921.92	2428.69
922.09	2552.79
922.27	2509.58
922.44	2501.39
922.61	2366.43
922.78	2111.46
922.96	2040.19
923.13	2023.80
923.30	2157.54
923.47	1854.23
923.64	1883.11
923.82	2035.27
923.99	2020.12
924.16	1943.73
924.33	1809.18
924.50	1938.81
924.68	2142.99
924.85	1804.06
925.02	1864.06
925.19	2043.46
925.36	1969.33
925.54	1898.67
925.71	1877.37
925.88	2307.65
926.05	1876.96
926.22	1797.30
926.40	1859.56
926.57	1921.61
926.74	1956.63
926.91	1762.07
927.08	1978.75
927.26	2003.12
927.43	1900.92
927.60	1788.70
927.77	1818.80
927.94	2087.29
928.11	2016.43
928.29	1739.34
928.46	1872.87
928.63	1810.61
928.80	1880.24
928.97	1916.08
929.14	1782.76
929.32	2179.24
929.49	1900.92
929.66	1776.00
929.83	1694.28
930.00	1846.86
930.17	1949.05
930.35	1706.16
930.52	1782.14
930.69	2090.16
930.86	1751.83
931.03	1874.30
931.20	1635.51
931.37	2013.77
931.55	1863.86
931.72	1860.17
931.89	1690.60
932.06	1768.01
932.23	2079.71
932.40	1891.50
932.57	1878.60
932.74	2038.14
932.92	2011.31
933.09	1925.50
933.26	1583.28
933.43	1823.72
933.60	1940.04
933.77	1836.41
933.94	1882.49
934.11	1869.80
934.29	1883.11
934.46	1736.27
934.63	1899.49
934.80	1744.46
934.97	1905.63
935.14	1853.62
935.31	1735.45
935.48	1814.91
935.65	1933.69
935.82	1866.31
936.00	1734.22
936.17	2067.63
936.34	1878.40
936.51	1894.58
936.68	1725.21
936.85	1926.52
937.02	1910.55
937.19	1908.09
937.36	1852.39
937.53	1939.22
937.70	1992.06
937.87	1816.14
938.05	1927.96
938.22	1897.03
938.39	1762.69
938.56	1814.71
938.73	1755.72
938.90	1864.88
939.07	1807.74
939.24	1834.78
939.41	1668.89
939.58	1932.87
939.75	1946.59
939.92	1783.99
940.09	1962.77
940.26	1861.81
940.43	2000.87
940.60	1771.70
940.77	1784.19
940.95	1926.52
941.12	1985.30
941.29	1805.69
941.46	1854.44
941.63	2019.50
941.80	2067.01
941.97	1708.01
942.14	1704.32
942.31	1953.15
942.48	1869.80
942.65	1886.38
942.82	1808.97
942.99	1955.40
943.16	1882.49
943.33	1724.80
943.50	1785.42
943.67	1965.03
943.84	2021.55
944.01	1807.74
944.18	1743.64
944.35	2039.98
944.52	1751.63
944.69	1838.46
944.86	1692.44
945.03	1992.67
945.20	2210.99
945.37	1688.35
945.54	1867.95
945.71	2065.58
945.88	2118.01
946.05	1777.64
946.22	1733.40
946.39	2067.22
946.56	1872.25
946.73	1728.28
946.90	1765.14
947.07	1840.92
947.24	1872.46
947.41	1668.68
947.58	1934.31
947.75	1967.69
947.92	1932.87
948.09	1604.79
948.26	1682.00
948.43	1932.26
948.60	2105.93
948.77	1742.41
948.94	1804.47
949.11	1956.42
949.27	1951.51
949.44	1750.60
949.61	1752.65
949.78	1927.14
949.95	2015.00
950.12	1698.99
950.29	1681.59
950.46	1823.92
950.63	2020.12
950.80	1777.84
950.97	1803.03
951.14	2038.75
951.31	1831.91
951.48	1755.72
951.65	1711.49
951.82	2112.89
951.99	1910.96
952.15	1685.27
952.32	1795.66
952.49	1819.42
952.66	1791.36
952.83	1725.21
953.00	1755.31
953.17	1873.89
953.34	1978.13
953.51	1837.23
953.68	1796.89
953.85	2050.43
954.02	1991.24
954.18	1806.51
954.35	1846.65
954.52	1778.25
954.69	1913.01
954.86	1679.33
955.03	1800.37
955.20	1970.56
955.37	1868.16
955.54	1772.93
955.71	1769.04
955.87	1908.71
956.04	2112.27
956.21	1787.06
956.38	1730.12
956.55	1897.03
956.72	2195.01
956.89	1824.13
957.06	1760.43
957.23	1801.39
957.39	2020.12
957.56	1772.72
957.73	1712.51
957.90	1648.82
958.07	2129.48
958.24	1838.67
958.41	1782.55
958.57	1996.77
958.74	1894.99
958.91	1715.79
959.08	1749.58
959.25	1967.07
959.42	1849.11
959.59	1838.87
959.75	1788.49
959.92	2038.34
960.09	2021.14
960.26	1732.17
960.43	1854.23
960.60	1897.44
960.76	1847.47
960.93	1688.76
961.10	1834.37
961.27	1991.24
961.44	1823.31
961.61	1713.54
961.77	1734.22
961.94	1896.83
962.11	1976.90
962.28	1779.68
962.45	1700.84
962.62	1875.12
962.78	1994.93
962.95	1696.74
963.12	1759.61
963.29	1958.68
963.46	2217.75
963.62	1853.21
963.79	1794.02
963.96	2203.61
964.13	1855.87
964.30	1875.94
964.46	1806.51
964.63	1784.19
964.80	2239.04
964.97	1731.35
965.14	1963.80
965.30	2102.04
965.47	2179.45
965.64	2096.10
965.81	2052.88
965.98	2241.91
966.14	2029.33
966.31	1884.34
966.48	1868.16
966.65	2096.71
966.81	2008.03
966.98	1874.51
967.15	1895.19
967.32	1928.98
967.49	1842.15
967.65	1692.44
967.82	1680.77
967.99	1909.12
968.16	1722.75
968.32	1955.81
968.49	1799.14
968.66	1892.73
968.83	2108.79
968.99	1857.71
969.16	1751.01
969.33	2081.35
969.50	1942.91
969.66	1895.40
969.83	2002.91
970.00	1973.42
970.17	1959.70
970.33	1790.95
970.50	1715.38
970.67	2064.56
970.84	2053.09
971.00	1709.03
971.17	1716.61
971.34	1973.42
971.50	1856.07
971.67	1885.16
971.84	1806.92
972.01	1746.51
972.17	1643.90
972.34	1714.35
972.51	1858.33
972.67	1998.00
972.84	1941.88
973.01	1720.70
973.18	1763.92
973.34	1977.72
973.51	1762.69
973.68	1780.09
973.84	1801.80
974.01	1835.18
974.18	2114.53
974.34	1834.78
974.51	1879.63
974.68	1796.68
974.85	2116.17
975.01	1916.08
975.18	1821.87
975.35	1872.87
975.51	1761.25
975.68	1674.21
975.85	1927.75
976.01	1822.49
976.18	2038.96
976.35	1787.06
976.51	1753.27
976.68	2075.00
976.85	2044.69
977.01	1821.26
977.18	1840.71
977.35	1956.22
977.51	1756.13
977.68	1626.50
977.85	1702.07
978.01	2029.95
978.18	2000.46
978.35	1831.09
978.51	1824.74
978.68	2022.98
978.85	2078.48
979.01	1785.62
979.18	1835.59
979.34	1854.85
979.51	1920.38
979.68	1731.35
979.84	1814.91
980.01	2210.17
980.18	1884.75
980.34	1769.24
980.51	1847.88
980.67	1959.91
980.84	2010.90
981.01	1790.95
981.17	1885.97
981.34	1675.44
981.51	1984.28
981.67	1731.56
981.84	1885.36
982.00	1974.04
982.17	1863.45
982.34	1670.53
982.50	1594.55
982.67	2066.20
982.83	1815.11
983.00	1705.96
983.17	1618.71
983.33	2007.83
983.50	1704.73
983.66	1706.98
983.83	1608.27
984.00	1824.13
984.16	1864.27
984.33	1623.42
984.49	1586.15
984.66	1769.65
984.83	1978.54
984.99	1663.77
985.16	1592.09
985.32	1957.04
985.49	1990.83
985.65	1752.86
985.82	1613.59
985.99	2061.89
986.15	1893.76
986.32	1704.11
986.48	1685.48
986.65	1836.62
986.81	1960.73
986.98	1631.21
987.14	1700.84
987.31	1871.23
987.48	1711.49
987.64	1538.02
987.81	1597.62
987.97	2128.04
988.14	1784.60
988.30	1626.70
988.47	1516.93
988.63	1913.42
988.80	1752.45
988.96	1701.04
989.13	1706.37
989.30	1840.71
989.46	2011.72
989.63	1587.59
989.79	1605.40
989.96	1839.90
990.12	2049.40
990.29	1646.98
990.45	1671.35
990.62	1886.18
990.78	2017.04
990.95	1739.14
991.11	1667.66
991.28	1804.26
991.44	1911.57
991.61	1531.88
991.77	1703.91
991.94	1890.89
992.10	2000.46
992.27	1705.14
992.43	1682.61
992.60	1912.60
992.76	1827.61
992.93	1800.37
993.09	1610.73
993.26	1983.05
993.42	2110.43
993.59	1659.47
993.75	1587.59
993.92	1773.54
994.08	1790.33
994.25	1712.92
994.41	1608.47
994.58	1919.15
994.74	2053.29
994.91	1609.09
995.07	1702.89
995.24	1838.26
995.40	1852.18
995.56	1785.83
995.73	1720.91
995.89	2063.12
996.06	1857.92
996.22	1625.68
996.39	1564.85
996.55	1868.36
996.72	1906.04
996.88	1565.67
997.05	1634.89
997.21	2138.69
997.37	1933.90
997.54	1714.97
997.70	1671.55
997.87	1922.02
998.03	1890.28
998.20	1552.77
998.36	1593.52
998.52	1961.34
998.69	1986.32
998.85	1568.95
999.02	1673.19
999.18	1965.44
999.35	1975.88
999.51	1687.53
999.67	1674.83
999.84	1738.93
1000.00	1967.07
1000.17	1746.10
1000.33	1584.92
1000.49	1808.36
1000.66	1859.35
1000.82	1626.50
1000.99	1705.14
1001.15	2003.53
1001.31	1837.23
1001.48	1660.49
1001.64	1732.17
1001.81	1860.17
1001.97	2137.26
1002.13	1643.70
1002.30	1661.52
1002.46	2022.16
1002.63	1842.56
1002.79	1744.66
1002.95	1624.65
1003.12	2016.23
1003.28	1939.02
1003.45	1633.66
1003.61	1586.77
1003.77	1894.78
1003.94	1726.85
1004.10	1666.64
1004.26	1718.86
1004.43	1943.32
1004.59	2085.24
1004.75	1652.71
1004.92	1598.03
1005.08	1810.20
1005.25	1933.90
1005.41	1655.58
1005.57	1733.61
1005.74	2032.61
1005.90	1860.58
1006.06	1751.22
1006.23	1661.31
1006.39	1943.52
1006.55	2226.96
1006.72	1793.20
1006.88	1625.06
1007.04	1777.23
1007.21	1857.30
1007.37	1673.40
1007.53	1639.60
1007.70	2057.80
1007.86	1957.65
1008.02	1705.96
1008.19	1606.22
1008.35	1889.66
1008.51	1782.14
1008.68	1670.94
1008.84	1580.62
1009.00	1763.71
1009.17	2027.28
1009.33	1772.52
1009.49	1719.27
1009.65	1800.16
1009.82	1934.31
1009.98	1723.16
1010.14	1552.97
1010.31	1951.30
1010.47	1952.94
1010.63	1741.39
1010.80	1700.22
1010.96	1939.84
1011.12	1853.41
1011.28	1677.49
1011.45	1645.13
1011.61	2234.95
1011.77	1733.61
1011.94	1625.06
1012.10	1574.07
1012.26	1776.00
1012.42	1808.56
1012.59	1693.06
1012.75	1714.35
1012.91	1875.94
1013.07	1987.35
1013.24	1607.66
1013.40	1620.15
1013.56	1891.30
1013.72	1874.92
1013.89	1727.26
1014.05	1708.83
1014.21	2126.41
1014.37	2188.46
1014.54	1710.87
1014.70	1620.56
1014.86	1837.85
1015.02	1748.15
1015.19	1665.41
1015.35	1586.77
1015.51	1837.64
1015.67	1810.20
1015.84	1639.81
1016.00	1666.23
1016.16	1988.99
1016.32	1975.47
1016.49	1668.28
1016.65	1619.74
1016.81	1871.43
1016.97	1929.80
1017.14	1744.66
1017.30	1658.24
1017.46	1799.35
1017.62	1930.62
1017.78	1728.69
1017.95	1613.80
1018.11	1965.23
1018.27	2162.04
1018.43	1781.32
1018.59	1708.62
1018.76	1953.15
1018.92	2219.79
1019.08	1637.35
1019.24	1649.84
1019.40	2051.04
1019.57	1915.06
1019.73	1743.64
1019.89	1670.73
1020.05	1881.67
1020.21	2124.15
1020.38	1633.26
1020.54	1811.84
1020.70	1931.23
1020.86	1964.82
1021.02	1668.07
1021.18	1635.71
1021.35	1794.64
1021.51	1948.44
1021.67	1782.35
1021.83	1670.94
1021.99	1871.64
1022.15	1933.49
1022.32	1732.58
1022.48	1715.79
1022.64	2042.44
1022.80	2062.71
1022.96	1712.72
1023.12	1596.19
1023.29	1998.00
1023.45	1944.14
1023.61	1643.09
1023.77	1778.25
1023.93	1906.66
1024.09	1785.62
1024.25	1645.95
1024.42	1612.16
1024.58	1822.49
1024.74	1904.82
1024.90	1672.17
1025.06	1736.27
1025.22	1788.90
1025.38	2072.54
1025.54	1615.44
1025.71	1698.59
1025.87	1968.30
1026.03	1924.27
1026.19	1603.97
1026.35	1790.13
1026.51	1935.13
1026.67	1864.27
1026.83	1705.96
1026.99	1761.05
1027.16	1911.98
1027.32	2028.31
1027.48	1702.89
1027.64	1645.95
1027.80	1947.00
1027.96	1928.98
1028.12	1671.55
1028.28	1601.51
1028.44	1904.00
1028.60	2090.36
1028.77	1788.29
1028.93	1714.56
1029.09	1823.92
1029.25	1750.81
1029.41	1705.55
1029.57	1737.50
1029.73	1922.22
1029.89	2048.99
1030.05	1767.60
1030.21	1747.94
1030.37	2173.71
1030.53	1965.44
1030.69	1693.26
1030.85	1609.29
1031.02	1773.13
1031.18	1875.53
1031.34	1693.06
1031.50	1729.51
1031.66	1771.70
1031.82	2039.37
1031.98	1707.39
1032.14	1622.81
1032.30	1794.43
1032.46	1962.98
1032.62	1778.46
1032.78	1611.14
1032.94	1786.24
1033.10	1847.68
1033.26	1709.03
1033.42	1757.16
1033.58	2151.60
1033.74	1833.55
1033.90	1641.45
1034.06	1843.79
1034.22	2165.73
1034.38	2027.08
1034.54	1697.15
1034.70	1711.08
1034.86	2106.13
>>>>>End Processed Spectral Data<<<<<
