SpectraSuite Data File
++++++++++++++++++++++++++++++++++++
Date: Thu Mar 30 16:21:48 PDT 2017
User: UCSD _CER
Dark Spectrum Present: No
Reference Spectrum Present: No
Number of Sampled Component Spectra: 1
Spectrometers: USB4C00073
Integration Time (usec): 250000 (USB4C00073)
Spectra Averaged: 10 (USB4C00073)
Boxcar Smoothing: 0 (USB4C00073)
Correct for Electrical Dark: No (USB4C00073)
Strobe/Lamp Enabled: No (USB4C00073)
Correct for Detector Non-linearity: No (USB4C00073)
Correct for Stray Light: No (USB4C00073)
Number of Pixels in Processed Spectrum: 3648
>>>>>Begin Processed Spectral Data<<<<<
345.37	1284.90
345.58	1284.90
345.80	1284.90
346.01	1275.47
346.22	1280.19
346.43	1990.63
346.65	1751.63
346.86	2139.31
347.07	2075.62
347.28	1803.65
347.50	1794.64
347.71	1933.69
347.92	1696.54
348.13	1793.00
348.35	1714.76
348.56	1905.84
348.77	1782.96
348.98	1806.10
349.20	1671.55
349.41	1918.33
349.62	1972.40
349.83	1845.42
350.05	1719.68
350.26	1972.81
350.47	2086.47
350.68	1780.30
350.90	1721.52
351.11	2087.70
351.32	2075.62
351.53	1800.57
351.75	1725.21
351.96	1922.02
352.17	1897.24
352.38	1872.66
352.60	1858.94
352.81	1920.79
353.02	2131.32
353.23	1755.72
353.44	1766.17
353.66	1852.18
353.87	1854.85
354.08	1884.54
354.29	1804.47
354.51	1866.93
354.72	1900.52
354.93	1805.28
355.14	1714.35
355.35	1765.76
355.57	2074.80
355.78	1820.44
355.99	1898.06
356.20	1952.33
356.42	1919.56
356.63	1918.74
356.84	1829.86
357.05	2023.19
357.26	2179.86
357.48	1918.13
357.69	1849.32
357.90	1956.01
358.11	1841.12
358.32	1814.50
358.54	1844.81
358.75	1849.32
358.96	1988.58
359.17	1797.09
359.38	1819.42
359.60	1997.79
359.81	1911.78
360.02	1825.76
360.23	1796.89
360.44	1799.75
360.66	2064.56
360.87	1766.78
361.08	1745.28
361.29	1923.04
361.50	1914.65
361.72	1770.88
361.93	1832.73
362.14	1930.42
362.35	1725.62
362.56	1906.66
362.77	1743.03
362.99	1996.36
363.20	1919.77
363.41	1854.23
363.62	1701.86
363.83	2018.48
364.05	2047.35
364.26	1710.46
364.47	1772.72
364.68	2053.29
364.89	1809.59
365.10	1737.70
365.32	1790.13
365.53	1819.01
365.74	1833.75
365.95	1789.92
366.16	1691.62
366.37	1907.07
366.59	1879.01
366.80	1782.76
367.01	1680.15
367.22	2162.25
367.43	2281.44
367.64	1813.68
367.86	1782.96
368.07	1973.83
368.28	2091.18
368.49	1742.41
368.70	1861.40
368.91	1837.03
369.12	1871.84
369.34	1697.15
369.55	1723.16
369.76	1903.38
369.97	1848.70
370.18	1742.21
370.39	1747.12
370.60	1738.52
370.82	1773.75
371.03	1816.96
371.24	1741.59
371.45	2007.83
371.66	1973.01
371.87	1803.24
372.08	1780.91
372.30	1788.29
372.51	2016.84
372.72	1871.64
372.93	1767.81
373.14	2082.99
373.35	1811.22
373.56	1747.53
373.78	1823.10
373.99	2018.68
374.20	2267.10
374.41	1799.14
374.62	1825.76
374.83	2076.23
375.04	1864.06
375.25	1799.14
375.47	1771.49
375.68	1855.46
375.89	2004.14
376.10	1819.21
376.31	1892.32
376.52	1964.21
376.73	1955.61
376.94	1819.83
377.15	1780.09
377.37	1905.63
377.58	1868.36
377.79	1691.83
378.00	1728.69
378.21	1958.68
378.42	1996.16
378.63	1825.97
378.84	1880.85
379.05	2030.77
379.27	1921.81
379.48	1904.41
379.69	1733.20
379.90	2035.89
380.11	1690.80
380.32	1798.12
380.53	1902.77
380.74	2037.73
380.95	1925.71
381.16	1801.80
381.37	1782.96
381.59	2081.35
381.80	2027.69
382.01	1740.36
382.22	1675.44
382.43	1949.46
382.64	1916.49
382.85	1772.93
383.06	1857.71
383.27	2034.45
383.48	1872.66
383.69	1859.97
383.91	1720.50
384.12	1982.43
384.33	1964.00
384.54	1793.61
384.75	1700.43
384.96	2265.26
385.17	1986.32
385.38	1759.61
385.59	1780.71
385.80	2000.46
386.01	2082.17
386.22	1893.55
386.43	1828.22
386.64	2204.43
386.86	1890.48
387.07	1897.24
387.28	1701.66
387.49	1843.38
387.70	2066.20
387.91	1871.02
388.12	1747.12
388.33	1961.75
388.54	1849.11
388.75	1766.78
388.96	1870.21
389.17	1852.39
389.38	1884.54
389.59	1871.64
389.80	1839.49
390.01	1901.95
390.22	1829.25
390.43	1882.70
390.64	1678.31
390.86	1933.49
391.07	2052.68
391.28	1780.09
391.49	1824.74
391.70	1767.19
391.91	1794.43
392.12	1801.19
392.33	1794.02
392.54	1899.08
392.75	1855.05
392.96	1888.64
393.17	1768.63
393.38	2167.98
393.59	2053.29
393.80	1759.61
394.01	1874.30
394.22	1999.64
394.43	2259.52
394.64	1871.84
394.85	1990.63
395.06	1993.29
395.27	1997.79
395.48	1818.80
395.69	1742.82
395.90	1908.30
396.11	1891.09
396.32	1745.07
396.53	1884.13
396.74	1891.30
396.95	2041.01
397.16	1755.93
397.37	1699.40
397.58	2043.67
397.79	1922.02
398.00	1827.40
398.21	1804.47
398.42	1916.69
398.63	2176.38
398.84	1794.23
399.05	1773.95
399.26	2079.30
399.47	1938.20
399.68	1614.21
399.89	1748.35
400.10	1776.82
400.31	1852.18
400.52	1830.27
400.73	1755.72
400.94	1739.34
401.15	1932.67
401.36	1797.91
401.57	1836.41
401.78	2057.59
401.99	2013.97
402.20	1736.47
402.41	1930.82
402.62	2115.96
402.83	1874.92
403.04	1756.95
403.25	1951.51
403.46	1964.62
403.67	2192.96
403.88	1934.92
404.09	1972.81
404.30	2051.25
404.51	1981.61
404.72	1840.51
404.93	1969.94
405.14	1873.07
405.35	1930.21
405.56	1806.92
405.77	1795.66
405.98	1956.22
406.19	1871.43
406.40	1745.28
406.61	1779.07
406.82	1829.25
407.03	2187.23
407.24	1737.09
407.45	1825.56
407.66	1939.22
407.87	2031.38
408.08	1878.60
408.29	1879.01
408.49	1979.77
408.70	1892.73
408.91	1802.42
409.12	1878.60
409.33	1806.72
409.54	2061.69
409.75	1769.04
409.96	1781.53
410.17	2007.62
410.38	1886.18
410.59	1769.65
410.80	1898.06
411.01	1898.88
411.22	1889.66
411.43	1871.23
411.64	1763.30
411.85	1818.39
412.06	1797.71
412.27	1622.40
412.47	1762.48
412.68	1895.60
412.89	1969.53
413.10	1784.60
413.31	1697.97
413.52	2135.21
413.73	2167.57
413.94	1789.52
414.15	1927.55
414.36	1858.53
414.57	1800.37
414.78	1795.86
414.99	2243.34
415.19	2800.39
415.40	2925.73
415.61	3113.32
415.82	2940.88
416.03	2830.09
416.24	2574.71
416.45	2261.16
416.66	1986.32
416.87	1839.49
417.08	2090.77
417.29	1841.94
417.50	1969.53
417.70	2156.31
417.91	2147.91
418.12	2109.61
418.33	2204.23
418.54	2404.32
418.75	2575.53
418.96	2650.28
419.17	2953.99
419.38	3529.26
419.59	3607.29
419.79	3417.65
420.00	3216.74
420.21	3252.38
420.42	2554.64
420.63	2230.03
420.84	2111.87
421.05	1981.41
421.26	1932.26
421.47	1720.70
421.67	2070.70
421.88	1808.97
422.09	1748.56
422.30	1948.23
422.51	1808.97
422.72	2108.79
422.93	1981.82
423.14	1790.33
423.35	1692.44
423.55	1701.04
423.76	1809.99
423.97	1814.30
424.18	1705.96
424.39	1948.85
424.60	2107.77
424.81	1899.90
425.02	2102.85
425.22	2220.20
425.43	2251.33
425.64	2412.10
425.85	2449.17
426.06	2732.60
426.27	2569.79
426.48	2600.10
426.68	2584.13
426.89	2663.59
427.10	2701.48
427.31	2261.98
427.52	1973.22
427.73	2165.73
427.94	2062.92
428.14	1937.58
428.35	1814.50
428.56	2099.78
428.77	2037.32
428.98	1925.71
429.19	2060.26
429.40	2181.50
429.60	2260.55
429.81	2333.05
430.02	2200.95
430.23	2113.91
430.44	2167.77
430.65	1888.02
430.85	1901.95
431.06	1985.30
431.27	1717.22
431.48	1780.91
431.69	1863.24
431.90	1942.70
432.10	1907.07
432.31	1894.78
432.52	1989.60
432.73	2598.26
432.94	2594.16
433.15	2460.63
433.35	2328.34
433.56	2475.58
433.77	2230.85
433.98	2191.74
434.19	2042.85
434.40	2083.40
434.60	2014.79
434.81	1876.55
435.02	1892.12
435.23	1936.35
435.44	1863.24
435.64	1711.08
435.85	1782.35
436.06	1892.73
436.27	1843.38
436.48	1743.03
436.68	1776.20
436.89	2120.26
437.10	2001.48
437.31	1813.48
437.52	1890.89
437.73	1921.20
437.93	1936.35
438.14	1882.29
438.35	1677.49
438.56	1852.59
438.77	1883.93
438.97	1951.51
439.18	1767.60
439.39	2052.88
439.60	1720.29
439.80	1692.44
440.01	1804.67
440.22	1828.22
440.43	1982.84
440.64	1722.55
440.84	1829.25
441.05	1753.68
441.26	2262.60
441.47	1857.51
441.68	1793.41
441.88	1894.78
442.09	1884.95
442.30	1956.01
442.51	1841.94
442.71	1828.22
442.92	1938.20
443.13	1765.96
443.34	1742.00
443.55	1788.08
443.75	1969.53
443.96	1780.50
444.17	1765.76
444.38	2063.74
444.58	1803.85
444.79	1866.93
445.00	1838.05
445.21	1889.87
445.41	1863.65
445.62	1610.93
445.83	1881.06
446.04	1939.43
446.24	1752.86
446.45	1644.11
446.66	1779.68
446.87	1942.91
447.07	1836.21
447.28	1967.89
447.49	1830.68
447.70	2020.12
447.90	2044.28
448.11	1819.21
448.32	1878.19
448.53	2082.99
448.73	2081.56
448.94	1814.30
449.15	1916.69
449.36	1925.09
449.56	1974.65
449.77	1795.66
449.98	1728.90
450.19	1906.25
450.39	2010.08
450.60	2057.59
450.81	2039.57
451.02	2113.91
451.22	2205.87
451.43	1889.05
451.64	1901.13
451.84	1972.19
452.05	2179.04
452.26	1942.50
452.47	1867.75
452.67	1859.97
452.88	2115.96
453.09	1797.50
453.30	1742.21
453.50	2025.24
453.71	2114.73
453.92	1808.56
454.12	1898.88
454.33	1835.59
454.54	1891.91
454.75	1749.37
454.95	1743.03
455.16	1933.90
455.37	1953.56
455.57	1812.25
455.78	1816.75
455.99	1888.02
456.19	1905.02
456.40	1738.73
456.61	1846.24
456.82	1933.90
457.02	1995.13
457.23	1845.02
457.44	1971.17
457.64	1828.02
457.85	1990.83
458.06	1856.28
458.26	2024.62
458.47	1933.08
458.68	2079.92
458.89	1806.92
459.09	2034.66
459.30	2256.45
459.51	1984.69
459.71	1789.92
459.92	1839.69
460.13	2032.20
460.33	2170.23
460.54	1810.40
460.75	1812.66
460.95	1777.23
461.16	1967.89
461.37	1800.98
461.57	1859.15
461.78	1910.35
461.99	1812.04
462.19	2056.37
462.40	1849.32
462.61	2403.70
462.81	2075.62
463.02	1806.72
463.23	1807.74
463.43	2052.88
463.64	1900.11
463.85	2806.54
464.05	1836.00
464.26	2355.57
464.47	2130.09
464.67	2005.99
464.88	1894.37
465.09	1821.46
465.29	1931.85
465.50	1935.74
465.71	1844.20
465.91	1845.02
466.12	1896.62
466.33	1858.53
466.53	1822.49
466.74	2103.06
466.94	1882.49
467.15	1836.21
467.36	1996.56
467.56	1803.85
467.77	1951.30
467.98	1858.12
468.18	1799.14
468.39	1860.99
468.60	2144.22
468.80	1845.63
469.01	1807.33
469.21	1988.17
469.42	2077.05
469.63	1940.04
469.83	1838.87
470.04	2104.08
470.25	2210.58
470.45	1957.45
470.66	1860.58
470.86	1990.83
471.07	1918.13
471.28	1947.21
471.48	1979.36
471.69	1943.52
471.90	2377.28
472.10	1835.80
472.31	1843.17
472.51	1835.18
472.72	1806.10
472.93	1755.93
473.13	1933.90
473.34	1955.40
473.54	1899.90
473.75	1853.21
473.96	2019.71
474.16	1913.83
474.37	2026.87
474.57	1944.14
474.78	1874.51
474.99	2043.87
475.19	2014.59
475.40	1853.82
475.60	1747.12
475.81	2135.62
476.02	1939.22
476.22	1950.49
476.43	2045.51
476.63	1991.24
476.84	2183.75
477.05	1745.89
477.25	1829.04
477.46	2325.47
477.66	1941.88
477.87	1776.00
478.08	1820.23
478.28	2061.28
478.49	1905.23
478.69	1783.99
478.90	1828.02
479.10	2020.73
479.31	2108.79
479.52	1905.84
479.72	1962.16
479.93	2015.41
480.13	1882.90
480.34	1810.40
480.54	1917.10
480.75	1835.59
480.96	2075.00
481.16	1804.87
481.37	1902.56
481.57	2026.06
481.78	1997.79
481.98	2023.80
482.19	1899.08
482.40	2172.49
482.60	2005.99
482.81	1937.58
483.01	1874.51
483.22	2107.36
483.42	2092.20
483.63	1976.70
483.83	1951.30
484.04	1854.64
484.24	2025.85
484.45	1883.52
484.66	1747.94
484.86	1965.85
485.07	1833.75
485.27	1890.89
485.48	1815.52
485.68	2092.20
485.89	1834.16
486.09	1934.72
486.30	1833.75
486.50	1943.93
486.71	1985.92
486.91	2024.83
487.12	2075.00
487.33	2300.89
487.53	2324.44
487.74	2130.71
487.94	2053.09
488.15	2188.66
488.35	2283.89
488.56	2130.50
488.76	2099.37
488.97	2092.41
489.17	2126.41
489.38	1977.31
489.58	1940.04
489.79	2034.86
489.99	2001.68
490.20	1897.85
490.40	1983.05
490.61	2002.30
490.81	1890.07
491.02	1889.87
491.22	1949.05
491.43	2024.62
491.63	1950.90
491.84	2020.32
492.04	1789.52
492.25	1991.24
492.45	1892.73
492.66	1837.85
492.86	1740.57
493.07	1892.32
493.27	2229.01
493.48	1744.46
493.68	1892.73
493.89	1936.97
494.09	2037.11
494.30	1825.35
494.50	2082.17
494.71	2033.43
494.91	1854.23
495.12	1971.99
495.32	2055.55
495.53	2030.77
495.73	1796.89
495.94	1880.04
496.14	1730.53
496.35	2183.54
496.55	1895.60
496.76	1873.28
496.96	1936.76
497.17	1914.85
497.37	2002.91
497.58	1848.09
497.78	1807.33
497.98	1898.06
498.19	1966.05
498.39	1946.18
498.60	1982.84
498.80	1796.07
499.01	2065.38
499.21	1791.15
499.42	1881.47
499.62	1915.67
499.83	2218.36
500.03	1764.53
500.24	1934.10
500.44	2095.89
500.64	2052.27
500.85	1852.39
501.05	1922.63
501.26	1769.24
501.46	2083.19
501.67	1819.01
501.87	1753.06
502.08	1832.73
502.28	1897.03
502.48	1929.19
502.69	2013.15
502.89	1819.62
503.10	1907.68
503.30	1922.02
503.51	1937.58
503.71	1835.59
503.92	2064.35
504.12	2013.36
504.32	1972.81
504.53	2144.02
504.73	2201.16
504.94	2122.92
505.14	2269.15
505.35	2263.01
505.55	2262.80
505.75	2198.08
505.96	2264.44
506.16	2386.91
506.37	2036.30
506.57	1984.89
506.78	2030.97
506.98	2172.69
507.18	1853.21
507.39	1874.30
507.59	1949.26
507.80	1906.25
508.00	2061.69
508.20	2112.48
508.41	1984.28
508.61	2143.20
508.82	2065.38
509.02	2029.95
509.22	1821.87
509.43	1813.89
509.63	1853.62
509.84	1887.82
510.04	1765.96
510.24	2149.14
510.45	2029.54
510.65	1792.79
510.86	1906.66
511.06	1849.93
511.26	2098.35
511.47	2054.52
511.67	1888.02
511.88	2060.67
512.08	2096.71
512.28	1804.47
512.49	1971.37
512.69	1969.12
512.90	1981.20
513.10	1824.33
513.30	1932.26
513.51	1975.88
513.71	2141.97
513.91	1946.18
514.12	1937.79
514.32	2112.07
514.53	2012.54
514.73	2123.74
514.93	2053.29
515.14	2184.57
515.34	2451.01
515.54	2300.28
515.75	2396.74
515.95	2542.96
516.15	2584.95
516.36	2268.33
516.56	2171.05
516.77	1856.48
516.97	2147.70
517.17	1996.56
517.38	2095.28
517.58	2298.44
517.78	2112.07
517.99	2327.93
518.19	2400.83
518.39	2696.56
518.60	2532.93
518.80	2345.74
519.00	2296.80
519.21	2167.37
519.41	2327.72
519.61	1913.01
519.82	2048.58
520.02	2029.33
520.22	2019.71
520.43	1991.24
520.63	2012.74
520.83	1962.98
521.04	1894.78
521.24	2258.91
521.44	2307.45
521.65	2408.21
521.85	2602.97
522.05	2363.15
522.26	2220.82
522.46	2394.89
522.66	2212.42
522.87	1997.18
523.07	2138.28
523.27	1981.82
523.48	2220.41
523.68	2033.84
523.88	2052.88
524.09	2179.45
524.29	2110.43
524.49	1991.04
524.70	2282.87
524.90	2434.01
525.10	2338.58
525.31	2039.16
525.51	1992.67
525.71	2146.07
525.91	2082.17
526.12	1881.47
526.32	1816.75
526.52	1878.19
526.73	1875.73
526.93	1924.27
527.13	1781.53
527.34	1943.11
527.54	1953.35
527.74	1894.78
527.94	1868.16
528.15	1878.40
528.35	2015.00
528.55	2030.97
528.76	1939.84
528.96	1763.51
529.16	2049.61
529.36	2021.96
529.57	1772.52
529.77	2101.01
529.97	1817.16
530.18	1956.63
530.38	1865.90
530.58	1998.00
530.78	1968.92
530.99	1835.80
531.19	2021.96
531.39	1870.00
531.60	1967.69
531.80	1906.04
532.00	2019.71
532.20	1965.23
532.41	1857.10
532.61	1862.63
532.81	1891.09
533.01	1893.55
533.22	1971.17
533.42	1990.63
533.62	1721.93
533.82	2089.75
534.03	1902.15
534.23	1967.48
534.43	1798.94
534.63	1881.67
534.84	1981.00
535.04	1941.06
535.24	1905.43
535.44	2236.18
535.65	1876.55
535.85	1820.64
536.05	1837.23
536.25	1912.80
536.46	1873.48
536.66	2105.11
536.86	1998.20
537.06	2096.30
537.27	2162.25
537.47	2006.39
537.67	1883.93
537.87	2122.51
538.08	1922.02
538.28	1831.09
538.48	1865.90
538.68	1978.75
538.88	2057.39
539.09	1825.76
539.29	1943.93
539.49	2077.87
539.69	1985.71
539.90	1976.09
540.10	1865.90
540.30	2178.42
540.50	1936.76
540.70	1875.53
540.91	2015.20
541.11	2171.87
541.31	2351.68
541.51	2180.06
541.72	2213.04
541.92	2283.28
542.12	2104.90
542.32	2032.20
542.52	1961.54
542.73	1953.15
542.93	2064.56
543.13	1946.59
543.33	2090.98
543.53	2210.17
543.74	2244.98
543.94	2059.64
544.14	2275.91
544.34	2440.97
544.54	2316.87
544.75	2430.73
544.95	2631.84
545.15	2505.69
545.35	2516.75
545.55	2333.25
545.75	2121.08
545.96	2402.88
546.16	1989.60
546.36	2034.04
546.56	2022.78
546.76	2191.94
546.97	2257.68
547.17	1964.21
547.37	2018.68
547.57	1912.60
547.77	2051.66
547.97	1959.70
548.18	1994.72
548.38	2056.78
548.58	2551.97
548.78	2636.35
548.98	3079.74
549.18	3398.81
549.39	3594.80
549.59	3209.78
549.79	2883.95
549.99	2920.81
550.19	2732.81
550.39	2562.01
550.60	2308.27
550.80	2301.10
551.00	2272.63
551.20	2074.39
551.40	1983.87
551.60	2101.01
551.80	2100.60
552.01	2132.14
552.21	2040.80
552.41	2063.74
552.61	2267.10
552.81	2033.84
553.01	1873.28
553.21	2054.11
553.42	1890.28
553.62	1871.23
553.82	1879.42
554.02	2162.86
554.22	2042.03
554.42	1835.59
554.62	2020.32
554.83	2365.81
555.03	2691.03
555.23	2671.98
555.43	3071.75
555.63	3049.22
555.83	2892.96
556.03	2564.06
556.23	2399.81
556.44	2538.46
556.64	2633.48
556.84	2226.76
557.04	2397.15
557.24	2418.04
557.44	2310.52
557.64	2149.14
557.84	2001.89
558.04	2033.84
558.25	2120.26
558.45	1952.12
558.65	2031.58
558.85	2107.56
559.05	1907.27
559.25	2068.24
559.45	2211.40
559.65	2660.31
559.85	3155.10
560.05	2664.82
560.26	2801.62
560.46	2828.86
560.66	2611.36
560.86	2385.06
561.06	2223.89
561.26	2465.34
561.46	2272.43
561.66	2104.49
561.86	2187.23
562.06	2026.87
562.26	2061.49
562.47	2041.62
562.67	1871.43
562.87	2076.03
563.07	1826.58
563.27	2026.26
563.47	2055.75
563.67	1974.65
563.87	2134.80
564.07	2072.75
564.27	2205.05
564.47	2331.41
564.67	2373.60
564.87	2269.97
565.08	2327.72
565.28	2193.37
565.48	2264.23
565.68	2164.50
565.88	2163.88
566.08	2275.50
566.28	2024.83
566.48	1857.92
566.68	1936.15
566.88	1910.35
567.08	2091.18
567.28	1956.42
567.48	1992.26
567.68	2127.23
567.88	1933.28
568.08	2110.23
568.28	2210.78
568.48	2084.83
568.68	2289.83
568.89	2103.47
569.09	1856.48
569.29	2140.13
569.49	2099.37
569.69	1884.13
569.89	1887.00
570.09	1744.46
570.29	1894.58
570.49	1784.19
570.69	1842.56
570.89	2053.50
571.09	2174.74
571.29	1756.54
571.49	2039.37
571.69	1969.94
571.89	1978.54
572.09	1870.82
572.29	1838.26
572.49	2015.00
572.69	1979.36
572.89	1939.22
573.09	1776.00
573.29	2127.23
573.49	2162.86
573.69	2168.59
573.89	2192.96
574.09	2009.26
574.29	2214.47
574.49	1929.60
574.69	1900.72
574.89	1825.56
575.09	1843.38
575.29	1840.71
575.49	1904.61
575.69	1968.30
575.89	1787.88
576.09	1933.08
576.29	1968.51
576.49	1891.09
576.69	1991.24
576.89	1951.10
577.09	2023.60
577.29	1857.51
577.49	2252.97
577.69	1898.26
577.89	2034.25
578.09	1982.64
578.29	1782.55
578.49	1930.62
578.69	1840.10
578.89	2082.37
579.09	1955.40
579.29	1861.81
579.49	2062.10
579.69	1940.45
579.89	2193.58
580.09	1782.76
580.29	1800.98
580.49	1869.80
580.69	1814.09
580.89	1898.67
581.09	1878.81
581.29	1851.36
581.49	1891.09
581.69	1807.54
581.89	1807.54
582.09	1813.48
582.28	1847.68
582.48	2062.71
582.68	2159.99
582.88	2236.18
583.08	2051.66
583.28	2046.54
583.48	2023.19
583.68	1943.73
583.88	1974.04
584.08	1966.66
584.28	1940.45
584.48	2192.15
584.68	2006.19
584.88	1892.32
585.08	2051.66
585.28	2124.77
585.48	2148.93
585.68	2071.52
585.87	2055.75
586.07	2043.87
586.27	1966.66
586.47	2026.67
586.67	1937.17
586.87	1928.78
587.07	1907.68
587.27	1852.39
587.47	2000.66
587.67	2320.14
587.87	2712.53
588.07	2553.61
588.27	2573.89
588.46	2825.79
588.66	2838.28
588.86	2502.21
589.06	2443.64
589.26	2395.92
589.46	2304.37
589.66	2031.79
589.86	1973.83
590.06	2068.65
590.26	2280.82
590.46	2175.97
590.66	2344.72
590.85	2322.19
591.05	2382.20
591.25	2138.90
591.45	2130.71
591.65	2246.62
591.85	2264.03
592.05	2227.17
592.25	2364.18
592.45	2484.80
592.64	2355.16
592.84	2269.15
593.04	2072.54
593.24	2506.30
593.44	2150.37
593.64	2196.86
593.84	2208.32
594.04	2119.24
594.24	2287.99
594.43	1994.11
594.63	2045.92
594.83	2139.10
595.03	2086.68
595.23	1867.95
595.43	1801.39
595.63	1888.02
595.83	2073.36
596.02	1744.05
596.22	1985.92
596.42	2053.29
596.62	2007.62
596.82	1930.42
597.02	2086.47
597.22	2148.11
597.41	1994.93
597.61	1913.42
597.81	2093.84
598.01	2142.99
598.21	2033.84
598.41	1999.84
598.61	1985.30
598.80	2071.52
599.00	2114.94
599.20	2198.49
599.40	2029.33
599.60	2087.90
599.80	2184.77
599.99	2209.35
600.19	2022.57
600.39	2085.04
600.59	2100.40
600.79	2066.81
600.99	2033.22
601.19	2260.75
601.38	2300.48
601.58	2086.68
601.78	1891.50
601.98	2393.87
602.18	3262.00
602.37	4012.99
602.57	4266.33
602.77	4807.61
602.97	4894.65
603.17	4614.28
603.37	4344.77
603.56	4322.65
603.76	4200.79
603.96	4023.64
604.16	3797.14
604.36	3513.70
604.56	3205.69
604.75	2771.93
604.95	2767.42
605.15	2745.10
605.35	2607.88
605.55	2383.43
605.74	2260.34
605.94	2418.86
606.14	2188.87
606.34	2153.44
606.54	2038.34
606.73	1967.89
606.93	2085.45
607.13	1906.25
607.33	1958.27
607.53	2182.52
607.72	2101.42
607.92	2030.97
608.12	2045.72
608.32	1984.28
608.51	2109.20
608.71	1970.15
608.91	2095.07
609.11	2233.11
609.31	2160.40
609.50	2310.31
609.70	2522.69
609.90	2508.56
610.10	2476.40
610.29	2344.92
610.49	2187.23
610.69	2345.13
610.89	2198.90
611.09	2189.48
611.28	2204.43
611.48	2193.17
611.68	2048.58
611.88	1990.63
612.07	1956.42
612.27	2150.37
612.47	1957.24
612.67	2035.68
612.86	2081.15
613.06	1967.69
613.26	1821.87
613.46	1975.68
613.65	2092.20
613.85	2503.44
614.05	2293.32
614.25	2282.87
614.44	2173.51
614.64	2199.31
614.84	2146.68
615.04	2094.66
615.23	2098.76
615.43	2205.46
615.63	2185.59
615.83	2016.02
616.02	2017.66
616.22	2396.53
616.42	2235.97
616.62	2314.20
616.81	2443.23
617.01	2473.74
617.21	2359.67
617.41	2130.30
617.60	2183.34
617.80	2217.75
618.00	2178.83
618.19	2094.87
618.39	2051.25
618.59	2046.94
618.79	1955.20
618.98	1772.31
619.18	1873.69
619.38	2155.08
619.57	1890.07
619.77	1881.88
619.97	1890.07
620.17	1930.42
620.36	1954.79
620.56	2285.33
620.76	2122.11
620.95	2183.54
621.15	2245.60
621.35	2122.31
621.54	2142.18
621.74	2159.99
621.94	2037.93
622.14	1926.32
622.33	1876.14
622.53	1967.07
622.73	1966.25
622.92	1811.22
623.12	1930.62
623.32	2181.70
623.51	2020.73
623.71	1781.32
623.91	2056.37
624.10	1824.94
624.30	1966.66
624.50	1810.40
624.69	1807.54
624.89	2445.07
625.09	1876.35
625.29	1716.40
625.48	1808.56
625.68	1947.41
625.88	2036.30
626.07	1923.66
626.27	1812.04
626.47	1858.12
626.66	1723.98
626.86	1879.22
627.06	1860.78
627.25	1907.68
627.45	2130.91
627.64	1884.13
627.84	2073.16
628.04	1805.69
628.23	2164.50
628.43	1816.34
628.63	1914.85
628.82	1959.09
629.02	2312.16
629.22	2184.98
629.41	2289.22
629.61	2142.18
629.81	2450.80
630.00	2129.68
630.20	2140.33
630.40	2289.83
630.59	2287.79
630.79	2161.02
630.98	2080.33
631.18	2080.53
631.38	2038.55
631.57	2103.06
631.77	1814.50
631.97	1975.06
632.16	2017.66
632.36	1927.75
632.56	1929.60
632.75	1924.07
632.95	2040.39
633.14	1758.59
633.34	2055.55
633.54	1679.74
633.73	1833.34
633.93	1819.83
634.12	1736.68
634.32	2231.67
634.52	1913.01
634.71	1760.23
634.91	1928.78
635.11	1773.75
635.30	1834.98
635.50	1924.48
635.69	1829.25
635.89	2214.67
636.09	2122.31
636.28	1891.30
636.48	1915.67
636.67	2101.01
636.87	2060.87
637.07	2019.09
637.26	1910.96
637.46	2067.63
637.65	2148.11
637.85	2058.00
638.04	1987.96
638.24	2015.41
638.44	2075.21
638.63	1990.83
638.83	1947.21
639.02	2039.16
639.22	2044.08
639.42	1917.72
639.61	1902.36
639.81	1944.55
640.00	1904.20
640.20	1983.05
640.39	2046.33
640.59	2486.03
640.79	2533.95
640.98	2599.90
641.18	2693.28
641.37	2722.16
641.57	2479.89
641.76	2364.79
641.96	2154.46
642.15	2276.11
642.35	2155.69
642.55	2182.11
642.74	1998.41
642.94	2171.05
643.13	2185.18
643.33	1910.14
643.52	1866.11
643.72	1823.10
643.91	1902.15
644.11	1834.16
644.31	1790.13
644.50	1832.73
644.70	2071.11
644.89	1873.89
645.09	1933.08
645.28	1887.82
645.48	1979.16
645.67	1805.28
645.87	1736.68
646.06	1879.42
646.26	1981.41
646.45	1705.34
646.65	1701.25
646.84	2175.97
647.04	1875.94
647.24	1786.85
647.43	1925.09
647.63	1935.54
647.82	2097.32
648.02	1767.81
648.21	1820.23
648.41	2098.76
648.60	1864.06
648.80	2025.85
648.99	1893.55
649.19	1847.68
649.38	1714.97
649.58	1908.09
649.77	1903.18
649.97	2034.45
650.16	1964.62
650.36	1674.83
650.55	1995.34
650.75	1947.62
650.94	2102.85
651.14	1873.28
651.33	1935.94
651.53	2111.66
651.72	1841.53
651.92	1862.42
652.11	1689.98
652.31	1965.64
652.50	1939.22
652.70	1924.07
652.89	1802.42
653.09	2155.08
653.28	1927.55
653.48	1746.10
653.67	1778.87
653.87	2338.78
654.06	1969.94
654.25	2087.08
654.45	1847.06
654.64	1860.78
654.84	1914.44
655.03	1669.71
655.23	2027.28
655.42	1984.48
655.62	2110.43
655.81	1912.39
656.01	1790.33
656.20	2025.03
656.40	2094.66
656.59	1868.36
656.79	2023.80
656.98	1937.79
657.17	2002.50
657.37	1893.96
657.56	1830.68
657.76	1956.01
657.95	2042.85
658.15	1588.81
658.34	1882.70
658.54	1898.26
658.73	1787.67
658.92	1880.24
659.12	1920.79
659.31	2052.27
659.51	1861.81
659.70	2049.40
659.90	1972.81
660.09	2154.67
660.29	2017.04
660.48	1880.65
660.67	2103.88
660.87	1904.20
661.06	2010.29
661.26	2023.60
661.45	1992.06
661.65	1997.18
661.84	1868.36
662.03	1863.45
662.23	1839.90
662.42	2159.58
662.62	1794.02
662.81	1780.50
663.00	1852.59
663.20	1900.92
663.39	1965.44
663.59	1979.98
663.78	1850.54
663.97	1860.17
664.17	1999.64
664.36	1723.16
664.56	1788.70
664.75	2015.61
664.94	1977.52
665.14	1938.61
665.33	1942.91
665.53	1994.93
665.72	2026.06
665.91	2088.11
666.11	1989.19
666.30	2018.07
666.50	1927.55
666.69	1980.39
666.88	1915.87
667.08	1958.68
667.27	1926.32
667.47	1919.56
667.66	1867.34
667.85	2051.04
668.05	1934.51
668.24	1810.40
668.43	2057.39
668.63	1885.97
668.82	2051.25
669.02	1985.51
669.21	1904.61
669.40	1785.62
669.60	2204.84
669.79	1785.21
669.98	2368.48
670.18	1812.25
670.37	1802.42
670.56	1863.04
670.76	1947.00
670.95	1910.55
671.15	2064.76
671.34	1999.43
671.53	1971.37
671.73	1896.83
671.92	1899.90
672.11	1793.61
672.31	1883.11
672.50	1998.82
672.69	1775.79
672.89	1691.42
673.08	1858.74
673.27	2020.32
673.47	1956.83
673.66	1956.01
673.85	1829.66
674.05	2071.11
674.24	2424.39
674.43	2547.47
674.63	2982.46
674.82	3359.08
675.01	2895.62
675.21	2994.95
675.40	2690.62
675.59	2647.41
675.79	2830.91
675.98	2470.26
676.17	2563.85
676.37	2457.36
676.56	2262.19
676.75	2195.22
676.95	2140.33
677.14	2047.35
677.33	2142.18
677.52	1834.78
677.72	1905.84
677.91	1974.65
678.10	1777.64
678.30	1815.52
678.49	1789.72
678.68	2175.56
678.88	1703.50
679.07	1996.97
679.26	1863.04
679.45	2114.73
679.65	2047.76
679.84	1723.57
680.03	1729.30
680.23	1876.76
680.42	2235.36
680.61	1790.33
680.81	1826.38
681.00	1947.62
681.19	1951.71
681.38	1984.07
681.58	1957.65
681.77	1901.95
681.96	2031.38
682.15	1917.72
682.35	1937.38
682.54	2001.89
682.73	1828.63
682.93	1849.52
683.12	1826.58
683.31	2024.83
683.50	2291.68
683.70	1815.73
683.89	1914.65
684.08	1778.46
684.27	2047.35
684.47	1762.28
684.66	1900.92
684.85	2179.86
685.04	2044.28
685.24	1849.52
685.43	1884.75
685.62	1701.86
685.81	2020.32
686.01	2142.38
686.20	2307.65
686.39	2336.94
686.58	2888.86
686.78	2730.35
686.97	2630.62
687.16	2586.99
687.35	2456.74
687.55	2326.70
687.74	2353.53
687.93	2187.23
688.12	2328.75
688.32	2283.69
688.51	2043.05
688.70	2186.82
688.89	1974.45
689.08	1886.38
689.28	1899.90
689.47	1996.16
689.66	1953.76
689.85	2028.72
690.05	1871.23
690.24	1885.77
690.43	1956.83
690.62	1941.06
690.81	1840.71
691.01	1920.18
691.20	1866.11
691.39	1793.20
691.58	1946.18
691.77	2142.38
691.97	1947.62
692.16	1956.22
692.35	1922.84
692.54	1899.90
692.73	2110.64
692.93	2128.45
693.12	2216.72
693.31	2293.11
693.50	2247.24
693.69	2213.44
693.89	2086.88
694.08	2270.38
694.27	2283.28
694.46	1993.08
694.65	2077.46
694.85	2172.69
695.04	2161.84
695.23	2122.51
695.42	2771.11
695.61	3248.49
695.80	3648.66
696.00	3927.18
696.19	4093.89
696.38	3607.91
696.57	3273.27
696.76	3195.24
696.95	2935.76
697.15	3060.89
697.34	2901.97
697.53	2570.61
697.72	2500.98
697.91	2342.67
698.10	2462.48
698.30	2125.79
698.49	2059.23
698.68	2081.56
698.87	1976.09
699.06	1845.63
699.25	1961.95
699.45	2071.52
699.64	1949.46
699.83	2026.06
700.02	1828.84
700.21	1997.59
700.40	1851.57
700.59	1879.01
700.79	1865.29
700.98	1983.46
701.17	1817.16
701.36	1822.28
701.55	1820.85
701.74	2139.51
701.93	2189.69
702.12	2555.46
702.32	2692.67
702.51	3055.36
702.70	3090.59
702.89	2822.92
703.08	2498.73
703.27	2701.07
703.46	2527.60
703.65	2381.79
703.85	2212.83
704.04	2216.72
704.23	2392.23
704.42	2050.43
704.61	2059.64
704.80	2232.70
704.99	1884.34
705.18	1990.22
705.37	1978.34
705.57	2460.84
705.76	3226.17
705.95	3421.75
706.14	4090.82
706.33	4379.17
706.52	4445.12
706.71	3622.24
706.90	3277.36
707.09	3223.91
707.28	3084.24
707.47	2831.11
707.67	2835.21
707.86	2554.84
708.05	2666.66
708.24	2409.84
708.43	2253.58
708.62	2104.08
708.81	1947.00
709.00	1855.25
709.19	1889.46
709.38	2100.40
709.57	1856.89
709.76	2050.22
709.96	1970.35
710.15	2259.32
710.34	2090.57
710.53	2152.82
710.72	2023.80
710.91	2141.97
711.10	2062.92
711.29	2062.30
711.48	1960.32
711.67	1914.85
711.86	2081.97
712.05	1906.66
712.24	1939.63
712.43	2067.63
712.62	2160.61
712.81	1987.55
713.00	2042.23
713.19	1824.33
713.39	2030.97
713.58	1838.26
713.77	2009.67
713.96	2100.40
714.15	2038.96
714.34	2001.68
714.53	1911.78
714.72	2259.32
714.91	1939.43
715.10	2075.41
715.29	1939.43
715.48	2491.35
715.67	2205.25
715.86	2041.82
716.05	1988.99
716.24	1988.58
716.43	1934.10
716.62	1852.80
716.81	1807.74
717.00	1942.70
717.19	2178.22
717.38	1984.48
717.57	1910.55
717.76	1763.10
717.95	2037.73
718.14	1913.42
718.33	1861.19
718.52	1717.43
718.71	1726.44
718.90	1757.57
719.09	1878.19
719.28	1892.53
719.47	2069.68
719.66	2111.46
719.85	2172.28
720.04	2108.38
720.23	2204.43
720.42	2105.11
720.61	2173.92
720.80	1925.91
720.99	2125.18
721.18	1982.84
721.37	1934.51
721.56	1994.93
721.75	2154.05
721.94	1895.40
722.13	1957.04
722.32	1918.74
722.51	2029.74
722.70	1913.21
722.89	1942.50
723.08	1902.15
723.27	2011.51
723.46	1932.87
723.65	1850.13
723.84	1840.30
724.03	2062.51
724.22	1771.70
724.41	1935.94
724.60	1837.85
724.79	1998.00
724.98	1940.25
725.16	1871.43
725.35	2003.12
725.54	1792.38
725.73	1948.64
725.92	1948.85
726.11	2059.44
726.30	2321.17
726.49	2193.58
726.68	2327.31
726.87	2442.41
727.06	2531.90
727.25	2195.42
727.44	2287.99
727.63	2200.95
727.82	2152.21
728.01	2143.61
728.20	2186.00
728.38	2296.18
728.57	2030.36
728.76	2012.95
728.95	2114.12
729.14	1819.21
729.33	1810.81
729.52	1715.38
729.71	1856.69
729.90	1811.22
730.09	1916.49
730.28	1993.49
730.47	2056.57
730.66	2286.15
730.84	2218.97
731.03	2191.12
731.22	2185.39
731.41	2154.87
731.60	2150.98
731.79	1877.37
731.98	1937.58
732.17	2126.00
732.36	2049.81
732.55	1919.97
732.73	1829.04
732.92	2096.71
733.11	2015.41
733.30	1893.76
733.49	1789.11
733.68	1998.61
733.87	2003.32
734.06	1924.68
734.25	2065.38
734.43	2232.90
734.62	2431.96
734.81	2459.41
735.00	2463.50
735.19	2374.82
735.38	2331.82
735.57	2125.18
735.76	2277.14
735.94	2418.45
736.13	3023.42
736.32	3104.52
736.51	3263.64
736.70	3648.05
736.89	3755.57
737.08	3532.34
737.27	3994.36
737.45	5007.49
737.64	5186.48
737.83	5753.77
738.02	5913.10
738.21	5679.84
738.40	4888.71
738.59	4377.74
738.77	4207.76
738.96	3837.28
739.15	3664.23
739.34	3467.62
739.53	3217.15
739.72	3130.73
739.90	2926.55
740.09	2512.65
740.28	2458.79
740.47	2385.88
740.66	2287.58
740.85	2020.32
741.03	2098.55
741.22	1935.74
741.41	2019.71
741.60	1880.65
741.79	2069.27
741.98	2206.89
742.16	2300.69
742.35	2148.93
742.54	2173.30
742.73	2530.27
742.92	2301.30
743.10	2219.18
743.29	2249.69
743.48	2536.61
743.67	2116.78
743.86	1971.99
744.05	2011.11
744.23	1978.34
744.42	2000.87
744.61	2015.82
744.80	1903.59
744.99	1959.29
745.17	1803.44
745.36	1787.67
745.55	1953.76
745.74	1933.28
745.93	1825.76
746.11	1846.65
746.30	1809.38
746.49	2045.31
746.68	1812.45
746.86	1882.49
747.05	1877.37
747.24	1993.49
747.43	2067.01
747.62	1859.56
747.80	1946.80
747.99	2209.35
748.18	2152.82
748.37	2085.45
748.56	2056.37
748.74	2165.52
748.93	2075.21
749.12	2330.79
749.31	3133.60
749.49	3745.53
749.68	4231.31
749.87	4641.72
750.06	4785.08
750.24	4910.01
750.43	5287.45
750.62	5793.09
750.81	6209.44
750.99	6532.82
751.18	6513.36
751.37	5586.45
751.56	4903.86
751.74	4981.27
751.93	4712.79
752.12	3914.49
752.31	3618.56
752.49	3398.60
752.68	3342.29
752.87	2938.43
753.06	2669.73
753.24	2497.09
753.43	2512.24
753.62	2167.16
753.81	2063.53
753.99	2264.44
754.18	2078.07
754.37	1888.23
754.55	1998.82
754.74	2198.49
754.93	1759.41
755.12	1892.12
755.30	1810.20
755.49	2051.25
755.68	1947.62
755.86	1953.15
756.05	1824.74
756.24	2070.91
756.43	1777.23
756.61	1805.90
756.80	1925.50
756.99	2098.76
757.17	1936.97
757.36	1805.69
757.55	1926.73
757.74	2008.03
757.92	1957.65
758.11	1797.50
758.30	1733.20
758.48	1898.88
758.67	1778.87
758.86	1902.15
759.04	1803.85
759.23	1864.27
759.42	1946.59
759.60	1819.83
759.79	1891.71
759.98	1861.19
760.16	1810.81
760.35	1812.04
760.54	1757.57
760.73	1933.08
760.91	1747.94
761.10	1922.43
761.29	1966.46
761.47	1925.91
761.66	2192.15
761.85	1990.01
762.03	2154.26
762.22	2968.12
762.41	5586.86
762.59	8512.79
762.78	10001.05
762.97	12068.07
763.15	12885.41
763.34	11744.28
763.52	8857.46
763.71	8300.01
763.90	7797.03
764.08	7277.87
764.27	6763.42
764.46	6437.99
764.64	5637.44
764.83	5138.97
765.02	4682.27
765.20	4201.61
765.39	3625.93
765.58	2927.57
765.76	2691.03
765.95	2456.54
766.13	2260.96
766.32	2128.45
766.51	2088.93
766.69	2612.39
766.88	2019.71
767.07	1859.97
767.25	1775.59
767.44	2083.40
767.62	2079.10
767.81	1871.02
768.00	1941.47
768.18	1953.56
768.37	1902.15
768.56	1811.02
768.74	1871.02
768.93	1773.34
769.11	2036.30
769.30	1931.44
769.49	1839.08
769.67	1903.38
769.86	1858.74
770.04	1890.07
770.23	1868.16
770.42	2125.59
770.60	1939.43
770.79	1803.44
770.97	1899.08
771.16	2422.54
771.35	3188.28
771.53	3886.64
771.72	4353.98
771.90	4929.87
772.09	5248.74
772.27	4730.81
772.46	3837.07
772.65	3923.09
772.83	3677.54
773.02	3478.68
773.20	3202.61
773.39	3262.62
773.58	3072.16
773.76	2687.55
773.95	2625.09
774.13	2561.39
774.32	2321.58
774.50	2094.05
774.69	2080.53
774.87	1988.37
775.06	2253.58
775.25	1870.82
775.43	1887.00
775.62	1978.75
775.80	1988.37
775.99	1957.65
776.17	1818.60
776.36	1892.53
776.54	2055.34
776.73	1863.45
776.92	1967.69
777.10	2062.30
777.29	1975.47
777.47	1812.25
777.66	1830.06
777.84	1917.31
778.03	1910.55
778.21	1808.56
778.40	1893.55
778.58	1950.28
778.77	2048.58
778.95	1741.39
779.14	1836.00
779.32	2160.61
779.51	2014.79
779.70	1877.99
779.88	1766.17
780.07	1853.62
780.25	2240.27
780.44	1884.13
780.62	1996.97
780.81	1983.25
780.99	1938.40
781.18	1833.34
781.36	1827.20
781.55	1883.11
781.73	2087.49
781.92	1764.94
782.10	1763.71
782.29	1941.27
782.47	2086.47
782.66	1914.65
782.84	1738.32
783.03	1812.04
783.21	2049.20
783.40	1862.01
783.58	1837.23
783.77	1814.30
783.95	1846.24
784.14	1780.71
784.32	1871.43
784.51	2092.82
784.69	1815.52
784.88	1782.76
785.06	1930.42
785.24	1779.48
785.43	2079.30
785.61	2000.46
785.80	1836.82
785.98	2014.38
786.17	1935.94
786.35	1819.01
786.54	2008.03
786.72	2041.82
786.91	2036.70
787.09	1902.15
787.28	1772.72
787.46	1917.31
787.65	2026.47
787.83	1776.82
788.01	1940.66
788.20	1842.56
788.38	1964.41
788.57	1937.79
788.75	1989.19
788.94	2244.57
789.12	2139.72
789.31	1958.88
789.49	2037.93
789.67	1920.79
789.86	2003.94
790.04	1857.10
790.23	1796.07
790.41	2275.91
790.60	1946.59
790.78	1948.85
790.96	1940.04
791.15	2055.14
791.33	1939.84
791.52	1907.89
791.70	1827.81
791.89	1998.41
792.07	2039.57
792.25	1915.06
792.44	1765.55
792.62	2055.96
792.81	1872.05
792.99	1914.85
793.17	1840.71
793.36	1839.49
793.54	2325.88
793.73	2765.37
793.91	3294.77
794.10	3864.11
794.28	4318.76
794.46	4305.24
794.65	4216.36
794.83	3526.60
795.01	3387.75
795.20	3402.70
795.38	3196.47
795.57	3141.38
795.75	3015.22
795.93	2773.36
796.12	2702.29
796.30	2673.62
796.49	2568.56
796.67	2267.10
796.85	2337.14
797.04	2186.00
797.22	2179.45
797.40	1882.29
797.59	2008.85
797.77	2011.31
797.96	1883.52
798.14	1845.42
798.32	1854.85
798.51	2015.20
798.69	2195.42
798.87	1907.89
799.06	1875.94
799.24	1792.59
799.42	2220.41
799.61	2530.06
799.79	2839.10
799.98	3354.37
800.16	3394.71
800.34	4115.19
800.53	4970.62
800.71	5227.24
800.89	6023.28
801.08	6192.24
801.26	6166.84
801.44	5246.69
801.63	4524.37
801.81	4463.75
801.99	4136.90
802.18	3885.00
802.36	3752.70
802.54	3516.77
802.73	3132.98
802.91	3054.55
803.09	2875.96
803.28	2725.64
803.46	2583.72
803.64	2613.62
803.83	2126.41
804.01	2038.34
804.19	1945.98
804.38	2171.87
804.56	2119.03
804.74	1992.47
804.92	2034.45
805.11	1901.95
805.29	2111.05
805.47	1911.57
805.66	1834.78
805.84	1845.63
806.02	2063.53
806.21	1887.61
806.39	2051.66
806.57	2090.16
806.76	2049.40
806.94	1970.76
807.12	1910.96
807.30	1925.91
807.49	2037.52
807.67	2032.81
807.85	2117.19
808.04	2147.30
808.22	2287.99
808.40	1851.98
808.58	1832.32
808.77	2028.31
808.95	2218.77
809.13	2360.49
809.31	3653.99
809.50	4972.06
809.68	5667.14
809.86	6206.98
810.05	6710.17
810.23	7346.27
810.41	9108.75
810.59	14142.66
810.78	17217.27
810.96	19873.28
811.14	21438.75
811.32	20873.51
811.51	17118.77
811.69	13832.60
811.87	13773.20
812.05	12016.25
812.24	11392.65
812.42	10574.07
812.60	9515.89
812.78	8116.92
812.97	7007.13
813.15	6438.40
813.33	5630.89
813.51	4961.41
813.70	4093.28
813.88	3446.12
814.06	3073.18
814.24	2657.03
814.42	2244.98
814.61	2269.15
814.79	2323.22
814.97	1884.34
815.15	1945.16
815.34	2014.38
815.52	2094.46
815.70	1821.67
815.88	1860.99
816.06	1842.35
816.25	1872.46
816.43	1807.13
816.61	2000.46
816.79	2135.21
816.98	1815.52
817.16	1883.11
817.34	1840.30
817.52	2016.02
817.70	2187.64
817.89	1903.38
818.07	1805.28
818.25	1930.01
818.43	1944.96
818.61	1899.49
818.80	1847.68
818.98	2151.39
819.16	1914.44
819.34	1768.01
819.52	2085.86
819.70	1818.19
819.89	1907.27
820.07	1745.48
820.25	1734.42
820.43	1958.47
820.61	2025.65
820.80	1859.97
820.98	1777.02
821.16	1730.53
821.34	1736.88
821.52	1852.59
821.70	1923.86
821.89	1897.65
822.07	1874.51
822.25	1838.87
822.43	1784.80
822.61	2070.91
822.79	1926.73
822.98	1845.42
823.16	1674.42
823.34	1925.91
823.52	2057.18
823.70	1964.82
823.88	1725.41
824.06	1953.35
824.25	1878.40
824.43	1988.78
824.61	1855.46
824.79	1967.89
824.97	2026.47
825.15	2119.03
825.33	2468.83
825.52	2924.91
825.70	3136.26
825.88	3318.94
826.06	3580.46
826.24	3610.98
826.42	3362.56
826.60	2967.10
826.78	2962.39
826.97	2731.17
827.15	2848.93
827.33	2497.70
827.51	2578.60
827.69	2394.89
827.87	2406.98
828.05	2334.07
828.23	2101.83
828.41	2303.76
828.60	2234.54
828.78	1904.20
828.96	2030.56
829.14	1911.57
829.32	1898.88
829.50	1862.63
829.68	1848.50
829.86	1864.06
830.04	1992.67
830.22	1913.21
830.41	1776.82
830.59	1909.73
830.77	1963.80
830.95	1831.91
831.13	1819.01
831.31	1821.05
831.49	2008.65
831.67	1996.36
831.85	1980.18
832.03	1875.32
832.21	1998.41
832.39	1788.49
832.57	1813.68
832.76	2035.89
832.94	1910.35
833.12	1715.58
833.30	1858.53
833.48	2052.06
833.66	1960.73
833.84	1823.10
834.02	1896.21
834.20	2028.92
834.38	2003.94
834.56	1701.04
834.74	1777.64
834.92	1754.90
835.10	2110.64
835.28	1910.35
835.46	1876.55
835.64	1853.00
835.82	1797.91
836.01	2087.08
836.19	2005.78
836.37	1843.58
836.55	1797.71
836.73	1781.94
836.91	1759.61
837.09	1948.64
837.27	2097.32
837.45	1725.00
837.63	1783.99
837.81	1775.79
837.99	1941.68
838.17	1903.38
838.35	1883.93
838.53	2284.71
838.71	2094.87
838.89	1937.38
839.07	1948.23
839.25	2046.13
839.43	2147.50
839.61	2186.82
839.79	3142.61
839.97	4081.19
840.15	4597.08
840.33	4997.04
840.51	5393.53
840.69	5136.31
840.87	4398.83
841.05	4068.70
841.23	4223.73
841.41	5078.55
841.59	6882.81
841.77	7622.54
841.95	8250.45
842.13	8926.89
842.31	8455.24
842.49	6922.95
842.67	6081.65
842.85	5956.93
843.03	5242.60
843.21	4987.21
843.39	4753.95
843.57	4360.33
843.75	4048.42
843.93	3582.51
844.11	3278.80
844.29	3120.69
844.47	2887.23
844.65	2876.99
844.83	2556.68
845.01	2375.64
845.19	2364.79
845.36	2112.27
845.54	2104.29
845.72	2033.43
845.90	2055.14
846.08	1807.74
846.26	1907.07
846.44	1977.93
846.62	1991.65
846.80	1905.84
846.98	1791.56
847.16	1895.80
847.34	1916.49
847.52	1742.82
847.70	1765.55
847.88	1868.16
848.06	2069.47
848.24	1907.27
848.41	1740.36
848.59	2032.81
848.77	1933.49
848.95	1806.10
849.13	1804.06
849.31	1979.16
849.49	1943.11
849.67	1787.47
849.85	1760.43
850.03	1926.11
850.21	1923.66
850.39	1793.82
850.57	1921.20
850.74	2078.07
850.92	2090.57
851.10	2200.95
851.28	2480.50
851.46	2825.58
851.64	3229.03
851.82	3021.37
852.00	3023.42
852.18	3018.09
852.36	2728.92
852.53	2515.11
852.71	2561.60
852.89	2467.39
853.07	2455.72
853.25	2264.03
853.43	2125.38
853.61	2213.65
853.79	2192.35
853.97	2026.47
854.14	1959.91
854.32	2189.48
854.50	2095.89
854.68	1895.60
854.86	1870.41
855.04	1813.68
855.22	2022.98
855.40	1729.71
855.57	1830.27
855.75	1993.49
855.93	1939.22
856.11	1697.97
856.29	1781.32
856.47	1802.83
856.65	1925.91
856.82	1778.05
857.00	1721.52
857.18	1866.52
857.36	1837.64
857.54	1874.10
857.72	1982.64
857.89	1941.68
858.07	1921.81
858.25	1985.71
858.43	1729.71
858.61	1850.13
858.79	1890.68
858.97	1778.05
859.14	1879.42
859.32	1841.74
859.50	1838.26
859.68	1907.07
859.86	1834.98
860.03	1979.36
860.21	2004.96
860.39	1852.18
860.57	1945.37
860.75	1984.07
860.93	2154.67
861.10	2013.15
861.28	1872.87
861.46	1960.32
861.64	2020.32
861.82	1875.12
861.99	1959.70
862.17	2030.36
862.35	2046.13
862.53	1910.75
862.71	1871.64
862.88	1948.85
863.06	1986.94
863.24	1840.92
863.42	1772.93
863.60	1858.12
863.77	1969.12
863.95	1662.54
864.13	1852.80
864.31	1848.29
864.49	1970.76
864.66	1720.09
864.84	1817.37
865.02	1920.59
865.20	2217.95
865.37	1891.09
865.55	1818.39
865.73	1765.35
865.91	2048.58
866.09	2043.46
866.26	2065.17
866.44	2175.76
866.62	2058.21
866.80	1942.70
866.97	2002.91
867.15	1998.00
867.33	2022.37
867.51	2050.22
867.68	1935.13
867.86	1922.63
868.04	1891.50
868.22	1740.77
868.39	1861.19
868.57	1972.19
868.75	2089.75
868.93	1732.79
869.10	1786.24
869.28	2135.21
869.46	2052.88
869.64	1854.23
869.81	1830.88
869.99	1937.17
870.17	1904.41
870.35	1777.43
870.52	1801.60
870.70	2004.14
870.88	1794.23
871.05	1737.29
871.23	1667.05
871.41	1877.78
871.59	1878.19
871.76	1825.76
871.94	1774.97
872.12	1875.73
872.29	1721.93
872.47	1810.61
872.65	1748.15
872.83	1919.15
873.00	2064.15
873.18	1843.17
873.36	1782.14
873.53	1943.52
873.71	1747.12
873.89	1764.73
874.06	1872.66
874.24	1940.04
874.42	2075.21
874.60	1952.94
874.77	1865.90
874.95	1778.46
875.13	2033.43
875.30	1792.79
875.48	1855.05
875.66	2110.84
875.83	1820.23
876.01	1856.89
876.19	2008.03
876.36	1809.59
876.54	1920.79
876.72	1767.19
876.89	1942.50
877.07	1977.93
877.25	1696.54
877.42	1866.72
877.60	1844.81
877.78	2121.29
877.95	1825.97
878.13	1785.01
878.31	1915.47
878.48	1982.64
878.66	1988.17
878.84	1799.96
879.01	1865.70
879.19	1934.31
879.37	1980.18
879.54	1811.22
879.72	1725.00
879.90	1664.79
880.07	1992.47
880.25	1602.74
880.42	1922.63
880.60	1906.45
880.78	1972.81
880.95	1842.15
881.13	1842.56
881.31	1884.54
881.48	1813.68
881.66	1790.54
881.83	1890.28
882.01	1775.59
882.19	1711.28
882.36	1865.70
882.54	1832.11
882.72	1956.01
882.89	1896.21
883.07	1736.06
883.24	1831.70
883.42	1967.07
883.60	1890.68
883.77	1749.37
883.95	1826.79
884.12	2045.72
884.30	1977.52
884.48	2033.02
884.65	1974.04
884.83	2017.25
885.00	1994.11
885.18	1827.40
885.36	1863.24
885.53	2001.07
885.71	2100.40
885.88	1772.72
886.06	1839.08
886.23	1969.12
886.41	1834.78
886.59	1813.68
886.76	1791.77
886.94	1965.44
887.11	2235.97
887.29	1857.92
887.47	1757.98
887.64	2029.54
887.82	2055.96
887.99	1692.24
888.17	1872.05
888.34	1839.49
888.52	1742.41
888.69	1853.62
888.87	1730.33
889.05	1821.87
889.22	1823.10
889.40	1793.82
889.57	1960.11
889.75	2062.92
889.92	1850.34
890.10	1738.73
890.27	1830.68
890.45	1826.17
890.62	1672.37
890.80	1745.89
890.98	1676.06
891.15	2069.88
891.33	1969.74
891.50	1749.58
891.68	1710.67
891.85	1939.43
892.03	1932.67
892.20	1775.18
892.38	1743.85
892.55	1994.11
892.73	1945.37
892.90	1749.78
893.08	1790.13
893.25	1790.74
893.43	1802.83
893.60	1926.11
893.78	1633.05
893.95	1903.38
894.13	1848.29
894.30	1752.45
894.48	1831.09
894.65	1960.93
894.83	1875.73
895.00	1653.33
895.18	1667.66
895.35	1986.53
895.53	1957.65
895.70	1744.87
895.88	1916.49
896.05	1959.70
896.23	1737.29
896.40	1819.01
896.58	1878.60
896.75	1999.02
896.93	2071.73
897.10	1816.75
897.28	1726.64
897.45	1916.90
897.63	1951.30
897.80	1926.73
897.98	1830.27
898.15	1931.23
898.33	1795.45
898.50	1880.85
898.67	1821.26
898.85	1827.61
899.02	1948.44
899.20	1978.34
899.37	1825.56
899.55	1914.03
899.72	2062.10
899.90	1788.29
900.07	1773.34
900.25	1935.13
900.42	2022.16
900.59	1806.72
900.77	1906.25
900.94	1946.18
901.12	1913.42
901.29	1781.73
901.47	1923.25
901.64	1925.30
901.82	1848.70
901.99	1610.93
902.16	1749.99
902.34	2016.63
902.51	1902.36
902.69	1788.08
902.86	1859.56
903.03	2333.66
903.21	1860.58
903.38	1837.23
903.56	1764.12
903.73	1995.34
903.91	1837.03
904.08	1734.63
904.25	1669.09
904.43	1816.96
904.60	1989.40
904.78	1806.10
904.95	1717.02
905.12	1854.85
905.30	2100.60
905.47	1942.29
905.65	1956.42
905.82	1906.45
905.99	1997.18
906.17	1901.54
906.34	1837.23
906.52	1867.54
906.69	2057.18
906.86	2006.80
907.04	1948.64
907.21	2065.99
907.38	2071.11
907.56	1832.52
907.73	1814.09
907.91	2098.96
908.08	2036.50
908.25	1801.39
908.43	1776.20
908.60	1944.14
908.77	1907.89
908.95	1814.91
909.12	1755.52
909.30	1971.78
909.47	1741.18
909.64	1846.04
909.82	1971.37
909.99	1844.20
910.16	1888.23
910.34	1748.97
910.51	1797.30
910.68	1922.02
910.86	1893.96
911.03	1763.71
911.20	2004.76
911.38	2714.17
911.55	3702.32
911.72	4092.46
911.90	4275.54
912.07	4634.96
912.24	4669.37
912.42	3761.50
912.59	3049.63
912.76	3069.09
912.94	2713.35
913.11	2492.99
913.28	2325.06
913.46	2243.96
913.63	2323.42
913.80	2449.37
913.98	2154.67
914.15	2329.36
914.32	2292.09
914.49	2139.51
914.67	1988.37
914.84	2131.94
915.01	2174.33
915.19	2048.17
915.36	1938.20
915.53	2150.78
915.71	2047.76
915.88	1971.17
916.05	1832.11
916.22	2029.74
916.40	1931.23
916.57	1793.82
916.74	1905.84
916.92	2060.87
917.09	1769.45
917.26	1777.64
917.43	1737.09
917.61	1837.03
917.78	1706.16
917.95	1668.48
918.13	1737.29
918.30	2148.52
918.47	1906.04
918.64	1792.79
918.82	1788.70
918.99	1920.18
919.16	2169.41
919.33	1947.41
919.51	1909.94
919.68	1959.29
919.85	2127.84
920.02	1768.42
920.20	1868.36
920.37	2113.09
920.54	2033.84
920.71	1780.91
920.89	1817.78
921.06	2132.55
921.23	1857.92
921.40	1821.46
921.58	2144.02
921.75	2685.50
921.92	2295.77
922.09	2382.20
922.27	2418.65
922.44	2371.34
922.61	2289.63
922.78	2054.52
922.96	1993.49
923.13	1992.88
923.30	2125.59
923.47	1823.72
923.64	1873.89
923.82	1997.79
923.99	2011.72
924.16	1926.73
924.33	1798.32
924.50	1933.69
924.68	2129.27
924.85	1768.42
925.02	1849.11
925.19	2010.08
925.36	1961.95
925.54	1899.70
925.71	1879.22
925.88	2289.42
926.05	1857.92
926.22	1779.89
926.40	1864.68
926.57	1919.36
926.74	1974.65
926.91	1770.06
927.08	1967.07
927.26	1976.90
927.43	1895.80
927.60	1763.10
927.77	1845.22
927.94	2070.50
928.11	2022.16
928.29	1714.56
928.46	1841.94
928.63	1795.86
928.80	1868.98
928.97	1912.19
929.14	1745.48
929.32	2146.68
929.49	1889.05
929.66	1753.88
929.83	1703.09
930.00	1823.51
930.17	1932.05
930.35	1699.81
930.52	1769.65
930.69	2086.68
930.86	1749.99
931.03	1876.96
931.20	1611.14
931.37	2018.68
931.55	1872.05
931.72	1817.16
931.89	1703.50
932.06	1773.54
932.23	2088.11
932.40	1893.76
932.57	1897.03
932.74	2033.63
932.92	2012.54
933.09	1933.49
933.26	1561.58
933.43	1833.14
933.60	1929.80
933.77	1843.58
933.94	1867.54
934.11	1854.03
934.29	1910.14
934.46	1717.43
934.63	1876.14
934.80	1738.11
934.97	1904.20
935.14	1842.56
935.31	1721.73
935.48	1831.70
935.65	1941.68
935.82	1861.60
936.00	1732.99
936.17	2070.91
936.34	1871.43
936.51	1898.06
936.68	1726.85
936.85	1946.18
937.02	1902.36
937.19	1890.48
937.36	1814.91
937.53	1918.54
937.70	1991.24
937.87	1831.09
938.05	1900.31
938.22	1893.96
938.39	1763.51
938.56	1823.92
938.73	1743.23
938.90	1857.10
939.07	1794.43
939.24	1833.14
939.41	1661.72
939.58	1940.45
939.75	1961.75
939.92	1743.64
940.09	1954.38
940.26	1865.29
940.43	1970.76
940.60	1784.40
940.77	1783.37
940.95	1895.40
941.12	1963.80
941.29	1801.60
941.46	1838.26
941.63	2012.33
941.80	2043.87
941.97	1702.27
942.14	1708.21
942.31	2007.01
942.48	1859.76
942.65	1890.89
942.82	1795.45
942.99	1926.73
943.16	1870.41
943.33	1710.26
943.50	1792.18
943.67	1966.46
943.84	2021.35
944.01	1781.73
944.18	1736.27
944.35	2040.80
944.52	1766.99
944.69	1838.46
944.86	1692.24
945.03	1976.90
945.20	2211.60
945.37	1687.73
945.54	1824.94
945.71	2050.43
945.88	2100.19
946.05	1758.18
946.22	1742.00
946.39	2041.62
946.56	1865.29
946.73	1705.75
946.90	1750.81
947.07	1838.05
947.24	1886.79
947.41	1661.72
947.58	1918.74
947.75	1957.86
947.92	1928.37
948.09	1590.66
948.26	1684.04
948.43	1915.26
948.60	2112.07
948.77	1755.72
948.94	1799.55
949.11	1977.93
949.27	1944.34
949.44	1765.35
949.61	1765.14
949.78	1908.50
949.95	2027.28
950.12	1737.50
950.29	1712.72
950.46	1812.25
950.63	1996.36
950.80	1761.05
950.97	1802.62
951.14	1999.23
951.31	1835.80
951.48	1765.55
951.65	1701.66
951.82	2139.92
951.99	1894.37
952.15	1668.89
952.32	1768.42
952.49	1794.64
952.66	1806.10
952.83	1729.10
953.00	1723.78
953.17	1862.63
953.34	1993.90
953.51	1825.35
953.68	1809.99
953.85	2002.30
954.02	2031.58
954.18	1816.55
954.35	1830.27
954.52	1779.89
954.69	1902.77
954.86	1716.40
955.03	1811.43
955.20	1943.52
955.37	1875.12
955.54	1786.44
955.71	1767.81
955.87	1931.23
956.04	2089.95
956.21	1782.96
956.38	1740.16
956.55	1861.81
956.72	2172.08
956.89	1813.07
957.06	1769.45
957.23	1819.01
957.39	2009.67
957.56	1773.13
957.73	1726.64
957.90	1636.12
958.07	2093.43
958.24	1821.87
958.41	1761.46
958.57	1976.49
958.74	1887.00
958.91	1701.66
959.08	1780.30
959.25	1948.85
959.42	1836.21
959.59	1839.49
959.75	1763.10
959.92	2011.31
960.09	1980.39
960.26	1745.28
960.43	1846.65
960.60	1896.42
960.76	1861.60
960.93	1693.87
961.10	1857.30
961.27	1989.40
961.44	1870.82
961.61	1718.45
961.77	1701.04
961.94	1885.16
962.11	1988.99
962.28	1787.26
962.45	1706.16
962.62	1846.65
962.78	2013.56
962.95	1727.26
963.12	1755.31
963.29	1935.94
963.46	2218.77
963.62	1824.94
963.79	1778.05
963.96	2175.35
964.13	1828.63
964.30	1875.94
964.46	1768.83
964.63	1769.85
964.80	2225.32
964.97	1675.24
965.14	1942.70
965.30	2048.79
965.47	2156.51
965.64	2054.52
965.81	2017.04
965.98	2187.64
966.14	1997.18
966.31	1868.57
966.48	1842.97
966.65	2111.87
966.81	1987.35
966.98	1840.71
967.15	1868.98
967.32	1935.54
967.49	1833.96
967.65	1688.55
967.82	1658.24
967.99	1899.70
968.16	1708.01
968.32	1942.50
968.49	1798.73
968.66	1876.96
968.83	2091.39
968.99	1847.06
969.16	1732.79
969.33	2050.84
969.50	1953.76
969.66	1909.32
969.83	2000.87
970.00	1971.58
970.17	1949.67
970.33	1782.55
970.50	1718.25
970.67	2070.09
970.84	2055.55
971.00	1737.91
971.17	1697.97
971.34	1979.98
971.50	1865.70
971.67	1891.30
971.84	1824.33
972.01	1743.44
972.17	1644.11
972.34	1719.06
972.51	1876.76
972.67	2006.39
972.84	1933.08
973.01	1727.05
973.18	1764.94
973.34	1973.42
973.51	1753.88
973.68	1809.99
973.84	1809.59
974.01	1830.88
974.18	2096.10
974.34	1878.19
974.51	1871.02
974.68	1803.44
974.85	2166.55
975.01	1892.73
975.18	1799.55
975.35	1867.54
975.51	1805.28
975.68	1660.49
975.85	1936.76
976.01	1798.12
976.18	2042.03
976.35	1796.48
976.51	1763.51
976.68	2090.36
976.85	2034.66
977.01	1826.38
977.18	1863.65
977.35	1962.16
977.51	1742.41
977.68	1619.53
977.85	1695.10
978.01	1994.72
978.18	1969.12
978.35	1816.14
978.51	1817.57
978.68	1995.13
978.85	2084.22
979.01	1766.58
979.18	1836.21
979.34	1853.82
979.51	1910.35
979.68	1726.03
979.84	1815.11
980.01	2226.96
980.18	1897.65
980.34	1763.71
980.51	1866.31
980.67	1985.51
980.84	1998.82
981.01	1779.68
981.17	1852.59
981.34	1676.26
981.51	1957.24
981.67	1722.75
981.84	1909.94
982.00	1951.10
982.17	1860.17
982.34	1654.35
982.50	1589.43
982.67	2070.09
982.83	1792.38
983.00	1708.62
983.17	1590.25
983.33	1992.67
983.50	1684.04
983.66	1719.06
983.83	1596.19
984.00	1818.60
984.16	1873.48
984.33	1608.07
984.49	1597.01
984.66	1777.43
984.83	1977.31
984.99	1670.73
985.16	1600.69
985.32	1966.46
985.49	1969.74
985.65	1729.71
985.82	1630.59
985.99	2034.45
986.15	1908.30
986.32	1713.33
986.48	1675.24
986.65	1830.47
986.81	1968.51
986.98	1639.60
987.14	1658.04
987.31	1882.70
987.48	1712.92
987.64	1556.46
987.81	1573.66
987.97	2123.54
988.14	1772.52
988.30	1634.69
988.47	1523.48
988.63	1905.23
988.80	1772.11
988.96	1695.31
989.13	1698.38
989.30	1832.11
989.46	1990.01
989.63	1580.01
989.79	1592.91
989.96	1845.83
990.12	2055.96
990.29	1664.79
990.45	1684.86
990.62	1862.01
990.78	2021.35
990.95	1758.18
991.11	1636.74
991.28	1789.31
991.44	1917.92
991.61	1537.82
991.77	1686.09
991.94	1894.17
992.10	1989.40
992.27	1706.57
992.43	1661.93
992.60	1912.19
992.76	1824.13
992.93	1826.99
993.09	1614.62
993.26	1992.88
993.42	2062.51
993.59	1668.07
993.75	1575.71
993.92	1769.24
994.08	1791.77
994.25	1724.80
994.41	1630.59
994.58	1944.75
994.74	2070.29
994.91	1599.26
995.07	1717.84
995.24	1843.99
995.40	1847.47
995.56	1795.25
995.73	1722.75
995.89	2063.94
996.06	1858.94
996.22	1649.23
996.39	1549.90
996.55	1853.41
996.72	1920.38
996.88	1588.61
997.05	1611.55
997.21	2122.92
997.37	1942.91
997.54	1703.09
997.70	1678.92
997.87	1923.86
998.03	1850.95
998.20	1551.54
998.36	1590.86
998.52	1934.72
998.69	1976.29
998.85	1543.14
999.02	1668.07
999.18	2022.37
999.35	1977.72
999.51	1677.29
999.67	1650.25
999.84	1756.13
1000.00	1950.49
1000.17	1730.12
1000.33	1613.59
1000.49	1798.94
1000.66	1855.46
1000.82	1640.01
1000.99	1696.33
1001.15	2020.32
1001.31	1839.69
1001.48	1666.43
1001.64	1729.51
1001.81	1849.73
1001.97	2115.76
1002.13	1649.23
1002.30	1662.13
1002.46	2055.55
1002.63	1833.34
1002.79	1734.42
1002.95	1650.05
1003.12	2009.06
1003.28	1907.48
1003.45	1641.86
1003.61	1615.85
1003.77	1885.36
1003.94	1717.63
1004.10	1665.61
1004.26	1688.76
1004.43	1958.06
1004.59	2095.07
1004.75	1640.83
1004.92	1615.44
1005.08	1840.92
1005.25	1912.60
1005.41	1638.99
1005.57	1744.05
1005.74	2018.48
1005.90	1839.08
1006.06	1771.08
1006.23	1676.26
1006.39	1952.74
1006.55	2236.59
1006.72	1783.58
1006.88	1613.39
1007.04	1768.42
1007.21	1864.47
1007.37	1686.50
1007.53	1671.55
1007.70	2028.51
1007.86	1979.16
1008.02	1699.20
1008.19	1597.21
1008.35	1909.32
1008.51	1780.91
1008.68	1671.76
1008.84	1594.55
1009.00	1772.72
1009.17	1994.52
1009.33	1777.23
1009.49	1738.11
1009.65	1771.29
1009.82	1944.96
1009.98	1714.56
1010.14	1549.49
1010.31	1961.95
1010.47	1931.64
1010.63	1702.27
1010.80	1707.19
1010.96	1914.65
1011.12	1845.63
1011.28	1643.49
1011.45	1636.33
1011.61	2205.46
1011.77	1748.76
1011.94	1629.36
1012.10	1602.13
1012.26	1748.56
1012.42	1810.40
1012.59	1707.80
1012.75	1710.46
1012.91	1849.32
1013.07	1990.83
1013.24	1599.67
1013.40	1654.96
1013.56	1884.54
1013.72	1871.43
1013.89	1728.90
1014.05	1718.45
1014.21	2108.79
1014.37	2181.29
1014.54	1706.78
1014.70	1615.03
1014.86	1840.30
1015.02	1734.02
1015.19	1671.35
1015.35	1608.27
1015.51	1860.99
1015.67	1826.79
1015.84	1610.93
1016.00	1649.23
1016.16	2002.30
1016.32	1969.53
1016.49	1655.99
1016.65	1596.19
1016.81	1843.17
1016.97	1958.06
1017.14	1750.60
1017.30	1640.22
1017.46	1778.66
1017.62	1915.26
1017.78	1727.05
1017.95	1613.18
1018.11	1985.92
1018.27	2168.59
1018.43	1753.27
1018.59	1727.26
1018.76	1950.90
1018.92	2197.68
1019.08	1626.09
1019.24	1666.23
1019.40	2044.69
1019.57	1879.83
1019.73	1740.36
1019.89	1669.30
1020.05	1899.49
1020.21	2132.55
1020.38	1624.24
1020.54	1791.56
1020.70	1936.76
1020.86	1961.13
1021.02	1674.42
1021.18	1614.41
1021.35	1803.24
1021.51	1931.23
1021.67	1813.27
1021.83	1666.02
1021.99	1864.06
1022.15	1925.91
1022.32	1748.15
1022.48	1689.16
1022.64	2039.16
1022.80	2048.79
1022.96	1692.65
1023.12	1620.56
1023.29	1970.56
1023.45	1932.46
1023.61	1640.22
1023.77	1799.14
1023.93	1871.43
1024.09	1791.56
1024.25	1642.88
1024.42	1605.81
1024.58	1808.36
1024.74	1884.13
1024.90	1669.30
1025.06	1705.55
1025.22	1813.48
1025.38	2072.75
1025.54	1603.35
1025.71	1730.33
1025.87	1933.49
1026.03	1905.43
1026.19	1634.89
1026.35	1799.96
1026.51	1942.50
1026.67	1852.80
1026.83	1738.93
1026.99	1782.76
1027.16	1904.41
1027.32	2033.02
1027.48	1696.54
1027.64	1654.35
1027.80	1925.71
1027.96	1884.13
1028.12	1659.06
1028.28	1599.87
1028.44	1923.86
1028.60	2070.29
1028.77	1761.87
1028.93	1715.38
1029.09	1818.80
1029.25	1744.05
1029.41	1688.96
1029.57	1760.02
1029.73	1908.30
1029.89	2056.57
1030.05	1789.31
1030.21	1743.44
1030.37	2164.50
1030.53	1972.60
1030.69	1676.67
1030.85	1589.43
1031.02	1759.21
1031.18	1873.48
1031.34	1672.58
1031.50	1747.33
1031.66	1775.18
1031.82	2048.17
1031.98	1697.15
1032.14	1630.59
1032.30	1742.41
1032.46	1957.24
1032.62	1792.18
1032.78	1607.66
1032.94	1782.55
1033.10	1826.79
1033.26	1709.85
1033.42	1777.23
1033.58	2119.85
1033.74	1838.46
1033.90	1652.51
1034.06	1847.27
1034.22	2144.43
1034.38	2000.46
1034.54	1690.60
1034.70	1707.19
1034.86	2106.54
>>>>>End Processed Spectral Data<<<<<
