SpectraSuite Data File
++++++++++++++++++++++++++++++++++++
Date: Thu Mar 30 15:50:33 PDT 2017
User: UCSD _CER
Dark Spectrum Present: No
Reference Spectrum Present: No
Number of Sampled Component Spectra: 1
Spectrometers: USB4C00073
Integration Time (usec): 250000 (USB4C00073)
Spectra Averaged: 10 (USB4C00073)
Boxcar Smoothing: 0 (USB4C00073)
Correct for Electrical Dark: No (USB4C00073)
Strobe/Lamp Enabled: No (USB4C00073)
Correct for Detector Non-linearity: No (USB4C00073)
Correct for Stray Light: No (USB4C00073)
Number of Pixels in Processed Spectrum: 3648
>>>>>Begin Processed Spectral Data<<<<<
345.37	1268.72
345.58	1268.72
345.80	1268.72
346.01	1272.20
346.22	1264.83
346.43	1991.44
346.65	1776.61
346.86	2119.44
347.07	2104.70
347.28	1769.65
347.50	1790.54
347.71	1912.19
347.92	1719.06
348.13	1785.62
348.35	1718.04
348.56	1907.48
348.77	1774.56
348.98	1829.86
349.20	1656.19
349.41	1921.81
349.62	2000.25
349.83	1862.83
350.05	1741.59
350.26	1958.88
350.47	2093.23
350.68	1786.65
350.90	1736.47
351.11	2103.67
351.32	2087.49
351.53	1841.33
351.75	1763.92
351.96	1974.24
352.17	1932.67
352.38	1860.17
352.60	1884.75
352.81	1951.30
353.02	2168.39
353.23	1779.48
353.44	1837.64
353.66	1862.01
353.87	1908.50
354.08	1931.85
354.29	1826.79
354.51	1852.59
354.72	1892.94
354.93	1770.67
355.14	1730.94
355.35	1739.75
355.57	2050.22
355.78	1819.01
355.99	1893.35
356.20	1942.70
356.42	1909.94
356.63	1928.78
356.84	1851.16
357.05	2062.92
357.26	2214.06
357.48	1935.54
357.69	1873.07
357.90	1987.35
358.11	1882.90
358.32	1846.04
358.54	1870.82
358.75	1891.50
358.96	1994.11
359.17	1814.71
359.38	1813.68
359.60	1995.13
359.81	1908.71
360.02	1809.79
360.23	1772.31
360.44	1861.81
360.66	2037.11
360.87	1769.04
361.08	1748.97
361.29	1942.91
361.50	1930.82
361.72	1829.25
361.93	1856.07
362.14	1925.50
362.35	1724.39
362.56	1922.63
362.77	1744.05
362.99	2003.94
363.20	1953.76
363.41	1871.43
363.62	1702.68
363.83	1965.44
364.05	2010.49
364.26	1706.57
364.47	1762.69
364.68	2074.18
364.89	1811.43
365.10	1750.40
365.32	1822.28
365.53	1781.94
365.74	1854.85
365.95	1816.55
366.16	1709.64
366.37	1910.35
366.59	1872.66
366.80	1824.74
367.01	1667.87
367.22	2179.86
367.43	2269.97
367.64	1828.84
367.86	1789.52
368.07	1982.43
368.28	2088.93
368.49	1748.97
368.70	1845.83
368.91	1876.35
369.12	1906.45
369.34	1719.06
369.55	1739.75
369.76	1891.50
369.97	1862.22
370.18	1743.85
370.39	1761.87
370.60	1758.39
370.82	1807.95
371.03	1804.87
371.24	1775.38
371.45	2015.82
371.66	1982.43
371.87	1839.49
372.08	1796.07
372.30	1818.80
372.51	2075.41
372.72	1932.26
372.93	1815.32
373.14	2132.55
373.35	1841.94
373.56	1762.69
373.78	1840.51
373.99	2024.62
374.20	2310.31
374.41	1808.36
374.62	1809.38
374.83	2098.35
375.04	1867.95
375.25	1843.79
375.47	1776.00
375.68	1880.44
375.89	2028.31
376.10	1839.08
376.31	1900.31
376.52	1978.75
376.73	1975.27
376.94	1823.51
377.15	1784.60
377.37	1922.22
377.58	1906.45
377.79	1723.37
378.00	1757.36
378.21	1974.45
378.42	2016.63
378.63	1855.05
378.84	1895.60
379.05	2049.20
379.27	1931.85
379.48	1941.06
379.69	1800.16
379.90	2078.28
380.11	1721.11
380.32	1858.94
380.53	1952.53
380.74	2106.95
380.95	1960.32
381.16	1834.37
381.37	1819.42
381.59	2093.43
381.80	2065.17
382.01	1791.56
382.22	1730.74
382.43	2010.70
382.64	1960.52
382.85	1777.23
383.06	1905.43
383.27	2037.32
383.48	1930.21
383.69	1892.12
383.91	1813.27
384.12	2048.38
384.33	2081.35
384.54	1946.80
384.75	1823.51
384.96	2416.81
385.17	2169.21
385.38	1890.68
385.59	1852.80
385.80	2074.80
386.01	2188.25
386.22	1966.87
386.43	1923.45
386.64	2268.33
386.86	1992.26
387.07	2000.25
387.28	1796.68
387.49	1933.49
387.70	2144.63
387.91	1967.28
388.12	1841.33
388.33	2037.32
388.54	1894.99
388.75	1864.68
388.96	1878.60
389.17	1867.13
389.38	1892.12
389.59	1890.07
389.80	1872.46
390.01	1939.22
390.22	1887.41
390.43	1974.24
390.64	1720.09
390.86	2004.96
391.07	2099.78
391.28	1849.52
391.49	1893.35
391.70	1795.86
391.91	1868.57
392.12	1855.25
392.33	1846.04
392.54	1932.87
392.75	1927.34
392.96	1929.39
393.17	1790.33
393.38	2227.99
393.59	2073.57
393.80	1763.30
394.01	1851.98
394.22	1951.10
394.43	2207.71
394.64	1847.88
394.85	1959.70
395.06	1936.56
395.27	1975.88
395.48	1851.77
395.69	1747.74
395.90	1903.38
396.11	1915.47
396.32	1783.37
396.53	1937.58
396.74	1923.86
396.95	2034.25
397.16	1776.82
397.37	1727.46
397.58	2044.28
397.79	1903.79
398.00	1857.71
398.21	1823.72
398.42	1948.64
398.63	2205.66
398.84	1824.74
399.05	1790.74
399.26	2093.43
399.47	2022.57
399.68	1671.35
399.89	1771.29
400.10	1805.49
400.31	1868.36
400.52	1892.73
400.73	1836.62
400.94	1811.02
401.15	2039.78
401.36	1880.24
401.57	1914.03
401.78	2117.19
401.99	2067.63
402.20	1756.34
402.41	1942.50
402.62	2118.01
402.83	1893.55
403.04	1790.95
403.25	1988.17
403.46	2003.32
403.67	2187.44
403.88	1928.78
404.09	1914.44
404.30	1960.93
404.51	1929.60
404.72	1836.00
404.93	1970.97
405.14	1867.13
405.35	1921.61
405.56	1827.40
405.77	1803.24
405.98	1960.11
406.19	1928.16
406.40	1810.20
406.61	1875.94
406.82	1970.76
407.03	2283.69
407.24	1836.62
407.45	1916.08
407.66	2028.92
407.87	2100.60
408.08	1899.29
408.29	1918.13
408.49	2036.91
408.70	1918.13
408.91	1855.66
409.12	1903.59
409.33	1797.50
409.54	2080.33
409.75	1788.29
409.96	1833.55
410.17	2052.06
410.38	1911.57
410.59	1816.14
410.80	1920.18
411.01	1914.85
411.22	1929.19
411.43	1859.35
411.64	1777.64
411.85	1822.69
412.06	1814.30
412.27	1654.76
412.47	1813.68
412.68	1941.27
412.89	2024.42
413.10	1853.82
413.31	1744.87
413.52	2187.44
413.73	2153.64
413.94	1795.25
414.15	1937.17
414.36	1874.51
414.57	1837.23
414.78	1769.44
414.99	1974.04
415.19	2362.54
415.40	2414.15
415.61	2505.69
415.82	2354.14
416.03	2395.10
416.24	2244.37
416.45	2030.15
416.66	1893.55
416.87	1806.72
417.08	2025.24
417.29	1822.90
417.50	1943.73
417.70	2113.09
417.91	2094.87
418.12	1973.01
418.33	2027.08
418.54	2214.47
418.75	2335.09
418.96	2382.61
419.17	2528.22
419.38	2979.79
419.59	2930.64
419.79	2816.78
420.00	2622.83
420.21	2826.61
420.42	2301.51
420.63	2043.46
420.84	2025.65
421.05	1982.64
421.26	1970.76
421.47	1761.46
421.67	2093.43
421.88	1862.63
422.09	1828.84
422.30	2058.00
422.51	1926.32
422.72	2233.51
422.93	2085.65
423.14	1897.24
423.35	1754.09
423.55	1752.04
423.76	1832.52
423.97	1843.38
424.18	1715.99
424.39	1925.71
424.60	2054.52
424.81	1880.44
425.02	2087.08
425.22	2199.72
425.43	2212.83
425.64	2382.81
425.85	2366.43
426.06	2658.88
426.27	2495.65
426.48	2402.27
426.68	2302.94
426.89	2455.72
427.10	2523.10
427.31	2151.39
427.52	1939.84
427.73	2169.62
427.94	2089.13
428.14	1986.73
428.35	1894.17
428.56	2113.91
428.77	2068.65
428.98	1936.97
429.19	1952.33
429.40	2060.05
429.60	2096.71
429.81	2147.30
430.02	2096.92
430.23	2057.59
430.44	2089.95
430.65	1884.34
430.85	1893.55
431.06	2018.48
431.27	1764.53
431.48	1825.76
431.69	1877.37
431.90	1948.23
432.10	1970.76
432.31	1968.71
432.52	2031.79
432.73	2572.86
432.94	2530.47
433.15	2360.08
433.35	2182.73
433.56	2362.33
433.77	2224.91
433.98	2591.29
434.19	2795.27
434.40	3057.82
434.60	3027.31
434.81	2923.27
435.02	2571.43
435.23	2381.79
435.44	2258.70
435.64	1956.63
435.85	1910.14
436.06	1966.05
436.27	1981.82
436.48	1899.49
436.68	1950.49
436.89	2318.71
437.10	2225.73
437.31	2092.00
437.52	2137.46
437.73	2133.78
437.93	2109.82
438.14	2002.30
438.35	1787.67
438.56	1927.96
438.77	1927.55
438.97	2000.25
439.18	1881.67
439.39	2287.79
439.60	2073.36
439.80	2017.04
440.01	2136.85
440.22	2056.37
440.43	2132.96
440.64	1853.82
440.84	1957.24
441.05	1847.68
441.26	2305.60
441.47	1905.02
441.68	1977.52
441.88	2290.45
442.09	2425.00
442.30	2648.23
442.51	2600.31
442.71	2490.53
442.92	2407.18
443.13	2118.42
443.34	2002.71
443.55	2019.71
443.75	2097.32
443.96	1843.58
444.17	1774.97
444.38	2069.68
444.58	1815.93
444.79	1893.35
445.00	1842.35
445.21	1911.78
445.41	1908.30
445.62	1632.44
445.83	1911.78
446.04	1954.38
446.24	1763.51
446.45	1655.78
446.66	1810.40
446.87	1969.74
447.07	1885.97
447.28	2046.74
447.49	1922.84
447.70	2111.25
447.90	2128.45
448.11	1903.18
448.32	1971.17
448.53	2120.06
448.73	2133.57
448.94	1873.48
449.15	1953.35
449.36	1955.61
449.56	1979.16
449.77	1831.91
449.98	1742.21
450.19	1945.78
450.39	2021.75
450.60	2031.38
450.81	2034.45
451.02	2067.63
451.22	2233.51
451.43	1910.75
451.64	1908.91
451.84	1956.22
452.05	2152.82
452.26	1925.09
452.47	1870.82
452.67	1883.52
452.88	2134.60
453.09	1821.67
453.30	1771.70
453.50	2054.73
453.71	2239.86
453.92	2000.66
454.12	2154.05
454.33	2069.68
454.54	2096.71
454.75	1901.74
454.95	1861.40
455.16	2021.55
455.37	2070.29
455.57	1899.49
455.78	1874.10
455.99	1921.20
456.19	1965.03
456.40	1801.39
456.61	1896.42
456.82	1945.98
457.02	2115.35
457.23	2096.92
457.44	2230.44
457.64	2094.66
457.85	2191.94
458.06	2029.33
458.26	2182.11
458.47	2057.18
458.68	2210.78
458.89	1957.24
459.09	2121.49
459.30	2320.96
459.51	2047.35
459.71	1795.04
459.92	1874.30
460.13	2218.56
460.33	2466.98
460.54	2085.04
460.75	2118.62
460.95	2072.54
461.16	2103.67
461.37	1922.22
461.57	1945.78
461.78	2016.63
461.99	1879.22
462.19	2093.43
462.40	1823.92
462.61	2414.56
462.81	2088.31
463.02	1792.18
463.23	1838.26
463.43	2042.03
463.64	1877.99
463.85	2662.56
464.05	1810.81
464.26	2351.48
464.47	2124.15
464.67	2000.05
464.88	1987.76
465.09	2002.09
465.29	2166.55
465.50	2192.35
465.71	2065.17
465.91	2033.63
466.12	2016.23
466.33	1953.97
466.53	1899.49
466.74	2147.91
466.94	1950.69
467.15	1899.29
467.36	2036.30
467.56	1861.19
467.77	1960.11
467.98	1861.60
468.18	1772.31
468.39	1877.37
468.60	2184.36
468.80	1894.58
469.01	1806.10
469.21	1999.43
469.42	2097.73
469.63	1913.21
469.83	1829.66
470.04	2098.55
470.25	2180.88
470.45	1931.85
470.66	1826.99
470.86	1978.34
471.07	1923.25
471.28	1927.96
471.48	2011.72
471.69	1997.38
471.90	2581.87
472.10	2108.59
472.31	2161.84
472.51	2159.17
472.72	2214.67
472.93	2159.99
473.13	2324.85
473.34	2332.64
473.54	2289.63
473.75	2130.50
473.96	2154.26
474.16	2029.54
474.37	2070.91
474.57	1927.55
474.78	1859.35
474.99	2024.01
475.19	2001.28
475.40	1828.22
475.60	1890.89
475.81	2357.21
476.02	2212.63
476.22	2205.05
476.43	2301.30
476.63	2114.73
476.84	2197.68
477.05	1783.99
477.25	1887.41
477.46	2368.89
477.66	1982.84
477.87	1779.28
478.08	1885.56
478.28	2064.97
478.49	1927.75
478.69	1802.62
478.90	1829.25
479.10	1997.18
479.31	2126.41
479.52	1927.14
479.72	2257.07
479.93	2594.57
480.13	2621.20
480.34	2638.19
480.54	2695.13
480.75	2353.53
480.96	2367.25
481.16	2015.82
481.37	2098.96
481.57	2181.91
481.78	2149.96
481.98	2171.05
482.19	2016.23
482.40	2261.98
482.60	2067.42
482.81	1974.65
483.01	1826.79
483.22	2036.09
483.42	2046.74
483.63	1959.50
483.83	1981.82
484.04	2035.07
484.24	2236.18
484.45	2159.38
484.66	1976.09
484.86	2171.05
485.07	1955.20
485.27	1950.69
485.48	1880.85
485.68	2132.55
485.89	1873.28
486.09	1976.29
486.30	1891.09
486.50	1990.42
486.71	1995.13
486.91	1938.61
487.12	2365.81
487.33	2971.19
487.53	3157.76
487.74	3055.57
487.94	2928.60
488.15	2630.41
488.35	2412.30
488.56	2176.99
488.76	2105.11
488.97	2130.91
489.17	2190.92
489.38	1998.61
489.58	2029.54
489.79	2136.44
489.99	2062.71
490.20	1967.07
490.40	2006.19
490.61	2050.22
490.81	1879.01
491.02	1902.15
491.22	1977.11
491.43	2055.96
491.63	1958.06
491.84	2004.55
492.04	1773.34
492.25	2012.74
492.45	1951.10
492.66	1932.87
492.86	1853.82
493.07	2011.11
493.27	2306.22
493.48	1797.30
493.68	1914.24
493.89	1922.22
494.09	2037.93
494.30	1875.32
494.50	2122.11
494.71	1991.85
494.91	1793.20
495.12	1852.59
495.32	1950.28
495.53	1949.05
495.73	1891.50
495.94	2063.12
496.14	1982.64
496.35	2480.50
496.55	2147.70
496.76	1984.69
496.96	2023.39
497.17	2004.76
497.37	2043.46
497.58	1884.95
497.78	1819.42
497.98	1939.43
498.19	1951.10
498.39	1880.44
498.60	1916.69
498.80	1743.44
499.01	2037.11
499.21	1836.21
499.42	1905.84
499.62	1896.83
499.83	2206.69
500.03	1820.23
500.24	2071.32
500.44	2261.78
500.64	2309.29
500.85	2089.54
501.05	2165.93
501.26	1896.01
501.46	2222.25
501.67	1921.20
501.87	1828.02
502.08	1889.05
502.28	1946.39
502.48	1980.39
502.69	2001.48
502.89	1812.04
503.10	1867.13
503.30	1894.37
503.51	1900.31
503.71	1828.63
503.92	2025.03
504.12	1945.37
504.32	1888.02
504.53	2034.45
504.73	2061.08
504.94	2003.12
505.14	2097.32
505.35	2116.17
505.55	2132.35
505.75	2076.03
505.96	2163.88
506.16	2362.13
506.37	1990.63
506.57	1914.44
506.78	1994.31
506.98	2144.84
507.18	1829.04
507.39	1850.95
507.59	1939.63
507.80	1881.47
508.00	2005.37
508.20	2075.82
508.41	1940.86
508.61	2118.83
508.82	2082.99
509.02	1997.79
509.22	1819.42
509.43	1837.64
509.63	1894.78
509.84	1894.99
510.04	1791.36
510.24	2141.97
510.45	2030.77
510.65	1806.10
510.86	1918.54
511.06	1840.10
511.26	2049.20
511.47	1978.54
511.67	1838.05
511.88	1999.02
512.08	2078.89
512.28	1801.60
512.49	1976.29
512.69	1970.56
512.90	1970.97
513.10	1852.39
513.30	1952.33
513.51	2062.51
513.71	2221.43
513.91	2070.50
514.12	2075.82
514.32	2163.68
514.53	1954.99
514.73	2000.46
514.93	1909.12
515.14	1969.12
515.34	2145.66
515.54	1941.88
515.75	2003.73
515.95	2068.45
516.15	2139.72
516.36	1987.76
516.56	2005.17
516.77	1725.41
516.97	2010.90
517.17	1883.93
517.38	1981.00
517.58	2131.73
517.78	1928.16
517.99	1960.11
518.19	1971.78
518.39	2167.57
518.60	1962.77
518.80	1906.04
519.00	2008.65
519.21	1942.50
519.41	2184.36
519.61	1848.50
519.82	1960.93
520.02	1968.30
520.22	1955.61
520.43	1893.96
520.63	1884.75
520.83	1868.36
521.04	1745.48
521.24	1934.51
521.44	1880.24
521.65	1832.52
521.85	2024.62
522.05	1818.80
522.26	1870.41
522.46	2149.55
522.66	2012.54
522.87	1850.54
523.07	2028.92
523.27	1866.93
523.48	2118.83
523.68	1923.66
523.88	1922.43
524.09	2073.16
524.29	1971.78
524.49	1733.81
524.70	2013.97
524.90	2116.99
525.10	2003.53
525.31	1794.23
525.51	1803.44
525.71	2022.98
525.91	2031.59
526.12	1843.99
526.32	1779.28
526.52	1893.96
526.73	1845.83
526.93	1920.79
527.13	1764.53
527.34	1920.18
527.54	1941.47
527.74	1855.87
527.94	1803.85
528.15	1826.38
528.35	1932.67
528.55	1976.70
528.76	1920.99
528.96	1756.13
529.16	2081.56
529.36	1998.61
529.57	1795.86
529.77	2096.10
529.97	1840.10
530.18	1964.41
530.38	1852.80
530.58	1997.59
530.78	1925.30
530.99	1846.45
531.19	1977.11
531.39	1873.07
531.60	1942.91
531.80	1846.04
532.00	2004.76
532.20	1941.47
532.41	1854.03
532.61	1873.69
532.81	1878.60
533.01	1916.49
533.22	2004.14
533.42	2022.37
533.62	1723.78
533.82	2099.78
534.03	1922.02
534.23	1973.01
534.43	1849.32
534.63	1899.70
534.84	1962.77
535.04	1964.82
535.24	1960.93
535.44	2277.34
535.65	1894.37
535.85	1882.29
536.05	1856.69
536.25	1951.71
536.46	1855.46
536.66	2070.70
536.86	1958.06
537.06	2056.98
537.27	2097.73
537.47	2001.89
537.67	1859.35
537.87	2103.26
538.08	1917.92
538.28	1792.18
538.48	1817.98
538.68	1914.44
538.88	2041.42
539.09	1765.76
539.29	1896.21
539.49	2066.20
539.69	1981.00
539.90	1968.30
540.10	1823.10
540.30	2133.37
540.50	1860.17
540.70	1780.91
540.91	1899.49
541.11	2078.69
541.31	2128.25
541.51	1961.95
541.72	1966.25
541.92	1989.19
542.12	1890.07
542.32	1898.67
542.52	1874.30
542.73	1878.60
542.93	2029.54
543.13	1892.32
543.33	1976.90
543.53	2085.65
543.74	2074.80
543.94	1891.30
544.14	2034.45
544.34	2127.02
544.54	2003.32
544.75	2021.75
544.95	2164.09
545.15	2118.01
545.35	2200.95
545.55	2029.95
545.75	1917.92
545.96	2251.74
546.16	1907.68
546.36	1937.58
546.56	1937.79
546.76	2095.07
546.97	2170.44
547.17	1926.11
547.37	2005.17
547.57	1888.02
547.77	2072.95
547.97	1966.05
548.18	1971.37
548.38	1937.99
548.58	2157.13
548.78	1879.01
548.98	2021.55
549.18	2156.10
549.39	2259.32
549.59	2079.71
549.79	2010.70
549.99	2210.37
550.19	2134.19
550.39	2045.51
550.60	1953.56
550.80	2025.24
551.00	2041.21
551.20	1906.04
551.40	1908.30
551.60	2019.30
551.80	1985.51
552.01	2038.75
552.21	1919.36
552.41	1961.75
552.61	2191.94
552.81	1994.52
553.01	1842.97
553.21	2020.53
553.42	1840.10
553.62	1868.98
553.82	1839.08
554.02	2151.19
554.22	2087.29
554.42	1829.25
554.62	1971.99
554.83	2195.63
555.03	2206.28
555.23	2008.24
555.43	2283.28
555.63	2132.75
555.83	2106.13
556.03	2042.85
556.23	1840.51
556.44	2018.89
556.64	2153.44
556.84	1751.63
557.04	1919.15
557.24	2007.01
557.44	1988.58
557.64	1945.98
557.84	1829.66
558.04	1917.92
558.25	2060.26
558.45	1825.15
558.65	1948.64
558.85	1953.35
559.05	1760.84
559.25	1859.35
559.45	2001.68
559.65	2280.62
559.85	2664.61
560.05	2026.67
560.26	2077.46
560.46	2136.03
560.66	2006.80
560.86	1973.01
561.06	1885.77
561.26	2179.45
561.46	2031.58
561.66	1900.31
561.86	2016.43
562.06	1876.55
562.26	1916.08
562.47	1976.29
562.67	1794.43
562.87	2021.14
563.07	1774.36
563.27	1918.33
563.47	1960.32
563.67	1916.08
563.87	2036.30
564.07	1864.06
564.27	1950.49
564.47	1995.13
564.67	2036.70
564.87	1887.61
565.08	2021.96
565.28	1925.09
565.48	2039.57
565.68	1985.71
565.88	2006.39
566.08	2202.80
566.28	1980.59
566.48	1803.65
566.68	1915.26
566.88	1939.02
567.08	2068.45
567.28	1910.96
567.48	1916.90
567.68	2012.54
567.88	1804.47
568.08	2003.12
568.28	2065.79
568.48	1935.33
568.68	2106.34
568.89	1948.03
569.09	1771.90
569.29	2056.37
569.49	2070.29
569.69	1847.27
569.89	1839.90
570.09	1744.05
570.29	1876.35
570.49	1779.07
570.69	1863.65
570.89	2021.35
571.09	2195.01
571.29	1784.19
571.49	2068.45
571.69	1975.27
571.89	2011.72
572.09	1855.05
572.29	1893.96
572.49	2053.09
572.69	2056.57
572.89	1915.26
573.09	1739.14
573.29	1962.16
573.49	1974.04
573.69	1950.90
573.89	2028.10
574.09	1921.61
574.29	2135.83
574.49	1922.43
574.69	1882.90
574.89	1834.37
575.09	1842.76
575.29	1843.79
575.49	1937.17
575.69	1986.73
575.89	1821.67
576.09	1959.29
576.29	1951.10
576.49	1838.26
576.69	1954.38
576.89	1882.29
577.09	1944.34
577.29	1776.41
577.49	2216.52
577.69	1886.59
577.89	2019.71
578.09	1977.93
578.29	1780.71
578.49	1945.16
578.69	1870.21
578.89	2086.47
579.09	1957.86
579.29	1850.13
579.49	2067.63
579.69	1876.14
579.89	2176.38
580.09	1750.81
580.29	1790.13
580.49	1852.39
580.69	1842.56
580.89	1879.83
581.09	1914.65
581.29	1896.42
581.49	1907.48
581.69	1811.84
581.89	1846.65
582.09	1840.51
582.28	1864.06
582.48	2014.38
582.68	2070.70
582.88	2126.20
583.08	1945.78
583.28	1932.26
583.48	1926.52
583.68	1865.09
583.88	1944.34
584.08	1942.91
584.28	1943.11
584.48	2217.13
584.68	2016.43
584.88	1921.81
585.08	2076.85
585.28	2073.98
585.48	2141.15
585.68	2022.16
585.87	2051.25
586.07	2031.58
586.27	1986.94
586.47	2031.18
586.67	1936.76
586.87	1982.84
587.07	1928.57
587.27	1862.83
587.47	1995.95
587.67	2217.95
587.87	2366.84
588.07	2092.20
588.27	2029.33
588.46	2207.30
588.66	2178.83
588.86	2027.08
589.06	2104.70
589.26	2122.72
589.46	2090.36
589.66	1865.70
589.86	1875.32
590.06	1967.28
590.26	2089.95
590.46	1985.10
590.66	2141.77
590.85	2014.79
591.05	2131.32
591.25	1947.00
591.45	1995.75
591.65	2069.47
591.85	2049.61
592.05	1979.36
592.25	2112.48
592.45	2141.15
592.64	1988.58
592.84	1993.70
593.04	1890.89
593.24	2302.33
593.44	1913.83
593.64	2021.35
593.84	2012.95
594.04	1916.08
594.24	2179.65
594.43	1874.51
594.63	1949.26
594.83	2095.07
595.03	2073.98
595.23	1862.01
595.43	1794.02
595.63	1848.09
595.83	2078.89
596.02	1735.45
596.22	1903.59
596.42	1988.78
596.62	1957.24
596.82	1877.17
597.02	2025.65
597.22	2119.44
597.41	1978.54
597.61	1837.44
597.81	2032.61
598.01	2047.15
598.21	1903.18
598.41	1898.47
598.61	1863.04
598.80	1974.65
599.00	2023.39
599.20	2070.29
599.40	1934.51
599.60	1936.35
599.80	2100.60
599.99	2123.54
600.19	1941.68
600.39	1994.11
600.59	2023.39
600.79	2015.82
600.99	2010.49
601.19	2213.44
601.38	2234.54
601.58	2021.96
601.78	1757.36
601.98	2065.38
602.18	2190.30
602.37	2454.29
602.57	2311.13
602.77	2480.29
602.97	2463.50
603.17	2492.38
603.37	2366.84
603.56	2414.35
603.76	2407.18
603.96	2291.47
604.16	2291.27
604.36	2364.18
604.56	2255.63
604.75	2028.10
604.95	2122.92
605.15	2271.61
605.35	2222.87
605.55	2020.73
605.74	1974.65
605.94	2192.76
606.14	2037.93
606.34	2029.95
606.54	1978.13
606.73	1927.14
606.93	2053.29
607.13	1880.85
607.33	1964.41
607.53	2148.93
607.72	2082.37
607.92	2012.54
608.12	2032.81
608.32	1934.72
608.51	2034.86
608.71	1834.98
608.91	1995.95
609.11	2078.07
609.31	1932.67
609.50	1984.28
609.70	2165.73
609.90	2104.49
610.10	2120.47
610.29	1945.98
610.49	1899.49
610.69	2103.06
610.89	2018.48
611.09	2025.65
611.28	2129.27
611.48	2131.12
611.68	1987.76
611.88	1909.73
612.07	1889.25
612.27	2069.27
612.47	1899.70
612.67	1961.95
612.86	2052.47
613.06	1948.44
613.26	1762.07
613.46	1882.49
613.65	1957.65
613.85	2347.18
614.05	2089.95
614.25	2046.33
614.44	1933.90
614.64	1951.71
614.84	1931.44
615.04	1874.10
615.23	1897.85
615.43	2005.37
615.63	2038.14
615.83	1862.22
616.02	1800.98
616.22	2051.25
616.42	1877.99
616.62	1891.50
616.81	1978.95
617.01	2050.02
617.21	1999.23
617.41	1876.35
617.60	1951.51
617.80	2039.16
618.00	2045.31
618.19	1974.45
618.39	1985.71
618.59	2012.13
618.79	1940.04
618.98	1768.63
619.18	1877.78
619.38	2236.18
619.57	1902.15
619.77	1914.24
619.97	1930.82
620.17	1874.30
620.36	1813.89
620.56	2043.67
620.76	1823.31
620.95	1818.60
621.15	1906.86
621.35	1860.78
621.54	1913.42
621.74	1968.30
621.94	1877.37
622.14	1815.73
622.33	1777.84
622.53	1948.23
622.73	1909.53
622.92	1760.02
623.12	1963.59
623.32	2182.73
623.51	2032.40
623.71	1789.31
623.91	2086.88
624.10	1863.24
624.30	1952.33
624.50	1834.78
624.69	1806.10
624.89	2444.46
625.09	1931.64
625.29	1749.78
625.48	1800.57
625.68	1967.28
625.88	2055.55
626.07	1968.92
626.27	1827.20
626.47	1885.56
626.66	1763.71
626.86	1908.09
627.06	1920.59
627.25	1948.44
627.45	2131.53
627.64	1912.39
627.84	2093.84
628.04	1867.13
628.23	2204.23
628.43	1818.60
628.63	1860.17
628.82	1919.77
629.02	2191.12
629.22	2027.49
629.41	2112.27
629.61	1998.00
629.81	2240.07
630.00	1893.55
630.20	1843.17
630.40	2049.20
630.59	2053.50
630.79	1940.86
630.98	1915.67
631.18	1940.04
631.38	1956.83
631.57	2047.56
631.77	1790.95
631.97	1972.40
632.16	1976.09
632.36	1924.89
632.56	1930.62
632.75	1963.18
632.95	2071.73
633.14	1803.44
633.34	2073.98
633.54	1719.27
633.73	1899.70
633.93	1853.82
634.12	1781.94
634.32	2285.53
634.52	1922.22
634.71	1816.96
634.91	1968.92
635.11	1802.62
635.30	1840.92
635.50	1976.49
635.69	1831.09
635.89	2220.41
636.09	2084.42
636.28	1840.10
636.48	1869.18
636.67	2075.82
636.87	2000.05
637.07	2009.67
637.26	1881.26
637.46	2016.84
637.65	2132.96
637.85	2004.35
638.04	1916.49
638.24	1963.59
638.44	2031.18
638.63	1959.70
638.83	1929.80
639.02	2008.65
639.22	2050.63
639.42	1944.55
639.61	1957.86
639.81	1976.49
640.00	1941.47
640.20	2034.04
640.39	1995.95
640.59	2295.57
640.79	2242.53
640.98	2204.84
641.18	2176.79
641.37	2194.19
641.57	2102.04
641.76	2121.49
641.96	1889.05
642.15	2127.63
642.35	2011.72
642.55	2025.44
642.74	1888.02
642.94	2097.53
643.13	2156.10
643.33	1956.22
643.52	1913.42
643.72	1911.98
643.91	1970.56
644.11	1905.84
644.31	1856.48
644.50	1891.09
644.70	2121.29
644.89	1950.28
645.09	1987.96
645.28	1996.97
645.48	2027.28
645.67	1855.87
645.87	1761.25
646.06	1923.25
646.26	1988.99
646.45	1747.12
646.65	1752.65
646.84	2207.51
647.04	1923.45
647.24	1805.90
647.43	1977.31
647.63	2001.28
647.82	2151.80
648.02	1818.80
648.21	1884.75
648.41	2126.61
648.60	1910.96
648.80	2078.69
648.99	1951.30
649.19	1892.94
649.38	1775.18
649.58	1954.17
649.77	1998.00
649.97	2120.47
650.16	2028.72
650.36	1753.27
650.55	2068.86
650.75	1992.88
650.94	2191.12
651.14	1955.61
651.33	1981.82
651.53	2182.32
651.72	1893.96
651.92	1938.20
652.11	1751.83
652.31	2041.82
652.50	2030.36
652.70	1998.82
652.89	1833.14
653.09	2193.17
653.28	1939.84
653.48	1781.53
653.67	1779.48
653.87	2335.30
654.06	1973.01
654.25	2079.92
654.45	1884.54
654.64	1904.61
654.84	1898.26
655.03	1711.28
655.23	2034.45
655.42	2065.17
655.62	2183.54
655.81	2000.87
656.01	1858.33
656.20	2045.51
656.40	2163.68
656.59	1930.01
656.79	2103.26
656.98	1975.06
657.17	2089.95
657.37	1982.23
657.56	1876.76
657.76	2030.77
657.95	2078.89
658.15	1671.35
658.34	1937.99
658.54	1959.91
658.73	1816.55
658.92	1883.93
659.12	1969.94
659.31	2036.70
659.51	1862.01
659.70	2041.82
659.90	1944.14
660.09	2092.00
660.29	1968.51
660.48	1880.85
660.67	2089.34
660.87	1919.15
661.06	2037.32
661.26	2043.05
661.45	1988.78
661.65	2024.83
661.84	1889.87
662.03	1894.37
662.23	1881.67
662.42	2183.34
662.62	1829.66
662.81	1847.88
663.00	1903.59
663.20	2017.45
663.39	2106.75
663.59	2138.28
663.78	2040.39
663.97	2054.32
664.17	2167.77
664.36	1871.02
664.56	1949.26
664.75	2127.43
664.94	2111.05
665.14	2010.70
665.33	1970.76
665.53	2031.99
665.72	1989.60
665.91	2082.37
666.11	1954.99
666.30	2001.28
666.50	1981.61
666.69	2064.56
666.88	2040.19
667.08	2164.29
667.27	2095.89
667.47	2154.05
667.66	2055.75
667.85	2235.15
668.05	2101.63
668.24	2023.60
668.43	2163.06
668.63	2017.45
668.82	2178.63
669.02	2072.75
669.21	1994.93
669.40	1835.59
669.60	2202.80
669.79	1835.80
669.98	2416.40
670.18	1851.36
670.37	1836.21
670.56	1883.93
670.76	1972.81
670.95	1956.83
671.15	2045.51
671.34	1946.80
671.53	1937.79
671.73	1899.08
671.92	1886.79
672.11	1813.68
672.31	1892.53
672.50	2015.00
672.69	1794.64
672.89	1681.38
673.08	1897.24
673.27	2043.67
673.47	1968.10
673.66	1988.99
673.85	1815.93
674.05	2025.65
674.24	2184.36
674.43	2175.35
674.63	2471.69
674.82	2796.50
675.01	2270.58
675.21	2470.67
675.40	2278.37
675.59	2223.89
675.79	2436.26
675.98	2113.91
676.17	2278.37
676.37	2174.94
676.56	2061.08
676.75	2077.87
676.95	1999.23
677.14	1948.64
677.33	2104.29
677.52	1847.06
677.72	1856.89
677.91	2001.89
678.10	1798.32
678.30	1837.23
678.49	1820.44
678.68	2194.19
678.88	1709.64
679.07	2029.13
679.26	1883.93
679.45	2162.65
679.65	2094.05
679.84	1719.88
680.03	1759.82
680.23	1875.53
680.42	2253.58
680.61	1796.27
680.81	1844.40
681.00	1913.62
681.19	1992.06
681.38	2004.96
681.58	1993.49
681.77	1878.19
681.96	2030.97
682.15	1861.40
682.35	1964.21
682.54	2003.73
682.73	1830.47
682.93	1850.75
683.12	1847.68
683.31	2020.73
683.50	2280.62
683.70	1822.08
683.89	1938.20
684.08	1825.97
684.27	2065.38
684.47	1787.67
684.66	1927.14
684.85	2200.13
685.04	2112.89
685.24	1871.02
685.43	1942.29
685.62	1779.68
685.81	2049.20
686.01	2101.42
686.20	2150.37
686.39	2155.28
686.58	2610.75
686.78	2397.35
686.97	2384.65
687.16	2370.32
687.35	2258.70
687.55	2145.04
687.74	2144.02
687.93	2017.66
688.12	2098.35
688.32	2101.01
688.51	1888.43
688.70	2087.08
688.89	1884.34
689.08	1812.25
689.28	1866.52
689.47	1970.97
689.66	1964.41
689.85	2027.08
690.05	1871.84
690.24	1839.69
690.43	1973.22
690.62	1949.46
690.81	1866.93
691.01	1967.69
691.20	1913.21
691.39	1856.07
691.58	1994.93
691.77	2179.65
691.97	1977.11
692.16	1962.57
692.35	1912.19
692.54	1916.90
692.73	2079.51
692.93	2051.66
693.12	2111.05
693.31	2162.45
693.50	2150.57
693.69	2133.78
693.89	1991.24
694.08	2182.32
694.27	2229.01
694.46	1920.79
694.65	2001.07
694.85	2094.25
695.04	2106.34
695.23	2313.18
695.42	3753.72
695.61	5172.35
695.80	6079.60
696.00	6922.54
696.19	7409.55
696.38	6523.39
696.57	5351.75
696.76	5115.62
696.95	4718.93
697.15	4575.37
697.34	4227.83
697.53	3712.56
697.72	3499.57
697.91	3116.60
698.10	3035.50
698.30	2474.97
698.49	2274.88
698.68	2234.33
698.87	2032.81
699.06	1898.67
699.25	1958.68
699.45	2103.88
699.64	2001.68
699.83	2071.11
700.02	1834.37
700.21	2017.25
700.40	1864.06
700.59	1896.42
700.79	1884.13
700.98	1990.63
701.17	1856.48
701.36	1857.51
701.55	1839.69
701.74	2119.85
701.93	1943.93
702.12	2174.94
702.32	2161.84
702.51	2424.79
702.70	2395.10
702.89	2216.93
703.08	2094.05
703.27	2302.74
703.46	2187.64
703.65	2078.07
703.85	1915.06
704.04	1967.69
704.23	2152.42
704.42	1910.55
704.61	1917.51
704.80	2189.07
704.99	1890.89
705.18	1998.41
705.37	2104.29
705.57	3183.36
705.76	4644.18
705.95	5200.00
706.14	6260.64
706.33	6780.41
706.52	6611.46
706.71	5104.15
706.90	4680.43
707.09	4516.59
707.28	4214.51
707.47	3793.86
707.67	3653.58
707.86	3309.11
708.05	3285.35
708.24	2875.55
708.43	2587.40
708.62	2300.89
708.81	2093.02
709.00	1910.75
709.19	1934.31
709.38	2096.51
709.57	1854.85
709.76	1994.11
709.96	1912.80
710.15	2152.21
710.34	1962.98
710.53	2072.95
710.72	1946.59
710.91	2119.03
711.10	2040.19
711.29	2013.15
711.48	1882.70
711.67	1838.26
711.86	2009.06
712.05	1825.76
712.24	1865.70
712.43	2048.58
712.62	2134.39
712.81	1954.58
713.00	2064.15
713.19	1820.23
713.39	2062.92
713.58	1951.30
713.77	2209.76
713.96	2389.37
714.15	2361.72
714.34	2369.09
714.53	2245.39
714.72	2472.72
714.91	2119.24
715.10	2213.24
715.29	2057.18
715.48	2539.28
715.67	2232.29
715.86	2108.79
716.05	2078.89
716.24	2011.31
716.43	1973.01
716.62	1863.65
716.81	1818.19
717.00	1898.67
717.19	2139.92
717.38	1941.88
717.57	1901.33
717.76	1727.26
717.95	2026.47
718.14	1948.03
718.33	1871.02
718.52	1715.17
718.71	1759.00
718.90	1763.10
719.09	1877.17
719.28	1918.74
719.47	2026.06
719.66	2051.86
719.85	2024.83
720.04	1981.82
720.23	2030.56
720.42	1909.94
720.61	2029.95
720.80	1853.00
720.99	2044.90
721.18	1919.15
721.37	1861.81
721.56	1929.80
721.75	2071.52
721.94	1851.16
722.13	1925.71
722.32	1904.41
722.51	2060.46
722.70	1933.49
722.89	1987.35
723.08	1946.59
723.27	2073.77
723.46	1971.99
723.65	1916.28
723.84	1872.05
724.03	2122.51
724.22	1798.32
724.41	1985.51
724.60	1922.63
724.79	2039.57
724.98	1960.73
725.16	1896.01
725.35	2026.47
725.54	1821.67
725.73	1966.66
725.92	1976.29
726.11	2189.69
726.30	2704.75
726.49	2705.16
726.68	2994.95
726.87	3194.01
727.06	3224.32
727.25	2724.82
727.44	2734.04
727.63	2615.46
727.82	2510.40
728.01	2494.84
728.20	2462.27
728.38	2515.72
728.57	2253.38
728.76	2230.44
728.95	2235.15
729.14	1941.88
729.33	1936.56
729.52	1769.85
729.71	1910.14
729.90	1872.87
730.09	1938.81
730.28	1997.18
730.47	1942.29
730.66	2197.68
730.84	2102.85
731.03	2056.57
731.22	2096.10
731.41	2062.51
731.60	2085.24
731.79	1822.69
731.98	1906.25
732.17	2088.31
732.36	2053.29
732.55	1914.85
732.73	1857.92
732.92	2169.82
733.11	2064.76
733.30	1894.58
733.49	1833.55
733.68	2080.53
733.87	2047.15
734.06	1923.04
734.25	1950.90
734.43	2042.85
734.62	2154.67
734.81	2148.52
735.00	2141.77
735.19	2110.23
735.38	2159.38
735.57	1939.84
735.76	2117.19
735.94	2192.96
736.13	2555.05
736.32	2453.26
736.51	2446.30
736.70	2779.50
736.89	2874.53
737.08	3162.68
737.27	4979.84
737.45	7473.45
737.64	8602.90
737.83	9981.19
738.02	10723.37
738.21	10007.40
738.40	7865.22
738.59	7128.98
738.77	6613.30
738.96	6171.96
739.15	5741.69
739.34	5338.03
739.53	4886.86
739.72	4608.95
739.90	4137.72
740.09	3401.27
740.28	3066.01
740.47	2790.97
740.66	2503.03
740.85	2170.44
741.03	2152.82
741.22	1970.15
741.41	2056.16
741.60	1907.48
741.79	2046.74
741.98	2196.86
742.16	2282.87
742.35	2110.43
742.54	2056.16
742.73	2395.92
742.92	2092.00
743.10	1998.82
743.29	2103.26
743.48	2465.75
743.67	2065.99
743.86	1934.92
744.05	1950.28
744.23	1929.19
744.42	1974.45
744.61	2038.14
744.80	1908.30
744.99	1988.99
745.17	1854.64
745.36	1885.16
745.55	2087.29
745.74	2053.09
745.93	1978.95
746.11	1990.01
746.30	1973.83
746.49	2203.82
746.68	1959.70
746.86	2037.32
747.05	2034.45
747.24	2140.33
747.43	2158.97
747.62	1908.91
747.80	2010.90
747.99	2234.54
748.18	2221.43
748.37	2127.23
748.56	2145.86
748.74	2264.64
748.93	2366.63
749.12	3838.92
749.31	8368.82
749.49	12329.59
749.68	14969.83
749.87	17430.67
750.06	18606.00
750.24	17506.86
750.43	16625.21
750.62	18271.16
750.81	18757.14
750.99	19484.58
751.18	18981.39
751.37	15860.70
751.56	13232.34
751.74	12698.64
751.93	11255.43
752.12	9371.71
752.31	8059.58
752.49	6948.96
752.68	6187.53
752.87	5204.91
753.06	4472.35
753.24	3864.52
753.43	3474.38
753.62	2788.10
753.81	2490.13
753.99	2502.82
754.18	2220.00
754.37	2044.28
754.55	2120.06
754.74	2286.97
754.93	1863.24
755.12	1966.46
755.30	1924.68
755.49	2144.02
755.68	2037.11
755.86	2034.04
756.05	1872.87
756.24	2203.82
756.43	1887.82
756.61	1898.88
756.80	2023.60
756.99	2141.56
757.17	2004.14
757.36	1889.25
757.55	1990.01
757.74	2101.01
757.92	2024.62
758.11	1888.23
758.30	1843.79
758.48	1995.95
758.67	1917.10
758.86	2021.96
759.04	1942.50
759.23	2040.80
759.42	2075.00
759.60	1965.64
759.79	2034.86
759.98	2021.75
760.16	1928.98
760.35	1935.54
760.54	1871.64
760.73	2048.38
760.91	1865.90
761.10	2019.30
761.29	2034.86
761.47	2030.77
761.66	2311.34
761.85	2089.75
762.03	2500.98
762.22	4828.91
762.41	12718.30
762.59	21755.37
762.78	26187.17
762.97	31706.24
763.15	33969.86
763.34	30905.90
763.52	22551.41
763.71	20656.84
763.90	18807.52
764.08	17510.75
764.27	15978.87
764.46	14653.01
764.64	12735.29
764.83	11386.30
765.02	9996.34
765.20	8426.98
765.39	6773.04
765.58	5048.65
765.76	4062.35
765.95	3295.80
766.13	2778.27
766.32	2464.12
766.51	2313.18
766.69	2383.22
766.88	2183.54
767.07	1963.18
767.25	1833.55
767.44	2167.77
767.62	2198.29
767.81	1956.01
768.00	2011.11
768.18	2005.99
768.37	1912.39
768.56	1813.07
768.74	1910.75
768.93	1848.29
769.11	2022.78
769.30	1951.71
769.49	1877.99
769.67	1920.99
769.86	1923.45
770.04	1916.28
770.23	1924.89
770.42	2124.36
770.60	1983.05
770.79	1862.63
770.97	2046.74
771.16	3066.22
771.35	5091.46
771.53	7014.09
771.72	8149.89
771.90	9609.27
772.09	10250.08
772.27	8951.06
772.46	6803.56
772.65	6708.94
772.83	6188.35
773.02	5885.86
773.20	5301.78
773.39	5146.34
773.58	4702.55
773.76	4080.58
773.95	3838.30
774.13	3549.13
774.32	3095.30
774.50	2625.09
774.69	2461.04
774.87	2227.58
775.06	2417.01
775.25	1979.57
775.43	2002.91
775.62	2038.96
775.80	2070.29
775.99	2021.14
776.17	1914.65
776.36	1999.02
776.54	2111.66
776.73	1918.13
776.92	2019.30
777.10	2118.62
777.29	2033.02
777.47	1877.78
777.66	1898.26
777.84	1979.98
778.03	1933.08
778.21	1849.52
778.40	1948.44
778.58	1984.89
778.77	2073.16
778.95	1792.18
779.14	1854.44
779.32	2176.99
779.51	2039.98
779.70	1881.06
779.88	1777.43
780.07	1888.43
780.25	2235.36
780.44	1905.02
780.62	2058.21
780.81	2035.27
780.99	1990.42
781.18	1864.47
781.36	1862.22
781.55	1897.24
781.73	2121.70
781.92	1821.26
782.10	1820.44
782.29	2009.67
782.47	2142.58
782.66	1948.03
782.84	1805.28
783.03	1867.75
783.21	2138.90
783.40	1904.00
783.58	1871.84
783.77	1878.60
783.95	1918.74
784.14	1846.86
784.32	1935.94
784.51	2106.95
784.69	1893.14
784.88	1784.80
785.06	1926.73
785.24	1789.31
785.43	2077.87
785.61	1999.84
785.80	1846.24
785.98	2016.84
786.17	1964.62
786.35	1850.75
786.54	1988.17
786.72	2046.74
786.91	2080.53
787.09	1930.21
787.28	1829.04
787.46	1983.66
787.65	2090.16
787.83	1835.80
788.01	1979.36
788.20	1855.87
788.38	2004.55
788.57	1929.80
788.75	1955.61
788.94	2284.10
789.12	2162.04
789.31	1988.78
789.49	2083.81
789.67	1935.94
789.86	2041.62
790.04	1913.83
790.23	1817.16
790.41	2285.94
790.60	1966.66
790.78	1961.13
790.96	1954.58
791.15	2082.58
791.33	1999.43
791.52	1950.28
791.70	1873.48
791.89	1967.48
792.07	2075.62
792.25	1987.35
792.44	1856.07
792.62	2145.66
792.81	1957.24
792.99	2002.09
793.17	1984.69
793.36	2051.66
793.54	2847.91
793.73	4315.27
793.91	6220.09
794.10	7453.17
794.28	8748.31
794.46	9084.79
794.65	8709.60
794.83	6859.26
795.01	6251.02
795.20	6078.99
795.38	5622.90
795.57	5288.67
795.75	5033.50
795.93	4549.15
796.12	4249.94
796.30	4021.80
796.49	3721.36
796.67	3234.77
796.85	3104.93
797.04	2764.96
797.22	2614.03
797.40	2240.48
797.59	2280.41
797.77	2232.49
797.96	2096.71
798.14	2067.22
798.32	2059.44
798.51	2227.58
798.69	2344.11
798.87	2054.11
799.06	2025.24
799.24	2031.99
799.42	2769.47
799.61	3847.93
799.79	4768.90
799.98	5691.10
800.16	6297.71
800.34	8039.71
800.53	10061.88
800.71	10726.03
800.89	12395.95
801.08	12730.17
801.26	12775.43
801.44	10577.76
801.63	8615.19
801.81	8360.63
801.99	7590.59
802.18	7071.02
802.36	6586.68
802.54	6011.40
802.73	5246.90
802.91	4796.34
803.09	4359.92
803.28	3978.38
803.46	3557.94
803.64	3321.19
803.83	2661.34
804.01	2395.10
804.19	2224.09
804.38	2365.81
804.56	2272.63
804.74	2126.61
804.92	2142.38
805.11	1983.46
805.29	2242.12
805.47	2025.65
805.66	1935.54
805.84	1925.50
806.02	2218.77
806.21	2024.21
806.39	2178.83
806.57	2182.32
806.76	2188.46
806.94	2094.87
807.12	2058.00
807.30	2082.58
807.49	2229.42
807.67	2215.70
807.85	2284.92
808.04	2271.61
808.22	2387.11
808.40	1929.80
808.58	1915.67
808.77	2157.13
808.95	2449.58
809.13	3105.54
809.31	5938.29
809.50	9168.96
809.68	10872.46
809.86	12454.93
810.05	13719.34
810.23	15665.12
810.41	23559.42
810.59	40676.35
810.78	50846.76
810.96	59112.57
811.14	63857.92
811.32	63250.70
811.51	51635.23
811.69	40505.55
811.87	39751.69
812.05	34665.15
812.24	32501.67
812.42	29604.41
812.60	26164.64
812.78	22375.29
812.97	18848.28
813.15	16478.57
813.33	13987.83
813.51	11734.86
813.70	9188.01
813.88	7141.68
814.06	5574.57
814.24	4264.28
814.42	3322.83
814.61	2980.82
814.79	2843.60
814.97	2264.64
815.15	2281.64
815.34	2287.17
815.52	2309.90
815.70	2004.96
815.88	2034.25
816.06	1976.90
816.25	2039.78
816.43	1922.02
816.61	2052.88
816.79	2202.39
816.98	1810.20
817.16	1912.39
817.34	1858.74
817.52	2000.66
817.70	2171.67
817.89	1926.52
818.07	1802.83
818.25	1930.82
818.43	1977.72
818.61	1917.92
818.80	1858.94
818.98	2145.86
819.16	1961.54
819.34	1795.86
819.52	2113.71
819.70	1845.22
819.89	1915.06
820.07	1776.61
820.25	1756.75
820.43	1946.18
820.61	2051.66
820.80	1902.36
820.98	1803.85
821.16	1739.34
821.34	1781.53
821.52	1888.02
821.70	1934.72
821.89	1934.51
822.07	1902.77
822.25	1873.69
822.43	1799.35
822.61	2133.57
822.79	1967.28
822.98	1892.12
823.16	1703.09
823.34	1961.54
823.52	2072.34
823.70	1995.34
823.88	1741.18
824.06	1972.60
824.25	1920.59
824.43	1996.97
824.61	1777.23
824.79	1929.19
824.97	1999.84
825.15	2185.39
825.33	2957.27
825.52	4255.88
825.70	4912.26
825.88	5489.99
826.06	6068.95
826.24	6197.36
826.42	5539.14
826.60	4552.63
826.78	4555.09
826.97	4073.82
827.15	4157.17
827.33	3628.80
827.51	3648.66
827.69	3275.93
827.87	3159.61
828.05	2963.00
828.23	2644.54
828.41	2752.27
828.60	2584.74
828.78	2179.24
828.96	2233.92
829.14	2053.50
829.32	2021.55
829.50	1964.00
829.68	1948.64
829.86	1927.14
830.04	2051.86
830.22	1968.10
830.41	1817.37
830.59	1916.90
830.77	2003.73
830.95	1848.29
831.13	1843.79
831.31	1855.66
831.49	2040.60
831.67	2021.96
831.85	2009.88
832.03	1902.77
832.21	1991.65
832.39	1772.52
832.57	1783.37
832.76	2046.13
832.94	1905.43
833.12	1726.85
833.30	1927.34
833.48	2054.11
833.66	1952.53
833.84	1838.87
834.02	1885.16
834.20	2035.07
834.38	2007.21
834.56	1713.95
834.74	1794.84
834.92	1778.87
835.10	2133.16
835.28	1925.71
835.46	1892.73
835.64	1896.42
835.82	1828.84
836.01	2099.17
836.19	2024.21
836.37	1869.59
836.55	1803.85
836.73	1832.52
836.91	1778.46
837.09	2036.09
837.27	2127.63
837.45	1776.20
837.63	1830.27
837.81	1798.94
837.99	1960.52
838.17	1912.80
838.35	1881.88
838.53	2253.18
838.71	2059.23
838.89	1909.94
839.07	1911.78
839.25	2031.79
839.43	2187.03
839.61	2580.44
839.79	4607.11
839.97	6948.35
840.15	8276.25
840.33	9427.00
840.51	10167.76
840.69	9825.74
840.87	7941.82
841.05	6987.05
841.23	7628.68
841.41	9860.76
841.59	14241.17
841.77	16407.71
841.95	17892.49
842.13	19151.37
842.31	18445.85
842.49	14543.24
842.67	12024.85
842.85	11745.72
843.03	10175.54
843.21	9578.96
843.39	8749.33
843.57	7791.91
843.75	6925.82
843.93	5906.34
844.11	5140.20
844.29	4718.11
844.47	4244.62
844.65	4058.25
844.83	3480.52
845.01	3064.17
845.19	2859.17
845.36	2460.22
845.54	2310.52
845.72	2180.47
845.90	2137.46
846.08	1914.85
846.26	1968.51
846.44	2053.29
846.62	2041.82
846.80	1949.26
846.98	1839.69
847.16	1895.40
847.34	1962.77
847.52	1776.00
847.70	1825.56
847.88	1915.87
848.06	2093.84
848.24	1966.46
848.41	1747.74
848.59	2039.57
848.77	1985.92
848.95	1827.81
849.13	1821.87
849.31	1989.19
849.49	1947.41
849.67	1800.78
849.85	1782.96
850.03	1962.57
850.21	1941.88
850.39	1821.46
850.57	1955.20
850.74	2124.97
850.92	2291.68
851.10	2778.89
851.28	3741.43
851.46	4451.06
851.64	5187.71
851.82	5196.11
852.00	5218.63
852.18	4693.13
852.36	4021.39
852.53	3819.67
852.71	3601.35
852.89	3552.61
853.07	3393.07
853.25	3083.22
853.43	2859.17
853.61	2838.89
853.79	2682.02
853.97	2439.34
854.14	2291.27
854.32	2485.01
854.50	2337.14
854.68	2119.85
854.86	2023.39
855.04	1949.67
855.22	2076.23
855.40	1776.20
855.57	1818.60
855.75	2030.77
855.93	1980.80
856.11	1710.67
856.29	1755.93
856.47	1817.98
856.65	1941.47
856.82	1783.17
857.00	1696.95
857.18	1860.78
857.36	1832.73
857.54	1914.85
857.72	1967.48
857.89	1970.15
858.07	1920.59
858.25	1995.54
858.43	1724.59
858.61	1869.80
858.79	1890.48
858.97	1802.62
859.14	1900.11
859.32	1876.96
859.50	1873.89
859.68	1912.60
859.86	1817.16
860.03	1921.81
860.21	1962.36
860.39	1830.06
860.57	1926.11
860.75	1975.06
860.93	2155.69
861.10	2025.03
861.28	1844.81
861.46	1970.97
861.64	1998.41
861.82	1871.43
861.99	1942.09
862.17	2040.39
862.35	2027.08
862.53	1870.41
862.71	1879.63
862.88	1964.00
863.06	1981.82
863.24	1845.22
863.42	1793.82
863.60	1888.43
863.77	1965.44
863.95	1696.54
864.13	1861.60
864.31	1851.57
864.49	1969.12
864.66	1748.56
864.84	1828.43
865.02	1913.21
865.20	2245.39
865.37	1898.47
865.55	1885.16
865.73	1859.56
865.91	2266.69
866.09	2332.02
866.26	2361.31
866.44	2523.30
866.62	2407.59
866.80	2246.01
866.97	2255.43
867.15	2230.44
867.33	2226.35
867.51	2207.71
867.68	2127.02
867.86	2068.24
868.04	1985.30
868.22	1827.61
868.39	1946.80
868.57	2033.63
868.75	2149.55
868.93	1787.88
869.10	1855.46
869.28	2196.86
869.46	2105.93
869.64	1892.12
869.81	1878.81
869.99	1944.34
870.17	1940.25
870.35	1787.47
870.52	1813.48
870.70	2029.13
870.88	1823.72
871.05	1781.32
871.23	1652.51
871.41	1889.25
871.59	1898.06
871.76	1832.11
871.94	1788.70
872.12	1889.05
872.29	1737.50
872.47	1826.99
872.65	1753.88
872.83	1914.44
873.00	2092.20
873.18	1833.14
873.36	1790.74
873.53	1979.16
873.71	1712.31
873.89	1790.95
874.06	1856.89
874.24	1934.51
874.42	2031.79
874.60	1954.38
874.77	1885.56
874.95	1795.86
875.13	2054.52
875.30	1779.68
875.48	1843.17
875.66	2096.10
875.83	1791.15
876.01	1833.55
876.19	1963.18
876.36	1737.09
876.54	1909.32
876.72	1759.61
876.89	1918.13
877.07	1973.01
877.25	1668.07
877.42	1872.05
877.60	1833.55
877.78	2119.24
877.95	1859.56
878.13	1817.98
878.31	1890.48
878.48	2009.26
878.66	1948.23
878.84	1795.45
879.01	1862.83
879.19	1951.71
879.37	1950.49
879.54	1811.43
879.72	1755.72
879.90	1678.52
880.07	1970.97
880.25	1610.73
880.42	1956.42
880.60	1906.86
880.78	1974.45
880.95	1801.80
881.13	1821.46
881.31	1881.67
881.48	1814.30
881.66	1786.24
881.83	1901.74
882.01	1772.31
882.19	1731.35
882.36	1877.37
882.54	1817.78
882.72	1978.75
882.89	1894.58
883.07	1754.70
883.24	1821.05
883.42	1987.96
883.60	1919.77
883.77	1740.77
883.95	1808.56
884.12	2015.61
884.30	1926.93
884.48	1965.64
884.65	1873.28
884.83	1927.75
885.00	1924.07
885.18	1766.17
885.36	1823.92
885.53	1965.03
885.71	2046.33
885.88	1758.18
886.06	1822.69
886.23	1968.92
886.41	1847.88
886.59	1800.57
886.76	1791.77
886.94	1949.26
887.11	2244.16
887.29	1860.17
887.47	1717.84
887.64	2034.04
887.82	2047.15
887.99	1696.74
888.17	1865.49
888.34	1883.11
888.52	1755.31
888.69	1872.87
888.87	1751.63
889.05	1847.27
889.22	1846.65
889.40	1795.45
889.57	1982.84
889.75	2064.76
889.92	1854.64
890.10	1755.11
890.27	1826.17
890.45	1814.30
890.62	1687.32
890.80	1731.35
890.98	1704.32
891.15	2085.04
891.33	2018.07
891.50	1786.24
891.68	1717.02
891.85	1992.26
892.03	1972.60
892.20	1796.07
892.38	1755.93
892.55	1978.34
892.73	1978.54
892.90	1755.11
893.08	1799.96
893.25	1806.92
893.43	1825.35
893.60	1940.66
893.78	1653.12
893.95	1906.25
894.13	1854.03
894.30	1773.54
894.48	1845.63
894.65	1988.37
894.83	1907.89
895.00	1662.75
895.18	1657.22
895.35	1993.08
895.53	1942.91
895.70	1739.34
895.88	1894.58
896.05	1956.01
896.23	1713.95
896.40	1806.10
896.58	1865.49
896.75	1945.16
896.93	2085.45
897.10	1770.67
897.28	1721.93
897.45	1917.72
897.63	1958.68
897.80	1926.93
897.98	1839.28
898.15	1908.71
898.33	1799.75
898.50	1884.54
898.67	1820.44
898.85	1859.56
899.02	1962.77
899.20	1987.14
899.37	1850.75
899.55	1906.66
899.72	2070.91
899.90	1791.15
900.07	1759.00
900.25	1947.21
900.42	2028.92
900.59	1814.50
900.77	1926.52
900.94	1961.95
901.12	1912.39
901.29	1799.55
901.47	1924.27
901.64	1955.61
901.82	1902.36
901.99	1641.24
902.16	1768.22
902.34	2018.48
902.51	1946.39
902.69	1810.20
902.86	1854.44
903.03	2340.42
903.21	1869.80
903.38	1853.41
903.56	1793.20
903.73	2040.19
903.91	1849.32
904.08	1739.14
904.25	1693.06
904.43	1804.06
904.60	2013.36
904.78	1833.75
904.95	1768.22
905.12	1858.74
905.30	2088.31
905.47	1915.06
905.65	1941.88
905.82	1888.02
905.99	1955.40
906.17	1882.08
906.34	1788.49
906.52	1781.12
906.69	1984.89
906.86	1965.23
907.04	1862.42
907.21	2029.33
907.38	2019.50
907.56	1805.49
907.73	1814.71
907.91	2086.47
908.08	2030.97
908.25	1782.76
908.43	1771.90
908.60	1972.81
908.77	1925.30
908.95	1813.07
909.12	1777.02
909.30	2022.37
909.47	1737.91
909.64	1864.06
909.82	1971.99
909.99	1885.77
910.16	1913.01
910.34	1788.29
910.51	1827.20
910.68	1955.40
910.86	1940.66
911.03	1956.63
911.20	2686.73
911.38	4842.83
911.55	7946.53
911.72	9528.79
911.90	10624.66
912.07	11531.09
912.24	11164.50
912.42	8602.08
912.59	6101.92
912.76	5680.45
912.94	4745.14
913.11	4229.47
913.28	3782.60
913.46	3531.31
913.63	3473.56
913.80	3503.66
913.98	3101.65
914.15	3185.62
914.32	3082.19
914.49	2903.20
914.67	2728.10
914.84	2859.37
915.01	2869.00
915.19	2709.87
915.36	2495.25
915.53	2546.24
915.71	2345.13
915.88	2163.27
916.05	1975.06
916.22	2158.15
916.40	2013.36
916.57	1850.13
916.74	1920.18
916.92	2126.82
917.09	1797.30
917.26	1773.34
917.43	1765.55
917.61	1874.71
917.78	1713.74
917.95	1686.91
918.13	1755.52
918.30	2156.51
918.47	1907.68
918.64	1796.89
918.82	1794.64
918.99	1915.26
919.16	2159.38
919.33	1888.43
919.51	1830.27
919.68	1923.04
919.85	2060.67
920.02	1751.42
920.20	1799.14
920.37	2134.19
920.54	2018.27
920.71	1770.47
920.89	1817.57
921.06	2147.70
921.23	1844.40
921.40	1956.63
921.58	2580.85
921.75	3453.49
921.92	3188.89
922.09	3380.38
922.27	3461.27
922.44	3290.27
922.61	2944.36
922.78	2453.88
922.96	2352.09
923.13	2274.88
923.30	2331.20
923.47	2035.48
923.64	2106.34
923.82	2202.80
923.99	2175.15
924.16	2128.66
924.33	1944.75
924.50	2070.70
924.68	2263.21
924.85	1902.97
925.02	1961.54
925.19	2159.17
925.36	2044.28
925.54	2000.46
925.71	1942.50
925.88	2370.52
926.05	1910.35
926.22	1804.06
926.40	1871.23
926.57	1934.51
926.74	1983.05
926.91	1787.88
927.08	1985.71
927.26	2019.50
927.43	1889.87
927.60	1767.40
927.77	1851.16
927.94	2088.93
928.11	2042.23
928.29	1708.83
928.46	1841.94
928.63	1813.27
928.80	1852.59
928.97	1919.97
929.14	1761.87
929.32	2150.16
929.49	1917.51
929.66	1764.94
929.83	1682.00
930.00	1860.58
930.17	1942.50
930.35	1722.75
930.52	1777.02
930.69	2075.82
930.86	1749.99
931.03	1911.78
931.20	1644.72
931.37	2027.69
931.55	1883.72
931.72	1855.05
931.89	1708.21
932.06	1769.24
932.23	2086.68
932.40	1898.67
932.57	1892.53
932.74	2055.55
932.92	2040.60
933.09	1922.84
933.26	1566.29
933.43	1808.15
933.60	1905.02
933.77	1819.42
933.94	1880.65
934.11	1844.81
934.29	1879.83
934.46	1735.86
934.63	1884.75
934.80	1798.94
934.97	1952.12
935.14	1899.90
935.31	1767.81
935.48	1865.90
935.65	1961.54
935.82	1905.63
936.00	1747.74
936.17	2103.88
936.34	1859.35
936.51	1915.47
936.68	1727.87
936.85	1925.09
937.02	1921.61
937.19	1879.83
937.36	1809.18
937.53	1933.08
937.70	1986.12
937.87	1846.04
938.05	1910.14
938.22	1902.77
938.39	1762.07
938.56	1817.16
938.73	1739.75
938.90	1851.98
939.07	1788.70
939.24	1863.04
939.41	1651.28
939.58	1935.54
939.75	1914.44
939.92	1761.87
940.09	1950.49
940.26	1869.18
940.43	1989.19
940.60	1778.25
940.77	1796.27
940.95	1920.59
941.12	1979.36
941.29	1787.67
941.46	1847.88
941.63	2021.75
941.80	2059.85
941.97	1719.27
942.14	1701.86
942.31	1979.77
942.48	1828.63
942.65	1876.96
942.82	1798.73
942.99	1933.49
943.16	1906.66
943.33	1726.64
943.50	1764.33
943.67	1973.22
943.84	2014.18
944.01	1808.56
944.18	1739.34
944.35	2044.69
944.52	1779.07
944.69	1840.71
944.86	1687.94
945.03	1959.70
945.20	2174.33
945.37	1646.77
945.54	1805.90
945.71	2044.08
945.88	2063.12
946.05	1739.54
946.22	1728.69
946.39	2046.54
946.56	1863.86
946.73	1698.99
946.90	1746.51
947.07	1792.38
947.24	1862.63
947.41	1646.36
947.58	1896.01
947.75	1933.49
947.92	1923.25
948.09	1573.04
948.26	1709.44
948.43	1900.52
948.60	2117.60
948.77	1744.25
948.94	1812.04
949.11	1961.54
949.27	1926.52
949.44	1759.41
949.61	1746.30
949.78	1932.26
949.95	2022.37
950.12	1742.21
950.29	1675.85
950.46	1798.53
950.63	2016.23
950.80	1795.66
950.97	1821.67
951.14	2009.06
951.31	1837.23
951.48	1742.62
951.65	1737.91
951.82	2120.67
951.99	1894.17
952.15	1667.25
952.32	1799.96
952.49	1807.95
952.66	1793.00
952.83	1734.83
953.00	1723.57
953.17	1861.60
953.34	1992.26
953.51	1822.08
953.68	1800.16
953.85	2016.43
954.02	2017.66
954.18	1810.81
954.35	1805.90
954.52	1782.55
954.69	1913.83
954.86	1647.80
955.03	1808.15
955.20	1971.37
955.37	1872.25
955.54	1798.32
955.71	1750.81
955.87	1927.34
956.04	2093.43
956.21	1804.87
956.38	1739.14
956.55	1920.79
956.72	2180.88
956.89	1835.18
957.06	1740.77
957.23	1783.99
957.39	2046.54
957.56	1776.61
957.73	1715.99
957.90	1625.88
958.07	2110.23
958.24	1837.64
958.41	1778.05
958.57	1975.06
958.74	1857.10
958.91	1750.60
959.08	1768.83
959.25	1980.39
959.42	1859.35
959.59	1824.54
959.75	1784.60
959.92	2037.11
960.09	2002.30
960.26	1741.59
960.43	1860.17
960.60	1920.79
960.76	1839.49
960.93	1672.99
961.10	1826.99
961.27	1998.20
961.44	1859.97
961.61	1702.07
961.77	1708.42
961.94	1907.27
962.11	1970.15
962.28	1795.86
962.45	1704.93
962.62	1839.28
962.78	2014.79
962.95	1712.31
963.12	1769.65
963.29	1946.39
963.46	2226.76
963.62	1839.90
963.79	1784.19
963.96	2208.32
964.13	1840.10
964.30	1876.76
964.46	1796.48
964.63	1812.04
964.80	2366.22
964.97	1921.20
965.14	2324.44
965.30	2507.33
965.47	2579.21
965.64	2553.00
965.81	2451.83
965.98	2556.89
966.14	2244.16
966.31	2050.43
966.48	2055.34
966.65	2292.29
966.81	2153.03
966.98	1975.47
967.15	1998.20
967.32	2046.94
967.49	1927.96
967.65	1795.66
967.82	1774.56
967.99	1985.51
968.16	1819.83
968.32	2049.20
968.49	1884.95
968.66	1944.55
968.83	2196.24
968.99	1920.59
969.16	1803.24
969.33	2091.18
969.50	2021.35
969.66	1933.08
969.83	2002.50
970.00	2014.18
970.17	1969.12
970.33	1801.19
970.50	1730.12
970.67	2078.69
970.84	2058.41
971.00	1712.92
971.17	1720.50
971.34	1967.07
971.50	1906.45
971.67	1894.17
971.84	1830.27
972.01	1745.89
972.17	1646.98
972.34	1739.95
972.51	1869.39
972.67	2004.14
972.84	1904.41
973.01	1745.28
973.18	1748.56
973.34	1975.06
973.51	1766.78
973.68	1787.67
973.84	1799.14
974.01	1849.32
974.18	2068.45
974.34	1856.69
974.51	1869.80
974.68	1801.39
974.85	2138.28
975.01	1883.72
975.18	1783.99
975.35	1869.59
975.51	1795.66
975.68	1661.93
975.85	1937.79
976.01	1799.14
976.18	2060.87
976.35	1809.79
976.51	1772.11
976.68	2068.45
976.85	2018.27
977.01	1833.75
977.18	1847.88
977.35	1965.03
977.51	1732.17
977.68	1660.29
977.85	1755.72
978.01	2063.12
978.18	1999.84
978.35	1894.37
978.51	1899.90
978.68	2068.86
978.85	2177.81
979.01	1806.31
979.18	1860.99
979.34	1895.80
979.51	1943.52
979.68	1755.93
979.84	1851.57
980.01	2215.90
980.18	1925.50
980.34	1760.64
980.51	1896.21
980.67	1997.18
980.84	1973.22
981.01	1836.62
981.17	1890.07
981.34	1695.10
981.51	1979.98
981.67	1751.01
981.84	1902.36
982.00	1953.56
982.17	1890.07
982.34	1683.43
982.50	1594.75
982.67	2077.87
982.83	1837.64
983.00	1698.59
983.17	1588.40
983.33	1992.67
983.50	1704.73
983.66	1702.48
983.83	1600.49
984.00	1834.78
984.16	1867.13
984.33	1611.34
984.49	1590.25
984.66	1769.85
984.83	1997.59
984.99	1672.78
985.16	1579.39
985.32	1931.44
985.49	1970.56
985.65	1732.99
985.82	1624.86
985.99	2055.55
986.15	1910.35
986.32	1703.91
986.48	1663.57
986.65	1843.17
986.81	1956.63
986.98	1612.78
987.14	1673.40
987.31	1908.30
987.48	1695.10
987.64	1568.54
987.81	1586.97
987.97	2129.89
988.14	1777.64
988.30	1596.19
988.47	1526.97
988.63	1913.62
988.80	1756.75
988.96	1705.34
989.13	1728.69
989.30	1842.97
989.46	1968.30
989.63	1584.51
989.79	1599.26
989.96	1858.74
990.12	2066.81
990.29	1653.12
990.45	1695.92
990.62	1866.11
990.78	2015.82
990.95	1737.29
991.11	1657.01
991.28	1790.13
991.44	1892.53
991.61	1555.02
991.77	1702.48
991.94	1933.49
992.10	2035.48
992.27	1710.46
992.43	1669.71
992.60	1933.28
992.76	1814.09
992.93	1799.55
993.09	1617.08
993.26	2004.96
993.42	2101.42
993.59	1658.85
993.75	1559.32
993.92	1777.23
994.08	1805.90
994.25	1705.14
994.41	1587.38
994.58	1968.30
994.74	2034.66
994.91	1628.75
995.07	1717.63
995.24	1843.79
995.40	1861.19
995.56	1779.28
995.73	1724.39
995.89	2089.13
996.06	1868.98
996.22	1632.44
996.39	1573.86
996.55	1867.34
996.72	1904.00
996.88	1594.14
997.05	1625.88
997.21	2108.18
997.37	1936.15
997.54	1710.87
997.70	1660.08
997.87	1898.88
998.03	1869.39
998.20	1556.46
998.36	1581.03
998.52	1943.11
998.69	1984.69
998.85	1561.37
999.02	1649.64
999.18	1972.60
999.35	1970.97
999.51	1676.88
999.67	1675.85
999.84	1751.01
1000.00	1926.32
1000.17	1748.35
1000.33	1619.74
1000.49	1807.33
1000.66	1844.61
1000.82	1609.09
1000.99	1710.05
1001.15	2024.83
1001.31	1836.62
1001.48	1689.57
1001.64	1716.40
1001.81	1838.05
1001.97	2121.90
1002.13	1636.33
1002.30	1665.61
1002.46	2029.95
1002.63	1844.20
1002.79	1721.73
1002.95	1664.79
1003.12	2013.56
1003.28	1918.54
1003.45	1637.15
1003.61	1612.37
1003.77	1901.95
1003.94	1708.42
1004.10	1662.34
1004.26	1717.84
1004.43	1932.87
1004.59	2093.84
1004.75	1641.65
1004.92	1611.55
1005.08	1812.66
1005.25	1890.89
1005.41	1659.67
1005.57	1716.61
1005.74	2026.47
1005.90	1848.50
1006.06	1729.30
1006.23	1662.54
1006.39	1942.91
1006.55	2201.77
1006.72	1803.65
1006.88	1608.27
1007.04	1768.42
1007.21	1847.27
1007.37	1659.67
1007.53	1656.40
1007.70	2060.05
1007.86	1997.59
1008.02	1695.10
1008.19	1602.95
1008.35	1895.60
1008.51	1776.20
1008.68	1668.48
1008.84	1583.28
1009.00	1772.31
1009.17	1996.56
1009.33	1782.76
1009.49	1709.85
1009.65	1767.60
1009.82	1940.45
1009.98	1702.48
1010.14	1556.66
1010.31	1963.80
1010.47	1933.49
1010.63	1704.11
1010.80	1711.28
1010.96	1932.46
1011.12	1857.92
1011.28	1654.96
1011.45	1662.75
1011.61	2193.78
1011.77	1755.11
1011.94	1630.59
1012.10	1581.85
1012.26	1740.77
1012.42	1809.38
1012.59	1702.89
1012.75	1685.89
1012.91	1845.22
1013.07	1981.61
1013.24	1598.85
1013.40	1646.98
1013.56	1886.38
1013.72	1857.92
1013.89	1722.75
1014.05	1690.60
1014.21	2114.73
1014.37	2157.74
1014.54	1712.10
1014.70	1590.25
1014.86	1826.99
1015.02	1739.34
1015.19	1658.65
1015.35	1603.35
1015.51	1874.51
1015.67	1820.64
1015.84	1666.02
1016.00	1641.65
1016.16	1985.92
1016.32	1956.01
1016.49	1638.78
1016.65	1629.98
1016.81	1856.69
1016.97	1952.74
1017.14	1761.66
1017.30	1667.46
1017.46	1793.41
1017.62	1923.66
1017.78	1725.62
1017.95	1616.87
1018.11	1966.05
1018.27	2152.42
1018.43	1783.37
1018.59	1724.39
1018.76	1975.27
1018.92	2182.93
1019.08	1628.95
1019.24	1650.25
1019.40	2052.88
1019.57	1918.74
1019.73	1719.27
1019.89	1674.21
1020.05	1902.56
1020.21	2160.40
1020.38	1637.56
1020.54	1807.74
1020.70	1949.05
1020.86	1940.04
1021.02	1649.64
1021.18	1658.65
1021.35	1828.22
1021.51	1921.81
1021.67	1805.49
1021.83	1672.58
1021.99	1878.60
1022.15	1924.89
1022.32	1735.65
1022.48	1721.11
1022.64	2035.68
1022.80	2053.50
1022.96	1704.32
1023.12	1620.56
1023.29	1984.48
1023.45	1907.89
1023.61	1640.83
1023.77	1813.27
1023.93	1896.83
1024.09	1766.37
1024.25	1637.76
1024.42	1599.05
1024.58	1802.42
1024.74	1909.53
1024.90	1675.03
1025.06	1704.52
1025.22	1806.51
1025.38	2080.33
1025.54	1594.75
1025.71	1718.45
1025.87	1960.32
1026.03	1939.84
1026.19	1608.68
1026.35	1777.64
1026.51	1921.40
1026.67	1871.02
1026.83	1711.08
1026.99	1775.38
1027.16	1936.97
1027.32	2044.90
1027.48	1697.56
1027.64	1635.30
1027.80	1955.40
1027.96	1875.73
1028.12	1676.67
1028.28	1641.65
1028.44	1913.21
1028.60	2056.98
1028.77	1778.05
1028.93	1726.23
1029.09	1830.68
1029.25	1764.94
1029.41	1709.44
1029.57	1739.34
1029.73	1911.37
1029.89	2060.87
1030.05	1782.35
1030.21	1737.91
1030.37	2185.39
1030.53	1954.17
1030.69	1706.78
1030.85	1601.51
1031.02	1742.21
1031.18	1892.94
1031.34	1705.55
1031.50	1755.31
1031.66	1785.83
1031.82	2058.41
1031.98	1714.15
1032.14	1622.20
1032.30	1763.10
1032.46	2003.53
1032.62	1785.62
1032.78	1607.45
1032.94	1799.35
1033.10	1823.10
1033.26	1709.64
1033.42	1757.98
1033.58	2125.59
1033.74	1811.84
1033.90	1646.36
1034.06	1826.79
1034.22	2141.36
1034.38	2001.89
1034.54	1722.75
1034.70	1709.03
1034.86	2089.13
>>>>>End Processed Spectral Data<<<<<
