SpectraSuite Data File
++++++++++++++++++++++++++++++++++++
Date: Thu Mar 30 16:22:33 PDT 2017
User: UCSD _CER
Dark Spectrum Present: No
Reference Spectrum Present: No
Number of Sampled Component Spectra: 1
Spectrometers: USB4C00073
Integration Time (usec): 250000 (USB4C00073)
Spectra Averaged: 10 (USB4C00073)
Boxcar Smoothing: 0 (USB4C00073)
Correct for Electrical Dark: No (USB4C00073)
Strobe/Lamp Enabled: No (USB4C00073)
Correct for Detector Non-linearity: No (USB4C00073)
Correct for Stray Light: No (USB4C00073)
Number of Pixels in Processed Spectrum: 3648
>>>>>Begin Processed Spectral Data<<<<<
345.37	1291.04
345.58	1291.04
345.80	1291.04
346.01	1227.76
346.22	1287.15
346.43	1975.68
346.65	1797.50
346.86	2127.23
347.07	2099.58
347.28	1797.30
347.50	1793.61
347.71	1920.99
347.92	1721.32
348.13	1792.79
348.35	1729.30
348.56	1913.42
348.77	1767.19
348.98	1818.39
349.20	1678.31
349.41	1928.98
349.62	1987.14
349.83	1839.90
350.05	1729.51
350.26	1944.34
350.47	2093.84
350.68	1781.12
350.90	1712.72
351.11	2087.08
351.32	2052.06
351.53	1828.84
351.75	1725.82
351.96	1924.48
352.17	1918.74
352.38	1876.35
352.60	1868.16
352.81	1924.89
353.02	2144.63
353.23	1766.99
353.44	1798.94
353.66	1822.28
353.87	1855.05
354.08	1897.44
354.29	1787.88
354.51	1856.28
354.72	1909.32
354.93	1812.66
355.14	1746.10
355.35	1758.80
355.57	2049.81
355.78	1839.49
355.99	1887.00
356.20	1945.37
356.42	1901.54
356.63	1904.41
356.84	1851.98
357.05	2035.07
357.26	2198.29
357.48	1888.02
357.69	1859.35
357.90	1955.20
358.11	1863.86
358.32	1810.61
358.54	1843.38
358.75	1880.65
358.96	2025.03
359.17	1810.40
359.38	1805.69
359.60	1977.52
359.81	1913.62
360.02	1810.61
360.23	1790.13
360.44	1829.86
360.66	2047.97
360.87	1748.15
361.08	1736.27
361.29	1930.62
361.50	1907.89
361.72	1793.00
361.93	1855.25
362.14	1917.31
362.35	1720.09
362.56	1886.38
362.77	1740.36
362.99	1981.82
363.20	1917.31
363.41	1899.49
363.62	1727.26
363.83	1992.47
364.05	2019.09
364.26	1726.03
364.47	1781.73
364.68	2062.92
364.89	1813.07
365.10	1712.72
365.32	1826.38
365.53	1817.57
365.74	1850.75
365.95	1790.13
366.16	1707.80
366.37	1910.55
366.59	1884.34
366.80	1808.77
367.01	1675.85
367.22	2171.87
367.43	2290.04
367.64	1817.78
367.86	1774.16
368.07	1994.93
368.28	2058.41
368.49	1732.38
368.70	1838.87
368.91	1862.42
369.12	1892.94
369.34	1722.96
369.55	1750.19
369.76	1920.38
369.97	1844.20
370.18	1726.85
370.39	1730.74
370.60	1757.16
370.82	1772.72
371.03	1801.19
371.24	1757.57
371.45	1986.53
371.66	1945.37
371.87	1782.35
372.08	1747.94
372.30	1776.20
372.51	2009.06
372.72	1863.04
372.93	1770.88
373.14	2098.96
373.35	1807.54
373.56	1722.34
373.78	1807.13
373.99	2000.46
374.20	2270.79
374.41	1791.77
374.62	1820.44
374.83	2118.42
375.04	1866.72
375.25	1819.42
375.47	1757.36
375.68	1850.95
375.89	2017.66
376.10	1822.49
376.31	1907.48
376.52	1951.92
376.73	1977.52
376.94	1806.72
377.15	1793.41
377.37	1906.45
377.58	1862.01
377.79	1683.43
378.00	1721.93
378.21	1939.22
378.42	1978.13
378.63	1815.32
378.84	1899.70
379.05	2018.89
379.27	1908.91
379.48	1916.69
379.69	1744.05
379.90	2040.19
380.11	1663.97
380.32	1816.96
380.53	1892.32
380.74	2060.46
380.95	1915.67
381.16	1793.61
381.37	1782.76
381.59	2087.70
381.80	2032.20
382.01	1772.72
382.22	1672.37
382.43	1984.48
382.64	1959.09
382.85	1766.58
383.06	1843.17
383.27	2025.03
383.48	1886.79
383.69	1868.77
383.91	1740.16
384.12	1989.40
384.33	1950.08
384.54	1791.56
384.75	1674.83
384.96	2255.22
385.17	2041.82
385.38	1784.19
385.59	1789.31
385.80	1999.43
386.01	2092.20
386.22	1878.19
386.43	1825.97
386.64	2173.10
386.86	1882.08
387.07	1908.50
387.28	1704.52
387.49	1841.12
387.70	2076.85
387.91	1870.61
388.12	1738.52
388.33	1967.28
388.54	1836.62
388.75	1790.33
388.96	1854.44
389.17	1853.62
389.38	1885.16
389.59	1863.86
389.80	1812.45
390.01	1908.09
390.22	1863.65
390.43	1916.90
390.64	1672.58
390.86	1930.21
391.07	2000.46
391.28	1812.45
391.49	1837.64
391.70	1754.70
391.91	1808.97
392.12	1791.56
392.33	1808.15
392.54	1932.87
392.75	1856.89
392.96	1881.06
393.17	1725.62
393.38	2179.45
393.59	2055.34
393.80	1735.24
394.01	1908.71
394.22	2002.09
394.43	2308.27
394.64	1896.21
394.85	2043.26
395.06	2008.85
395.27	1997.38
395.48	1851.36
395.69	1736.68
395.90	1880.44
396.11	1911.98
396.32	1755.93
396.53	1892.32
396.74	1859.76
396.95	2033.22
397.16	1750.40
397.37	1687.73
397.58	2013.15
397.79	1930.21
398.00	1844.20
398.21	1815.32
398.42	1961.34
398.63	2199.31
398.84	1799.35
399.05	1762.89
399.26	2076.85
399.47	1957.65
399.68	1630.39
399.89	1745.89
400.10	1793.41
400.31	1860.78
400.52	1827.81
400.73	1778.05
400.94	1743.64
401.15	1954.99
401.36	1811.02
401.57	1873.28
401.78	2063.33
401.99	2006.60
402.20	1734.83
402.41	1934.31
402.62	2106.95
402.83	1885.97
403.04	1781.53
403.25	1954.38
403.46	2017.45
403.67	2229.62
403.88	2004.96
404.09	1978.95
404.30	2038.55
404.51	2014.79
404.72	1880.85
404.93	2013.77
405.14	1881.88
405.35	1926.93
405.56	1832.11
405.77	1790.13
405.98	1950.28
406.19	1894.78
406.40	1750.60
406.61	1765.55
406.82	1837.23
407.03	2205.25
407.24	1727.26
407.45	1838.05
407.66	1930.01
407.87	2020.94
408.08	1848.09
408.29	1889.87
408.49	1981.00
408.70	1896.62
408.91	1833.14
409.12	1880.24
409.33	1803.44
409.54	2069.68
409.75	1782.76
409.96	1807.33
410.17	2038.96
410.38	1867.54
410.59	1779.48
410.80	1884.13
411.01	1887.61
411.22	1890.07
411.43	1862.01
411.64	1759.61
411.85	1804.47
412.06	1783.37
412.27	1647.39
412.47	1811.63
412.68	1911.78
412.89	1956.83
413.10	1768.42
413.31	1703.50
413.52	2153.85
413.73	2164.91
413.94	1783.37
414.15	1918.33
414.36	1835.18
414.57	1839.69
414.78	1848.09
414.99	2354.96
415.19	2938.22
415.40	3123.97
415.61	3332.25
415.82	3125.81
416.03	2991.47
416.24	2675.67
416.45	2322.60
416.66	2033.02
416.87	1855.05
417.08	2093.43
417.29	1863.65
417.50	2016.43
417.70	2155.49
417.91	2189.28
418.12	2182.93
418.33	2290.04
418.54	2481.73
418.75	2671.17
418.96	2769.88
419.17	3184.80
419.38	3799.60
419.59	3847.31
419.79	3683.68
420.00	3533.16
420.21	3443.05
420.42	2700.86
420.63	2298.44
420.84	2162.65
421.05	1995.13
421.26	1944.96
421.47	1756.54
421.67	2077.66
421.88	1821.87
422.09	1768.01
422.30	1969.74
422.51	1800.98
422.72	2100.40
422.93	1975.88
423.14	1806.92
423.35	1719.47
423.55	1715.99
423.76	1808.97
423.97	1828.22
424.18	1733.20
424.39	1933.90
424.60	2096.51
424.81	1910.75
425.02	2168.80
425.22	2289.01
425.43	2314.20
425.64	2522.89
425.85	2539.48
426.06	2835.62
426.27	2740.39
426.48	2774.59
426.68	2734.45
426.89	2785.65
427.10	2840.12
427.31	2364.18
427.52	2036.50
427.73	2192.15
427.94	2064.76
428.14	1945.37
428.35	1825.56
428.56	2086.27
428.77	2040.19
428.98	1911.98
429.19	2124.77
429.40	2272.63
429.60	2362.13
429.81	2425.82
430.02	2327.11
430.23	2186.82
430.44	2178.22
430.65	1923.66
430.85	1927.34
431.06	1995.54
431.27	1726.44
431.48	1844.61
431.69	1836.00
431.90	1911.16
432.10	1937.17
432.31	1899.90
432.52	2021.14
432.73	2705.57
432.94	2672.60
433.15	2566.10
433.35	2427.25
433.56	2561.80
433.77	2280.41
433.98	2246.21
434.19	2088.93
434.40	2115.14
434.60	2029.74
434.81	1908.09
435.02	1928.16
435.23	1914.03
435.44	1867.95
435.64	1725.00
435.85	1776.82
436.06	1882.08
436.27	1840.71
436.48	1728.49
436.68	1769.65
436.89	2118.83
437.10	1963.18
437.31	1825.76
437.52	1899.29
437.73	1917.10
437.93	1914.85
438.14	1858.12
438.35	1711.49
438.56	1865.49
438.77	1877.37
438.97	1939.02
439.18	1751.42
439.39	2041.62
439.60	1729.71
439.80	1701.04
440.01	1827.20
440.22	1819.01
440.43	1981.00
440.64	1734.22
440.84	1844.81
441.05	1747.74
441.26	2262.19
441.47	1833.96
441.68	1781.53
441.88	1884.34
442.09	1874.71
442.30	1967.89
442.51	1875.12
442.71	1876.55
442.92	1940.25
443.13	1782.35
443.34	1764.33
443.55	1795.04
443.75	1958.06
443.96	1783.17
444.17	1761.05
444.38	2051.04
444.58	1792.59
444.79	1872.25
445.00	1822.90
445.21	1911.16
445.41	1867.54
445.62	1617.49
445.83	1912.60
446.04	1933.08
446.24	1753.88
446.45	1667.46
446.66	1788.29
446.87	1969.53
447.07	1833.34
447.28	1985.30
447.49	1835.39
447.70	2001.89
447.90	2043.05
448.11	1798.94
448.32	1892.32
448.53	2073.16
448.73	2061.69
448.94	1805.08
449.15	1926.32
449.36	1921.81
449.56	1961.95
449.77	1820.85
449.98	1757.98
450.19	1956.22
450.39	2068.45
450.60	2069.27
450.81	2055.75
451.02	2142.18
451.22	2213.04
451.43	1922.22
451.64	1920.18
451.84	2003.12
452.05	2214.88
452.26	1950.69
452.47	1883.93
452.67	1900.52
452.88	2100.81
453.09	1788.29
453.30	1735.86
453.50	2005.99
453.71	2106.13
453.92	1804.06
454.12	1913.21
454.33	1818.80
454.54	1876.96
454.75	1771.90
454.95	1770.06
455.16	1938.20
455.37	1992.88
455.57	1846.24
455.78	1832.73
455.99	1885.16
456.19	1930.42
456.40	1749.17
456.61	1849.11
456.82	1914.85
457.02	1989.40
457.23	1874.71
457.44	2007.01
457.64	1850.75
457.85	1968.71
458.06	1845.22
458.26	1889.46
458.47	1947.82
458.68	2054.52
458.89	1815.52
459.09	2077.05
459.30	2275.70
459.51	2039.37
459.71	1788.70
459.92	1831.50
460.13	2012.13
460.33	2225.32
460.54	1816.75
460.75	1827.20
460.95	1768.42
461.16	1973.42
461.37	1811.02
461.57	1851.16
461.78	1930.62
461.99	1814.91
462.19	2073.77
462.40	1879.22
462.61	2432.37
462.81	2111.25
463.02	1813.89
463.23	1842.76
463.43	2040.39
463.64	1897.44
463.85	2795.68
464.05	1880.65
464.26	2372.37
464.47	2138.49
464.67	2021.96
464.88	1916.08
465.09	1841.12
465.29	1942.09
465.50	1946.59
465.71	1839.69
465.91	1846.04
466.12	1904.00
466.33	1888.02
466.53	1806.51
466.74	2085.65
466.94	1898.88
467.15	1836.62
467.36	1994.52
467.56	1803.24
467.77	1970.56
467.98	1889.05
468.18	1794.43
468.39	1846.24
468.60	2187.85
468.80	1857.30
469.01	1788.90
469.21	2010.70
469.42	2109.00
469.63	1932.05
469.83	1870.00
470.04	2148.73
470.25	2285.74
470.45	1965.44
470.66	1865.70
470.86	2022.57
471.07	1915.67
471.28	1930.62
471.48	2003.12
471.69	1954.99
471.90	2386.09
472.10	1829.04
472.31	1836.00
472.51	1822.90
472.72	1822.69
472.93	1790.33
473.13	1953.97
473.34	1949.26
473.54	1909.32
473.75	1856.28
473.96	2038.14
474.16	1909.94
474.37	2058.62
474.57	1947.21
474.78	1909.73
474.99	2054.11
475.19	2036.50
475.40	1844.20
475.60	1772.93
475.81	2145.45
476.02	1933.49
476.22	1973.01
476.43	2092.82
476.63	1998.41
476.84	2173.10
477.05	1782.55
477.25	1843.79
477.46	2350.04
477.66	1967.48
477.87	1722.34
478.08	1879.22
478.28	2065.79
478.49	1911.57
478.69	1795.45
478.90	1828.43
479.10	2028.72
479.31	2130.30
479.52	1919.56
479.72	2005.37
479.93	2019.71
480.13	1865.49
480.34	1819.01
480.54	1903.79
480.75	1859.35
480.96	2054.11
481.16	1788.49
481.37	1935.13
481.57	2039.16
481.78	1971.58
481.98	2045.10
482.19	1899.29
482.40	2181.91
482.60	2037.32
482.81	1973.63
483.01	1887.82
483.22	2132.96
483.42	2159.17
483.63	2028.92
483.83	1954.99
484.04	1902.77
484.24	2029.13
484.45	1913.42
484.66	1742.00
484.86	1989.81
485.07	1843.58
485.27	1909.12
485.48	1828.02
485.68	2099.99
485.89	1856.48
486.09	1959.09
486.30	1855.46
486.50	1985.71
486.71	1984.48
486.91	2057.59
487.12	2124.97
487.33	2333.87
487.53	2364.99
487.74	2111.66
487.94	2103.06
488.15	2245.39
488.35	2303.76
488.56	2151.39
488.76	2137.46
488.97	2166.55
489.17	2176.58
489.38	2007.21
489.58	1934.51
489.79	2081.97
489.99	1993.08
490.20	1931.03
490.40	1992.26
490.61	2001.68
490.81	1887.41
491.02	1891.50
491.22	1944.75
491.43	2081.35
491.63	1956.83
491.84	2035.27
492.04	1809.18
492.25	2020.32
492.45	1894.78
492.66	1840.10
492.86	1768.22
493.07	1881.67
493.27	2206.48
493.48	1757.36
493.68	1883.31
493.89	1920.59
494.09	2040.80
494.30	1838.46
494.50	2111.25
494.71	2044.49
494.91	1873.48
495.12	1974.04
495.32	2101.83
495.53	2071.52
495.73	1839.69
495.94	1914.44
496.14	1746.51
496.35	2189.89
496.55	1904.82
496.76	1854.23
496.96	1939.02
497.17	1969.12
497.37	2041.01
497.58	1843.58
497.78	1820.03
497.98	1922.43
498.19	1954.79
498.39	1970.76
498.60	1973.22
498.80	1797.71
499.01	2076.03
499.21	1824.54
499.42	1900.72
499.62	1930.42
499.83	2218.77
500.03	1762.69
500.24	1939.43
500.44	2131.73
500.64	2068.04
500.85	1850.13
501.05	1959.70
501.26	1759.61
501.46	2111.25
501.67	1820.85
501.87	1757.57
502.08	1830.68
502.28	1900.11
502.48	1968.30
502.69	2051.45
502.89	1837.64
503.10	1914.44
503.30	1933.90
503.51	1951.10
503.71	1822.08
503.92	2066.81
504.12	2049.81
504.32	2002.30
504.53	2184.77
504.73	2241.09
504.94	2191.74
505.14	2290.45
505.35	2355.78
505.55	2351.07
505.75	2226.55
505.96	2362.33
506.16	2431.35
506.37	2074.59
506.57	1988.17
506.78	2070.50
506.98	2216.72
507.18	1904.61
507.39	1895.60
507.59	1971.58
507.80	1950.08
508.00	2044.69
508.20	2133.98
508.41	1984.07
508.61	2171.87
508.82	2102.24
509.02	2025.44
509.22	1824.94
509.43	1843.38
509.63	1871.23
509.84	1879.42
510.04	1786.85
510.24	2136.85
510.45	2040.80
510.65	1798.73
510.86	1930.21
511.06	1836.00
511.26	2093.84
511.47	2042.23
511.67	1922.63
511.88	2071.11
512.08	2100.81
512.28	1812.86
512.49	1978.13
512.69	1970.97
512.90	1983.05
513.10	1835.80
513.30	1910.35
513.51	2021.96
513.71	2159.99
513.91	1951.51
514.12	1998.20
514.32	2153.64
514.53	2038.75
514.73	2146.48
514.93	2111.05
515.14	2233.51
515.34	2497.91
515.54	2410.87
515.75	2504.05
515.95	2641.06
516.15	2642.08
516.36	2325.26
516.56	2212.83
516.77	1892.53
516.97	2174.33
517.17	2048.79
517.38	2110.64
517.58	2293.11
517.78	2178.63
517.99	2428.89
518.19	2536.00
518.39	2816.78
518.60	2645.16
518.80	2429.51
519.00	2359.67
519.21	2200.13
519.41	2373.39
519.61	1983.66
519.82	2077.25
520.02	2055.55
520.22	2057.59
520.43	2024.21
520.63	2040.19
520.83	1985.71
521.04	1911.98
521.24	2334.68
521.44	2387.73
521.65	2466.57
521.85	2711.51
522.05	2447.73
522.26	2300.48
522.46	2466.98
522.66	2252.97
522.87	1997.18
523.07	2197.88
523.27	2032.20
523.48	2255.43
523.68	2065.99
523.88	2070.91
524.09	2211.40
524.29	2130.71
524.49	2022.16
524.70	2343.70
524.90	2517.77
525.10	2394.49
525.31	2114.73
525.51	1985.51
525.71	2172.49
525.91	2085.65
526.12	1913.83
526.32	1817.98
526.52	1893.55
526.73	1888.64
526.93	1929.19
527.13	1839.69
527.34	1957.04
527.54	1974.65
527.74	1925.50
527.94	1875.53
528.15	1899.90
528.35	1989.19
528.55	2024.83
528.76	1987.96
528.96	1755.93
529.16	2066.40
529.36	2023.19
529.57	1804.87
529.77	2067.63
529.97	1824.74
530.18	1993.90
530.38	1879.42
530.58	2019.30
530.78	1970.97
530.99	1874.71
531.19	2004.76
531.39	1915.06
531.60	1986.12
531.80	1887.00
532.00	2029.74
532.20	1976.49
532.41	1882.70
532.61	1884.75
532.81	1865.49
533.01	1886.38
533.22	1970.56
533.42	1991.85
533.62	1741.18
533.82	2122.92
534.03	1910.55
534.23	1973.01
534.43	1839.90
534.63	1880.44
534.84	1966.87
535.04	1949.87
535.24	1915.26
535.44	2257.89
535.65	1891.71
535.85	1830.88
536.05	1827.40
536.25	1921.20
536.46	1870.21
536.66	2108.18
536.86	2008.65
537.06	2135.83
537.27	2210.17
537.47	2022.57
537.67	1916.49
537.87	2165.11
538.08	1937.99
538.28	1838.67
538.48	1853.00
538.68	1997.59
538.88	2101.01
539.09	1874.71
539.29	1929.80
539.49	2077.05
539.69	2018.89
539.90	2000.46
540.10	1858.94
540.30	2183.75
540.50	1967.69
540.70	1877.17
540.91	2044.49
541.11	2169.00
541.31	2364.79
541.51	2231.47
541.72	2271.61
541.92	2334.68
542.12	2166.14
542.32	2079.71
542.52	1977.11
542.73	1953.56
542.93	2087.49
543.13	1971.17
543.33	2125.79
543.53	2235.36
543.74	2278.37
543.94	2132.75
544.14	2330.59
544.34	2521.66
544.54	2405.54
544.75	2552.18
544.95	2714.99
545.15	2573.48
545.35	2608.50
545.55	2402.06
545.75	2168.39
545.96	2449.78
546.16	1987.35
546.36	2055.75
546.56	2053.50
546.76	2188.66
546.97	2273.45
547.17	2020.12
547.37	2020.73
547.57	1921.40
547.77	2063.94
547.97	1962.16
548.18	2001.48
548.38	2041.62
548.58	2656.42
548.78	2849.75
548.98	3256.88
549.18	3656.24
549.39	3843.42
549.59	3393.28
549.79	3015.84
549.99	3118.24
550.19	2837.46
550.39	2674.44
550.60	2390.39
550.80	2358.65
551.00	2293.72
551.20	2108.18
551.40	2028.10
551.60	2138.90
551.80	2099.17
552.01	2129.68
552.21	2067.63
552.41	2104.49
552.61	2283.08
552.81	2049.20
553.01	1896.01
553.21	2100.81
553.42	1892.12
553.62	1892.73
553.82	1864.06
554.02	2179.24
554.22	2068.65
554.42	1842.35
554.62	2020.32
554.83	2426.64
555.03	2775.41
555.23	2812.48
555.43	3232.92
555.63	3231.08
555.83	3043.90
556.03	2701.07
556.23	2508.97
556.44	2655.81
556.64	2713.56
556.84	2277.14
557.04	2501.18
557.24	2501.39
557.44	2352.30
557.64	2213.44
557.84	2033.22
558.04	2053.29
558.25	2164.29
558.45	1980.80
558.65	2057.39
558.85	2133.98
559.05	1932.46
559.25	2109.82
559.45	2273.04
559.65	2728.51
559.85	3302.35
560.05	2800.39
560.26	2902.59
560.46	2951.74
560.66	2708.85
560.86	2492.58
561.06	2309.49
561.26	2537.64
561.46	2335.30
561.66	2140.13
561.86	2224.50
562.06	2066.81
562.26	2094.05
562.47	2060.46
562.67	1920.99
562.87	2081.15
563.07	1853.62
563.27	2048.58
563.47	2067.42
563.67	2000.66
563.87	2175.56
564.07	2131.73
564.27	2279.59
564.47	2351.89
564.67	2503.03
564.87	2370.93
565.08	2411.89
565.28	2219.59
565.48	2312.98
565.68	2189.07
565.88	2164.70
566.08	2333.05
566.28	2053.50
566.48	1855.05
566.68	1938.20
566.88	1939.43
567.08	2065.17
567.28	1971.37
567.48	1991.65
567.68	2128.66
567.88	1973.42
568.08	2165.11
568.28	2245.39
568.48	2115.55
568.68	2317.07
568.89	2091.59
569.09	1895.40
569.29	2128.04
569.49	2139.31
569.69	1896.01
569.89	1866.31
570.09	1746.51
570.29	1877.37
570.49	1793.41
570.69	1854.03
570.89	2040.80
571.09	2199.93
571.29	1756.75
571.49	2047.97
571.69	1982.84
571.89	1995.13
572.09	1842.97
572.29	1833.75
572.49	2026.67
572.69	2000.25
572.89	1989.60
573.09	1832.32
573.29	2142.79
573.49	2204.02
573.69	2213.24
573.89	2237.61
574.09	2052.06
574.29	2206.69
574.49	1975.47
574.69	1926.73
574.89	1826.79
575.09	1855.25
575.29	1829.25
575.49	1921.61
575.69	1966.87
575.89	1780.71
576.09	1925.71
576.29	1987.76
576.49	1890.07
576.69	2017.04
576.89	1915.87
577.09	2029.95
577.29	1842.15
577.49	2237.20
577.69	1918.74
577.89	2035.27
578.09	1982.64
578.29	1789.72
578.49	1952.12
578.69	1850.75
578.89	2087.08
579.09	1975.47
579.29	1891.09
579.49	2098.14
579.69	1978.34
579.89	2220.82
580.09	1824.33
580.29	1795.66
580.49	1889.25
580.69	1811.63
580.89	1899.70
581.09	1888.02
581.29	1855.25
581.49	1904.20
581.69	1784.60
581.89	1813.89
582.09	1812.25
582.28	1833.14
582.48	2090.77
582.68	2203.82
582.88	2265.05
583.08	2066.81
583.28	2071.73
583.48	2047.76
583.68	1954.17
583.88	1991.65
584.08	1995.13
584.28	1945.37
584.48	2228.60
584.68	2036.09
584.88	1913.21
585.08	2082.37
585.28	2099.58
585.48	2159.17
585.68	2061.28
585.87	2078.07
586.07	2073.16
586.27	1997.38
586.47	2025.03
586.67	1916.28
586.87	1947.62
587.07	1903.18
587.27	1876.96
587.47	2033.22
587.67	2350.45
587.87	2792.41
588.07	2685.71
588.27	2707.82
588.46	2990.65
588.66	3023.21
588.86	2622.63
589.06	2555.05
589.26	2457.77
589.46	2377.90
589.66	2048.17
589.86	2000.87
590.06	2111.25
590.26	2352.30
590.46	2253.18
590.66	2425.41
590.85	2395.30
591.05	2501.80
591.25	2180.47
591.45	2198.70
591.65	2315.02
591.85	2302.74
592.05	2282.67
592.25	2452.24
592.45	2572.25
592.64	2406.77
592.84	2315.43
593.04	2151.80
593.24	2558.94
593.44	2188.05
593.64	2223.89
593.84	2259.32
594.04	2169.41
594.24	2338.78
594.43	2024.62
594.63	2058.41
594.83	2142.99
595.03	2103.67
595.23	1888.64
595.43	1815.32
595.63	1883.93
595.83	2117.39
596.02	1783.37
596.22	1986.53
596.42	2065.79
596.62	2042.23
596.82	1947.62
597.02	2086.88
597.22	2166.75
597.41	2000.46
597.61	1966.05
597.81	2126.61
598.01	2221.02
598.21	2061.69
598.41	2065.58
598.61	2038.75
598.80	2119.44
599.00	2155.90
599.20	2237.20
599.40	2090.36
599.60	2101.83
599.80	2239.86
599.99	2207.92
600.19	2035.48
600.39	2098.55
600.59	2140.33
600.79	2103.06
600.99	2075.21
601.19	2287.79
601.38	2319.94
601.58	2130.91
601.78	1907.27
601.98	2463.30
602.18	3456.36
602.37	4306.67
602.57	4675.92
602.77	5197.13
602.97	5399.88
603.17	5034.11
603.37	4746.58
603.56	4762.55
603.76	4553.86
603.96	4394.53
604.16	4118.67
604.36	3739.39
604.56	3403.11
604.75	2972.01
604.95	2857.74
605.15	2882.93
605.35	2711.31
605.55	2457.15
605.74	2349.43
605.94	2494.02
606.14	2255.02
606.34	2197.88
606.54	2082.37
606.73	2011.92
606.93	2085.65
607.13	1945.37
607.33	2003.53
607.53	2178.01
607.72	2111.46
607.92	2040.80
608.12	2113.09
608.32	1994.31
608.51	2122.51
608.71	1976.70
608.91	2148.52
609.11	2255.43
609.31	2232.70
609.50	2387.32
609.70	2595.39
609.90	2587.20
610.10	2575.32
610.29	2426.23
610.49	2265.67
610.69	2378.10
610.89	2240.07
611.09	2199.11
611.28	2255.02
611.48	2233.11
611.68	2089.95
611.88	2006.39
612.07	1972.40
612.27	2155.08
612.47	1992.88
612.67	2066.81
612.86	2102.44
613.06	1982.43
613.26	1828.84
613.46	1998.00
613.65	2139.92
613.85	2561.19
614.05	2364.18
614.25	2335.50
614.44	2219.38
614.64	2258.91
614.84	2163.88
615.04	2127.43
615.23	2164.70
615.43	2271.81
615.63	2251.33
615.83	2067.01
616.02	2087.49
616.22	2433.60
616.42	2323.83
616.62	2417.22
616.81	2542.35
617.01	2549.93
617.21	2423.16
617.41	2208.53
617.60	2234.95
617.80	2263.21
618.00	2200.13
618.19	2119.44
618.39	2088.31
618.59	2097.53
618.79	1962.98
618.98	1754.09
619.18	1906.86
619.38	2204.02
619.57	1897.44
619.77	1911.57
619.97	1901.13
620.17	1945.78
620.36	1966.46
620.56	2334.68
620.76	2163.68
620.95	2267.10
621.15	2318.92
621.35	2195.22
621.54	2188.05
621.74	2205.87
621.94	2056.16
622.14	2001.89
622.33	1902.15
622.53	2013.97
622.73	1963.39
622.92	1792.59
623.12	1950.49
623.32	2165.11
623.51	2014.59
623.71	1764.73
623.91	2055.34
624.10	1842.76
624.30	1974.45
624.50	1825.35
624.69	1836.82
624.89	2428.69
625.09	1914.44
625.29	1726.03
625.48	1781.12
625.68	1931.44
625.88	2050.43
626.07	1937.38
626.27	1819.83
626.47	1833.34
626.66	1737.91
626.86	1862.63
627.06	1865.49
627.25	1921.20
627.45	2143.40
627.64	1886.38
627.84	2088.93
628.04	1795.04
628.23	2157.94
628.43	1814.71
628.63	1917.51
628.82	2024.42
629.02	2353.12
629.22	2223.07
629.41	2318.51
629.61	2209.96
629.81	2507.74
630.00	2214.06
630.20	2165.93
630.40	2348.82
630.59	2386.09
630.79	2212.01
630.98	2106.75
631.18	2113.71
631.38	2079.51
631.57	2158.35
631.77	1867.34
631.97	1998.00
632.16	2023.60
632.36	1924.89
632.56	1937.79
632.75	1946.18
632.95	2020.53
633.14	1776.82
633.34	2054.11
633.54	1692.85
633.73	1849.32
633.93	1843.17
634.12	1729.30
634.32	2223.68
634.52	1893.96
634.71	1770.06
634.91	1942.91
635.11	1760.84
635.30	1843.38
635.50	1942.70
635.69	1820.64
635.89	2261.78
636.09	2129.68
636.28	1917.31
636.48	1946.39
636.67	2119.03
636.87	2111.66
637.07	2052.88
637.26	1941.88
637.46	2090.98
637.65	2214.06
637.85	2077.25
638.04	2011.11
638.24	2067.42
638.44	2104.70
638.63	2031.58
638.83	1950.08
639.02	2046.13
639.22	2055.96
639.42	1918.33
639.61	1934.31
639.81	1943.52
640.00	1908.30
640.20	1993.70
640.39	2095.48
640.59	2536.82
640.79	2658.67
640.98	2740.80
641.18	2806.33
641.37	2850.77
641.57	2609.11
641.76	2480.29
641.96	2209.96
642.15	2365.20
642.35	2236.79
642.55	2211.40
642.74	2005.17
642.94	2220.20
643.13	2236.18
643.33	1986.32
643.52	1886.18
643.72	1861.19
643.91	1926.52
644.11	1862.01
644.31	1776.41
644.50	1818.19
644.70	2049.81
644.89	1874.71
645.09	1925.91
645.28	1929.39
645.48	1971.99
645.67	1835.80
645.87	1744.66
646.06	1902.15
646.26	1993.70
646.45	1724.18
646.65	1686.30
646.84	2171.67
647.04	1874.51
647.24	1787.88
647.43	1921.20
647.63	1945.98
647.82	2108.18
648.02	1777.02
648.21	1823.31
648.41	2079.92
648.60	1887.20
648.80	2010.49
648.99	1942.50
649.19	1865.90
649.38	1738.93
649.58	1908.71
649.77	1925.91
649.97	2061.69
650.16	1973.63
650.36	1679.33
650.55	1997.38
650.75	1968.51
650.94	2107.16
651.14	1888.43
651.33	1948.23
651.53	2112.89
651.72	1853.00
651.92	1839.90
652.11	1706.78
652.31	1972.19
652.50	1971.17
652.70	1953.15
652.89	1822.08
653.09	2145.66
653.28	1939.63
653.48	1798.53
653.67	1769.44
653.87	2351.07
654.06	1965.64
654.25	2069.88
654.45	1849.11
654.64	1894.58
654.84	1904.20
655.03	1692.24
655.23	2021.35
655.42	2004.96
655.62	2156.10
655.81	1894.37
656.01	1830.88
656.20	2008.85
656.40	2080.33
656.59	1899.29
656.79	2031.79
656.98	1954.17
657.17	2027.28
657.37	1893.55
657.56	1836.41
657.76	1960.73
657.95	2047.56
658.15	1588.20
658.34	1894.78
658.54	1908.09
658.73	1781.53
658.92	1878.40
659.12	1939.43
659.31	2040.19
659.51	1896.62
659.70	2097.32
659.90	2008.03
660.09	2219.38
660.29	2068.24
660.48	1921.20
660.67	2130.71
660.87	1925.71
661.06	2002.91
661.26	2034.86
661.45	1984.48
661.65	1996.97
661.84	1876.55
662.03	1848.50
662.23	1852.39
662.42	2156.92
662.62	1805.49
662.81	1782.14
663.00	1859.97
663.20	1931.85
663.39	1951.51
663.59	1987.96
663.78	1829.45
663.97	1873.28
664.17	1981.61
664.36	1726.64
664.56	1782.14
664.75	2021.96
664.94	1992.06
665.14	1960.52
665.33	1960.11
665.53	2029.54
665.72	2031.18
665.91	2123.95
666.11	1996.36
666.30	2029.74
666.50	1938.61
666.69	2004.14
666.88	1947.62
667.08	1987.76
667.27	1918.33
667.47	1958.88
667.66	1891.30
667.85	2060.46
668.05	1929.19
668.24	1863.65
668.43	2047.15
668.63	1891.50
668.82	2054.52
669.02	2007.42
669.21	1937.58
669.40	1821.67
669.60	2205.05
669.79	1795.04
669.98	2388.14
670.18	1824.13
670.37	1793.61
670.56	1864.27
670.76	1961.95
670.95	1920.18
671.15	2099.37
671.34	2004.96
671.53	1982.23
671.73	1949.05
671.92	1909.94
672.11	1808.77
672.31	1901.13
672.50	1981.00
672.69	1811.43
672.89	1692.65
673.08	1876.35
673.27	2035.07
673.47	1946.59
673.66	1929.39
673.85	1827.40
674.05	2119.24
674.24	2509.17
674.43	2726.26
674.63	3189.30
674.82	3623.88
675.01	3143.63
675.21	3178.65
675.40	2875.96
675.59	2788.31
675.79	2963.00
675.98	2581.67
676.17	2663.59
676.37	2554.43
676.56	2344.51
676.75	2274.27
676.95	2145.25
677.14	2056.98
677.33	2142.18
677.52	1880.24
677.72	1898.06
677.91	2006.80
678.10	1782.55
678.30	1791.97
678.49	1790.74
678.68	2174.12
678.88	1725.62
679.07	2045.92
679.26	1865.70
679.45	2129.89
679.65	2059.85
679.84	1691.01
680.03	1757.57
680.23	1872.46
680.42	2240.48
680.61	1763.71
680.81	1835.59
681.00	1930.42
681.19	1987.35
681.38	2019.09
681.58	1982.23
681.77	1910.75
681.96	2061.08
682.15	1906.04
682.35	2017.04
682.54	2021.35
682.73	1813.07
682.93	1851.57
683.12	1855.25
683.31	2021.75
683.50	2290.45
683.70	1836.82
683.89	1924.48
684.08	1820.23
684.27	2055.55
684.47	1771.70
684.66	1944.96
684.85	2207.71
685.04	2087.29
685.24	1837.03
685.43	1917.92
685.62	1737.09
685.81	2004.76
686.01	2221.84
686.20	2406.98
686.39	2477.43
686.58	3032.84
686.78	2877.40
686.97	2805.51
687.16	2693.49
687.35	2582.69
687.55	2450.80
687.74	2470.26
687.93	2305.40
688.12	2376.05
688.32	2340.83
688.51	2147.50
688.70	2282.46
688.89	2006.39
689.08	1923.45
689.28	1931.44
689.47	2021.96
689.66	2016.02
689.85	2040.19
690.05	1888.84
690.24	1855.05
690.43	1996.16
690.62	1981.20
690.81	1845.42
691.01	1906.45
691.20	1894.37
691.39	1814.91
691.58	1963.59
691.77	2137.87
691.97	1962.36
692.16	1969.74
692.35	1917.31
692.54	1894.78
692.73	2169.00
692.93	2163.47
693.12	2267.51
693.31	2360.28
693.50	2304.17
693.69	2295.77
693.89	2118.62
694.08	2296.39
694.27	2307.24
694.46	2041.21
694.65	2136.44
694.85	2200.13
695.04	2207.30
695.23	2182.11
695.42	2936.38
695.61	3523.53
695.80	3940.29
696.00	4318.14
696.19	4474.20
696.38	3910.80
696.57	3519.02
696.76	3433.21
696.95	3144.66
697.15	3231.69
697.34	3083.22
697.53	2703.73
697.72	2622.22
697.91	2449.78
698.10	2522.07
698.30	2137.46
698.49	2078.48
698.68	2105.72
698.87	1997.79
699.06	1873.07
699.25	1932.05
699.45	2068.45
699.64	1965.23
699.83	2045.51
700.02	1830.06
700.21	2009.26
700.40	1857.92
700.59	1897.03
700.79	1864.06
700.98	1984.28
701.17	1822.49
701.36	1839.49
701.55	1826.17
701.74	2181.29
701.93	2279.59
702.12	2720.93
702.32	2893.98
702.51	3252.17
702.70	3314.84
702.89	2994.74
703.08	2639.63
703.27	2849.54
703.46	2665.02
703.65	2486.44
703.85	2295.77
704.04	2279.80
704.23	2436.88
704.42	2131.12
704.61	2076.44
704.80	2271.40
704.99	1931.23
705.18	2033.22
705.37	2013.36
705.57	2570.82
705.76	3482.16
705.95	3730.78
706.14	4419.11
706.33	4771.36
706.52	4798.19
706.71	3896.47
706.90	3545.85
707.09	3469.46
707.28	3301.94
707.47	2965.87
707.67	2990.44
707.86	2689.19
708.05	2786.67
708.24	2460.43
708.43	2324.65
708.62	2145.04
708.81	1988.78
709.00	1896.83
709.19	1884.95
709.38	2097.73
709.57	1858.74
709.76	2093.23
709.96	2027.28
710.15	2269.76
710.34	2129.89
710.53	2201.16
710.72	2046.54
710.91	2196.24
711.10	2109.41
711.29	2098.55
711.48	1991.65
711.67	1930.42
711.86	2120.26
712.05	1936.76
712.24	1956.63
712.43	2119.24
712.62	2138.28
712.81	1998.20
713.00	2089.75
713.19	1829.25
713.39	2032.81
713.58	1863.04
713.77	2014.38
713.96	2142.38
714.15	2036.70
714.34	2027.90
714.53	1935.94
714.72	2315.84
714.91	1990.63
715.10	2107.97
715.29	1979.16
715.48	2521.87
715.67	2225.53
715.86	2111.87
716.05	2042.44
716.24	2007.01
716.43	1952.12
716.62	1859.76
716.81	1859.97
717.00	1981.00
717.19	2182.93
717.38	1981.20
717.57	1918.74
717.76	1756.54
717.95	2026.26
718.14	1947.82
718.33	1867.54
718.52	1721.32
718.71	1748.76
718.90	1776.20
719.09	1878.60
719.28	1901.13
719.47	2060.87
719.66	2142.38
719.85	2202.59
720.04	2187.44
720.23	2296.39
720.42	2168.59
720.61	2207.51
720.80	1986.32
720.99	2156.92
721.18	2042.03
721.37	1952.94
721.56	1993.08
721.75	2136.65
721.94	1892.12
722.13	1983.66
722.32	1954.38
722.51	2077.87
722.70	1929.39
722.89	1969.12
723.08	1917.10
723.27	2041.01
723.46	1915.87
723.65	1852.59
723.84	1857.92
724.03	2080.94
724.22	1785.21
724.41	1938.20
724.60	1853.00
724.79	2021.75
724.98	1945.98
725.16	1862.83
725.35	1993.90
725.54	1816.14
725.73	1938.20
725.92	1964.62
726.11	2094.25
726.30	2378.51
726.49	2270.79
726.68	2440.97
726.87	2551.36
727.06	2619.35
727.25	2276.32
727.44	2353.12
727.63	2281.64
727.82	2206.28
728.01	2222.25
728.20	2259.11
728.38	2333.87
728.57	2104.90
728.76	2048.79
728.95	2131.73
729.14	1833.75
729.33	1822.08
729.52	1727.26
729.71	1848.91
729.90	1836.21
730.09	1955.20
730.28	2038.14
730.47	2078.69
730.66	2367.45
730.84	2284.10
731.03	2254.81
731.22	2242.94
731.41	2170.44
731.60	2176.79
731.79	1942.91
731.98	1969.74
732.17	2144.43
732.36	2094.05
732.55	1981.00
732.73	1877.58
732.92	2137.06
733.11	2033.02
733.30	1902.97
733.49	1805.28
733.68	2031.58
733.87	2012.13
734.06	1942.09
734.25	2126.61
734.43	2327.52
734.62	2568.36
734.81	2611.57
735.00	2594.78
735.19	2448.76
735.38	2410.46
735.57	2209.14
735.76	2329.97
735.94	2538.05
736.13	3186.43
736.32	3312.18
736.51	3487.90
736.70	3889.50
736.89	3988.83
737.08	3829.29
737.27	4300.12
737.45	5469.31
737.64	5804.76
737.83	6424.89
738.02	6606.13
738.21	6359.35
738.40	5433.47
738.59	4825.42
738.77	4592.57
738.96	4248.51
739.15	4010.33
739.34	3771.74
739.53	3452.26
739.72	3364.81
739.90	3090.38
740.09	2654.58
740.28	2569.59
740.47	2466.37
740.66	2327.72
740.85	2054.52
741.03	2101.22
741.22	1977.31
741.41	2062.92
741.60	1920.99
741.79	2102.65
741.98	2262.60
742.16	2364.99
742.35	2191.33
742.54	2222.87
742.73	2627.13
742.92	2363.77
743.10	2293.72
743.29	2334.48
743.48	2605.63
743.67	2194.81
743.86	2050.63
744.05	2061.49
744.23	2048.79
744.42	2042.23
744.61	2062.51
744.80	1905.02
744.99	1980.80
745.17	1807.54
745.36	1829.86
745.55	1982.43
745.74	1953.97
745.93	1849.11
746.11	1844.61
746.30	1822.28
746.49	2054.73
746.68	1833.75
746.86	1909.12
747.05	1907.68
747.24	2017.25
747.43	2087.90
747.62	1902.56
747.80	2002.91
747.99	2227.58
748.18	2202.80
748.37	2107.16
748.56	2086.27
748.74	2158.35
748.93	2128.45
749.12	2368.27
749.31	3271.02
749.49	4006.44
749.68	4507.78
749.87	4993.56
750.06	5199.79
750.24	5276.80
750.43	5722.02
750.62	6398.26
750.81	6831.82
750.99	7261.69
751.18	7217.66
751.37	6073.05
751.56	5350.11
751.74	5384.93
751.93	5097.80
752.12	4199.56
752.31	3905.27
752.49	3594.19
752.68	3563.67
752.87	3114.76
753.06	2868.39
753.24	2647.61
753.43	2616.69
753.62	2233.11
753.81	2134.19
753.99	2301.30
754.18	2114.32
754.37	1900.52
754.55	1983.87
754.74	2167.37
754.93	1772.72
755.12	1898.06
755.30	1829.45
755.49	2032.40
755.68	1967.28
755.86	1960.52
756.05	1834.78
756.24	2110.64
756.43	1754.90
756.61	1778.87
756.80	1956.22
756.99	2075.82
757.17	1934.10
757.36	1813.89
757.55	1926.73
757.74	2008.85
757.92	1958.68
758.11	1790.13
758.30	1721.52
758.48	1897.24
758.67	1798.32
758.86	1883.72
759.04	1807.13
759.23	1893.14
759.42	1923.66
759.60	1852.18
759.79	1877.99
759.98	1877.58
760.16	1816.34
760.35	1811.84
760.54	1770.26
760.73	1952.33
760.91	1743.44
761.10	1943.32
761.29	1956.42
761.47	1949.87
761.66	2206.89
761.85	1965.23
762.03	2189.28
762.22	3147.52
762.41	6159.47
762.59	9628.53
762.78	11401.66
762.97	13734.29
763.15	14722.03
763.34	13432.63
763.52	10091.16
763.71	9398.95
763.90	8729.26
764.08	8174.26
764.27	7574.00
764.46	7142.91
764.64	6259.62
764.83	5678.81
765.02	5119.72
765.20	4571.68
765.39	3896.87
765.58	3108.20
765.76	2836.44
765.95	2546.85
766.13	2328.13
766.32	2146.27
766.51	2124.15
766.69	2617.71
766.88	2080.12
767.07	1869.80
767.25	1776.82
767.44	2101.63
767.62	2129.68
767.81	1856.69
768.00	1966.46
768.18	1966.87
768.37	1884.54
768.56	1800.57
768.74	1871.02
768.93	1808.97
769.11	2027.28
769.30	1930.21
769.49	1856.07
769.67	1934.10
769.86	1898.06
770.04	1893.14
770.23	1889.05
770.42	2078.07
770.60	1949.26
770.79	1806.92
770.97	1904.82
771.16	2544.60
771.35	3379.76
771.53	4239.30
771.72	4802.69
771.90	5486.92
772.09	5826.68
772.27	5253.04
772.46	4207.55
772.65	4259.57
772.83	3926.37
773.02	3791.81
773.20	3467.21
773.39	3467.42
773.58	3246.85
773.76	2867.57
773.95	2767.62
774.13	2685.71
774.32	2422.75
774.50	2191.33
774.69	2152.01
774.87	1998.82
775.06	2251.33
775.25	1883.31
775.43	1919.36
775.62	1960.11
775.80	2011.31
775.99	1959.50
776.17	1831.50
776.36	1948.23
776.54	2083.40
776.73	1882.70
776.92	1953.56
777.10	2056.98
777.29	1994.93
777.47	1847.27
777.66	1863.45
777.84	1925.91
778.03	1934.92
778.21	1820.85
778.40	1913.62
778.58	1973.42
778.77	2033.84
778.95	1802.62
779.14	1857.51
779.32	2128.25
779.51	2036.91
779.70	1875.53
779.88	1760.02
780.07	1865.70
780.25	2243.34
780.44	1852.59
780.62	1999.84
780.81	2006.80
780.99	1952.33
781.18	1814.71
781.36	1840.92
781.55	1879.63
781.73	2114.12
781.92	1785.83
782.10	1775.38
782.29	1969.74
782.47	2086.06
782.66	1898.67
782.84	1766.58
783.03	1821.26
783.21	2043.67
783.40	1862.63
783.58	1853.82
783.77	1817.98
783.95	1860.78
784.14	1783.99
784.32	1884.95
784.51	2113.91
784.69	1857.30
784.88	1788.49
785.06	1941.06
785.24	1822.90
785.43	2089.95
785.61	2010.08
785.80	1859.15
785.98	2064.56
786.17	2001.07
786.35	1859.97
786.54	1986.73
786.72	2060.05
786.91	2076.03
787.09	1918.33
787.28	1817.57
787.46	1939.84
787.65	2078.48
787.83	1803.03
788.01	1971.17
788.20	1878.81
788.38	2008.65
788.57	1965.64
788.75	1981.00
788.94	2286.97
789.12	2096.92
789.31	1949.05
789.49	2055.14
789.67	1933.49
789.86	2039.57
790.04	1901.54
790.23	1809.18
790.41	2297.41
790.60	1973.22
790.78	1963.80
790.96	1955.81
791.15	2090.36
791.33	1957.65
791.52	1905.43
791.70	1877.37
791.89	1975.06
792.07	2043.05
792.25	1959.91
792.44	1788.70
792.62	2072.75
792.81	1855.66
792.99	1920.79
793.17	1849.73
793.36	1891.50
793.54	2380.56
793.73	2917.74
793.91	3643.34
794.10	4191.78
794.28	4751.29
794.46	4733.88
794.65	4618.78
794.83	3821.30
795.01	3639.24
795.20	3685.32
795.38	3411.10
795.57	3285.76
795.75	3244.19
795.93	2951.74
796.12	2856.92
796.30	2788.72
796.49	2691.44
796.67	2369.09
796.85	2410.05
797.04	2249.28
797.22	2227.58
797.40	1911.98
797.59	2048.58
797.77	2049.40
797.96	1912.19
798.14	1850.75
798.32	1878.19
798.51	2068.45
798.69	2201.98
798.87	1904.20
799.06	1910.75
799.24	1796.27
799.42	2307.24
799.61	2652.12
799.79	2999.66
799.98	3532.34
800.16	3685.11
800.34	4448.19
800.53	5436.74
800.71	5805.58
800.89	6700.13
801.08	6900.22
801.26	6815.64
801.44	5837.12
801.63	4961.00
801.81	4849.18
801.99	4492.83
802.18	4264.89
802.36	4084.06
802.54	3842.40
802.73	3371.98
802.91	3214.08
803.09	3041.85
803.28	2883.74
803.46	2697.38
803.64	2678.95
803.83	2169.82
804.01	2096.92
804.19	1991.44
804.38	2212.01
804.56	2144.84
804.74	2027.28
804.92	2050.43
805.11	1935.54
805.29	2164.70
805.47	1960.52
805.66	1843.38
805.84	1888.02
806.02	2128.45
806.21	1933.69
806.39	2068.24
806.57	2098.55
806.76	2087.29
806.94	1973.22
807.12	1911.78
807.30	1976.49
807.49	2068.86
807.67	2053.50
807.85	2145.86
808.04	2132.35
808.22	2299.25
808.40	1870.21
808.58	1849.93
808.77	2079.30
808.95	2272.22
809.13	2462.48
809.31	3939.47
809.50	5468.49
809.68	6356.89
809.86	6976.00
810.05	7543.08
810.23	8326.63
810.41	10360.47
810.59	16184.48
810.78	19800.38
810.96	22676.13
811.14	24498.42
811.32	24107.87
811.51	19497.69
811.69	15762.40
811.87	15574.60
812.05	13697.22
812.24	12886.84
812.42	11827.22
812.60	10659.68
812.78	9098.10
812.97	7840.24
813.15	7162.77
813.33	6223.98
813.51	5461.93
813.70	4433.03
813.88	3751.88
814.06	3220.23
814.24	2759.23
814.42	2335.30
814.61	2305.60
814.79	2396.33
814.97	1931.44
815.15	1978.95
815.34	2029.13
815.52	2116.78
815.70	1847.88
815.88	1889.87
816.06	1836.00
816.25	1904.61
816.43	1814.91
816.61	1985.30
816.79	2150.16
816.98	1815.52
817.16	1904.00
817.34	1888.64
817.52	2068.65
817.70	2202.80
817.89	1919.56
818.07	1851.98
818.25	1943.52
818.43	1979.36
818.61	1909.32
818.80	1852.39
818.98	2137.87
819.16	1967.48
819.34	1781.53
819.52	2095.89
819.70	1837.23
819.89	1963.59
820.07	1772.52
820.25	1757.77
820.43	1923.66
820.61	2033.84
820.80	1892.73
820.98	1794.02
821.16	1728.90
821.34	1755.31
821.52	1858.74
821.70	1909.53
821.89	1935.94
822.07	1890.28
822.25	1835.59
822.43	1801.60
822.61	2102.85
822.79	1961.34
822.98	1837.44
823.16	1686.91
823.34	1938.20
823.52	2051.25
823.70	1952.94
823.88	1720.09
824.06	1981.20
824.25	1908.30
824.43	1987.35
824.61	1836.21
824.79	1971.99
824.97	2019.71
825.15	2178.22
825.33	2548.90
825.52	3093.66
825.70	3363.58
825.88	3548.11
826.06	3854.89
826.24	3902.81
826.42	3632.07
826.60	3140.36
826.78	3168.82
826.97	2892.76
827.15	2996.18
827.33	2640.45
827.51	2720.32
827.69	2501.18
827.87	2473.74
828.05	2430.12
828.23	2164.70
828.41	2373.19
828.60	2262.39
828.78	1931.03
828.96	2053.29
829.14	1914.24
829.32	1940.25
829.50	1866.11
829.68	1874.51
829.86	1858.74
830.04	2008.44
830.22	1953.35
830.41	1791.56
830.59	1878.81
830.77	1980.39
830.95	1795.45
831.13	1838.67
831.31	1806.10
831.49	2012.33
831.67	2005.78
831.85	1952.53
832.03	1861.60
832.21	2005.58
832.39	1817.98
832.57	1828.84
832.76	2038.55
832.94	1916.49
833.12	1729.10
833.30	1878.40
833.48	2051.04
833.66	1985.71
833.84	1808.36
834.02	1898.06
834.20	2034.86
834.38	1994.31
834.56	1726.44
834.74	1768.01
834.92	1783.58
835.10	2162.04
835.28	1932.26
835.46	1879.42
835.64	1871.23
835.82	1824.54
836.01	2101.42
836.19	2004.96
836.37	1852.59
836.55	1797.30
836.73	1823.51
836.91	1769.45
837.09	1978.95
837.27	2073.36
837.45	1737.09
837.63	1779.28
837.81	1817.78
837.99	1924.48
838.17	1901.33
838.35	1882.49
838.53	2319.32
838.71	2160.20
838.89	1959.50
839.07	1979.16
839.25	2072.34
839.43	2178.83
839.61	2259.73
839.79	3342.29
839.97	4435.70
840.15	5014.25
840.33	5554.09
840.51	5967.58
840.69	5737.18
840.87	4885.43
841.05	4425.25
841.23	4634.35
841.41	5679.63
841.59	7764.87
841.77	8598.40
841.95	9351.84
842.13	10064.95
842.31	9570.36
842.49	7835.32
842.67	6746.01
842.85	6618.42
843.03	5811.52
843.21	5512.52
843.39	5279.87
843.57	4743.10
843.75	4393.71
843.93	3898.51
844.11	3527.22
844.29	3293.13
844.47	3062.94
844.65	3027.72
844.83	2661.74
845.01	2477.84
845.19	2419.68
845.36	2178.01
845.54	2137.67
845.72	2029.95
845.90	2062.92
846.08	1827.20
846.26	1873.69
846.44	1993.49
846.62	1986.12
846.80	1927.55
846.98	1809.38
847.16	1897.85
847.34	1933.90
847.52	1748.35
847.70	1790.54
847.88	1861.81
848.06	2074.39
848.24	1934.10
848.41	1725.21
848.59	2012.95
848.77	1946.18
848.95	1831.09
849.13	1817.37
849.31	1979.98
849.49	1929.39
849.67	1756.34
849.85	1749.58
850.03	1934.72
850.21	1937.17
850.39	1798.12
850.57	1942.09
850.74	2118.62
850.92	2160.61
851.10	2252.77
851.28	2580.44
851.46	2964.03
851.64	3394.71
851.82	3217.77
852.00	3246.44
852.18	3156.12
852.36	2818.41
852.53	2635.94
852.71	2620.17
852.89	2604.20
853.07	2605.84
853.25	2320.76
853.43	2190.30
853.61	2316.66
853.79	2249.08
853.97	2035.27
854.14	1992.26
854.32	2236.59
854.50	2139.10
854.68	1927.34
854.86	1921.20
855.04	1850.34
855.22	2026.06
855.40	1762.07
855.57	1823.92
855.75	2015.61
855.93	1973.63
856.11	1702.89
856.29	1788.08
856.47	1823.10
856.65	1922.43
856.82	1793.61
857.00	1716.40
857.18	1871.64
857.36	1857.10
857.54	1887.61
857.72	1950.28
857.89	1983.46
858.07	1915.87
858.25	1997.59
858.43	1743.03
858.61	1863.04
858.79	1911.57
858.97	1782.35
859.14	1909.12
859.32	1864.47
859.50	1822.08
859.68	1916.90
859.86	1853.00
860.03	1974.45
860.21	2019.71
860.39	1876.14
860.57	1944.75
860.75	1986.12
860.93	2189.69
861.10	2042.03
861.28	1867.75
861.46	1990.22
861.64	2027.90
861.82	1892.32
861.99	1984.89
862.17	2044.28
862.35	2052.27
862.53	1882.90
862.71	1866.31
862.88	1952.12
863.06	1999.23
863.24	1837.23
863.42	1791.77
863.60	1844.20
863.77	1958.47
863.95	1670.53
864.13	1860.17
864.31	1849.93
864.49	1974.04
864.66	1739.14
864.84	1800.57
865.02	1919.36
865.20	2218.77
865.37	1867.95
865.55	1816.34
865.73	1798.32
865.91	2094.46
866.09	2079.51
866.26	2086.68
866.44	2222.87
866.62	2118.21
866.80	1948.03
866.97	2051.66
867.15	2008.24
867.33	2090.98
867.51	2057.59
867.68	1977.93
867.86	1940.25
868.04	1904.20
868.22	1744.87
868.39	1876.35
868.57	1962.98
868.75	2110.64
868.93	1724.80
869.10	1816.75
869.28	2146.48
869.46	2059.64
869.64	1865.49
869.81	1867.34
869.99	1933.28
870.17	1901.74
870.35	1794.43
870.52	1819.21
870.70	2008.85
870.88	1817.78
871.05	1784.40
871.23	1641.45
871.41	1872.05
871.59	1884.54
871.76	1794.64
871.94	1793.41
872.12	1837.23
872.29	1711.69
872.47	1813.27
872.65	1760.02
872.83	1922.84
873.00	2090.36
873.18	1860.78
873.36	1801.60
873.53	1998.20
873.71	1736.27
873.89	1798.12
874.06	1838.87
874.24	1973.42
874.42	2051.45
874.60	1939.22
874.77	1896.01
874.95	1789.92
875.13	2020.12
875.30	1831.50
875.48	1835.59
875.66	2111.46
875.83	1864.47
876.01	1870.82
876.19	1977.11
876.36	1805.08
876.54	1931.64
876.72	1769.24
876.89	1928.16
877.07	1967.48
877.25	1701.25
877.42	1887.82
877.60	1857.92
877.78	2120.88
877.95	1843.99
878.13	1788.08
878.31	1920.79
878.48	1986.53
878.66	1968.51
878.84	1786.24
879.01	1871.64
879.19	1936.76
879.37	1955.81
879.54	1800.57
879.72	1736.06
879.90	1695.92
880.07	1983.05
880.25	1593.73
880.42	1941.06
880.60	1909.12
880.78	1958.27
880.95	1830.68
881.13	1836.62
881.31	1868.98
881.48	1797.30
881.66	1780.50
881.83	1866.31
882.01	1791.97
882.19	1720.70
882.36	1877.37
882.54	1841.74
882.72	1955.40
882.89	1901.54
883.07	1766.37
883.24	1813.07
883.42	1989.19
883.60	1909.32
883.77	1751.83
883.95	1815.73
884.12	2063.94
884.30	1994.52
884.48	2046.94
884.65	1983.87
884.83	2029.54
885.00	2056.98
885.18	1816.55
885.36	1873.89
885.53	2017.04
885.71	2076.44
885.88	1787.88
886.06	1832.32
886.23	1975.88
886.41	1840.51
886.59	1808.97
886.76	1783.99
886.94	1984.28
887.11	2252.36
887.29	1846.24
887.47	1718.25
887.64	2029.74
887.82	2040.60
887.99	1674.83
888.17	1864.88
888.34	1825.15
888.52	1744.66
888.69	1863.04
888.87	1774.56
889.05	1830.47
889.22	1820.85
889.40	1779.07
889.57	1962.16
889.75	2077.25
889.92	1834.98
890.10	1739.95
890.27	1813.68
890.45	1809.38
890.62	1680.56
890.80	1771.29
890.98	1682.61
891.15	2045.72
891.33	1983.05
891.50	1780.09
891.68	1723.78
891.85	1978.54
892.03	1969.12
892.20	1779.68
892.38	1722.14
892.55	1947.82
892.73	1965.23
892.90	1729.51
893.08	1794.64
893.25	1785.01
893.43	1778.46
893.60	1951.30
893.78	1654.14
893.95	1916.69
894.13	1886.59
894.30	1769.45
894.48	1849.73
894.65	1983.46
894.83	1893.14
895.00	1657.01
895.18	1675.24
895.35	1997.18
895.53	1965.44
895.70	1714.15
895.88	1930.82
896.05	1955.20
896.23	1756.75
896.40	1837.23
896.58	1888.43
896.75	1993.49
896.93	2064.97
897.10	1787.67
897.28	1748.76
897.45	1896.21
897.63	1980.59
897.80	1960.73
897.98	1838.26
898.15	1910.96
898.33	1816.96
898.50	1867.13
898.67	1858.74
898.85	1838.26
899.02	1966.46
899.20	1999.64
899.37	1835.59
899.55	1905.02
899.72	2058.00
899.90	1783.78
900.07	1742.21
900.25	1915.06
900.42	2033.84
900.59	1777.64
900.77	1914.03
900.94	1962.16
901.12	1881.88
901.29	1765.35
901.47	1889.25
901.64	1930.82
901.82	1896.21
901.99	1614.00
902.16	1765.55
902.34	2015.41
902.51	1926.32
902.69	1795.86
902.86	1861.81
903.03	2334.68
903.21	1892.73
903.38	1833.34
903.56	1798.32
903.73	2002.91
903.91	1843.79
904.08	1737.70
904.25	1635.92
904.43	1769.65
904.60	1970.35
904.78	1813.07
904.95	1749.17
905.12	1849.73
905.30	2100.40
905.47	1928.37
905.65	1977.11
905.82	1904.41
905.99	2023.80
906.17	1925.91
906.34	1851.98
906.52	1879.83
906.69	2085.04
906.86	2060.05
907.04	1994.31
907.21	2123.54
907.38	2075.62
907.56	1859.97
907.73	1814.09
907.91	2096.92
908.08	2031.58
908.25	1797.50
908.43	1775.18
908.60	1956.63
908.77	1940.66
908.95	1784.40
909.12	1741.18
909.30	1979.16
909.47	1730.33
909.64	1853.82
909.82	1965.23
909.99	1858.74
910.16	1927.34
910.34	1774.16
910.51	1803.03
910.68	1919.77
910.86	1883.93
911.03	1788.49
911.20	2057.80
911.38	2824.35
911.55	3975.72
911.72	4421.97
911.90	4631.89
912.07	5024.28
912.24	5051.72
912.42	4086.52
912.59	3244.60
912.76	3207.73
912.94	2829.27
913.11	2612.18
913.28	2432.17
913.46	2312.36
913.63	2406.36
913.80	2502.00
913.98	2226.76
914.15	2374.41
914.32	2345.74
914.49	2184.98
914.67	2073.16
914.84	2178.63
915.01	2232.29
915.19	2104.29
915.36	2004.35
915.53	2158.56
915.71	2070.50
915.88	1958.27
916.05	1808.56
916.22	2012.54
916.40	1918.95
916.57	1772.72
916.74	1891.50
916.92	2084.01
917.09	1762.69
917.26	1769.24
917.43	1740.36
917.61	1853.00
917.78	1720.29
917.95	1660.29
918.13	1765.76
918.30	2157.13
918.47	1901.74
918.64	1785.42
918.82	1796.27
918.99	1943.52
919.16	2215.08
919.33	1985.71
919.51	1926.73
919.68	1999.84
919.85	2144.84
920.02	1779.28
920.20	1881.26
920.37	2101.42
920.54	2002.71
920.71	1786.44
920.89	1813.27
921.06	2137.87
921.23	1818.39
921.40	1822.28
921.58	2157.94
921.75	2761.28
921.92	2378.51
922.09	2525.35
922.27	2493.81
922.44	2461.45
922.61	2317.89
922.78	2085.04
922.96	2030.56
923.13	2015.61
923.30	2143.61
923.47	1800.78
923.64	1882.08
923.82	2046.33
923.99	2024.83
924.16	1970.76
924.33	1819.42
924.50	1959.29
924.68	2151.39
924.85	1784.60
925.02	1851.16
925.19	2045.51
925.36	1962.36
925.54	1925.09
925.71	1888.64
925.88	2302.53
926.05	1881.06
926.22	1776.20
926.40	1875.73
926.57	1924.27
926.74	1971.37
926.91	1775.59
927.08	1971.78
927.26	1996.77
927.43	1904.00
927.60	1753.27
927.77	1820.03
927.94	2106.13
928.11	2024.62
928.29	1720.91
928.46	1865.70
928.63	1818.80
928.80	1844.81
928.97	1920.79
929.14	1766.99
929.32	2175.76
929.49	1905.43
929.66	1751.83
929.83	1690.80
930.00	1826.79
930.17	1926.52
930.35	1720.50
930.52	1786.44
930.69	2082.17
930.86	1760.23
931.03	1873.48
931.20	1642.68
931.37	2002.50
931.55	1858.74
931.72	1862.22
931.89	1698.18
932.06	1737.09
932.23	2083.60
932.40	1911.16
932.57	1891.91
932.74	2030.77
932.92	2042.85
933.09	1946.80
933.26	1563.01
933.43	1860.58
933.60	1939.02
933.77	1829.86
933.94	1867.95
934.11	1835.18
934.29	1913.01
934.46	1712.31
934.63	1869.59
934.80	1727.87
934.97	1909.53
935.14	1879.22
935.31	1705.14
935.48	1803.85
935.65	1944.34
935.82	1879.83
936.00	1739.54
936.17	2093.84
936.34	1884.54
936.51	1925.50
936.68	1740.16
936.85	1940.86
937.02	1894.58
937.19	1905.43
937.36	1818.19
937.53	1923.25
937.70	1998.61
937.87	1819.42
938.05	1892.73
938.22	1890.48
938.39	1763.71
938.56	1812.86
938.73	1734.83
938.90	1842.56
939.07	1791.77
939.24	1825.15
939.41	1649.43
939.58	1918.74
939.75	1958.68
939.92	1765.14
940.09	1976.49
940.26	1867.13
940.43	1998.00
940.60	1771.08
940.77	1801.80
940.95	1910.75
941.12	1982.23
941.29	1788.70
941.46	1823.51
941.63	2028.51
941.80	2071.11
941.97	1685.27
942.14	1710.67
942.31	1967.69
942.48	1847.47
942.65	1891.50
942.82	1820.03
942.99	1939.84
943.16	1909.73
943.33	1728.08
943.50	1774.77
943.67	1962.77
943.84	2019.50
944.01	1802.21
944.18	1734.63
944.35	2033.22
944.52	1773.34
944.69	1853.82
944.86	1683.84
945.03	1986.12
945.20	2218.97
945.37	1695.10
945.54	1855.46
945.71	2070.91
945.88	2131.73
946.05	1746.51
946.22	1756.75
946.39	2059.64
946.56	1855.05
946.73	1704.93
946.90	1752.86
947.07	1847.88
947.24	1836.00
947.41	1638.99
947.58	1918.74
947.75	1970.97
947.92	1942.91
948.09	1612.98
948.26	1682.00
948.43	1911.78
948.60	2122.72
948.77	1757.98
948.94	1771.49
949.11	1983.25
949.27	1928.98
949.44	1760.84
949.61	1763.71
949.78	1905.23
949.95	2018.48
950.12	1734.83
950.29	1696.74
950.46	1793.61
950.63	1984.07
950.80	1756.95
950.97	1834.98
951.14	2011.31
951.31	1816.34
951.48	1743.44
951.65	1724.18
951.82	2121.08
951.99	1930.62
952.15	1678.31
952.32	1797.71
952.49	1763.51
952.66	1815.73
952.83	1742.62
953.00	1730.33
953.17	1878.40
953.34	1967.89
953.51	1811.63
953.68	1809.38
953.85	2003.94
954.02	2036.91
954.18	1799.55
954.35	1813.89
954.52	1777.64
954.69	1894.37
954.86	1643.49
955.03	1817.16
955.20	1979.36
955.37	1861.40
955.54	1784.60
955.71	1770.67
955.87	1909.53
956.04	2094.25
956.21	1771.70
956.38	1743.85
956.55	1871.23
956.72	2215.70
956.89	1814.91
957.06	1746.92
957.23	1831.50
957.39	2022.78
957.56	1773.75
957.73	1712.10
957.90	1618.71
958.07	2107.77
958.24	1836.21
958.41	1766.99
958.57	1981.82
958.74	1878.19
958.91	1726.44
959.08	1775.79
959.25	1955.61
959.42	1863.04
959.59	1837.44
959.75	1772.52
959.92	2027.28
960.09	2027.49
960.26	1740.57
960.43	1839.49
960.60	1921.40
960.76	1827.61
960.93	1692.65
961.10	1844.61
961.27	1995.34
961.44	1848.29
961.61	1695.72
961.77	1696.54
961.94	1892.94
962.11	1985.30
962.28	1787.06
962.45	1726.03
962.62	1865.90
962.78	1988.37
962.95	1716.81
963.12	1773.54
963.29	1959.29
963.46	2271.20
963.62	1859.97
963.79	1776.41
963.96	2191.12
964.13	1844.61
964.30	1864.27
964.46	1776.41
964.63	1777.64
964.80	2257.89
964.97	1668.07
965.14	1980.39
965.30	2071.32
965.47	2180.47
965.64	2095.89
965.81	2013.15
965.98	2216.72
966.14	2020.53
966.31	1886.59
966.48	1870.21
966.65	2122.51
966.81	2022.16
966.98	1847.88
967.15	1880.85
967.32	1920.59
967.49	1829.66
967.65	1706.37
967.82	1686.09
967.99	1863.45
968.16	1738.11
968.32	1953.35
968.49	1835.80
968.66	1870.61
968.83	2089.95
968.99	1863.04
969.16	1720.70
969.33	2043.05
969.50	1971.58
969.66	1886.38
969.83	1994.52
970.00	1981.82
970.17	1957.86
970.33	1810.20
970.50	1700.84
970.67	2087.08
970.84	2035.07
971.00	1720.29
971.17	1705.55
971.34	1983.46
971.50	1853.62
971.67	1885.16
971.84	1809.79
972.01	1738.52
972.17	1608.88
972.34	1736.06
972.51	1877.37
972.67	1995.54
972.84	1918.74
973.01	1731.76
973.18	1757.16
973.34	1986.12
973.51	1779.89
973.68	1796.07
973.84	1809.18
974.01	1829.86
974.18	2094.46
974.34	1859.56
974.51	1843.38
974.68	1790.33
974.85	2122.92
975.01	1891.09
975.18	1779.68
975.35	1874.71
975.51	1788.70
975.68	1668.89
975.85	1893.55
976.01	1817.37
976.18	2057.18
976.35	1798.94
976.51	1751.01
976.68	2086.06
976.85	2025.65
977.01	1791.77
977.18	1875.73
977.35	1959.50
977.51	1751.83
977.68	1614.41
977.85	1697.15
978.01	2040.19
978.18	1979.16
978.35	1852.18
978.51	1847.47
978.68	2009.67
978.85	2084.63
979.01	1797.30
979.18	1816.96
979.34	1861.40
979.51	1909.12
979.68	1757.57
979.84	1809.38
980.01	2197.88
980.18	1891.71
980.34	1757.98
980.51	1863.45
980.67	1975.06
980.84	1980.39
981.01	1814.09
981.17	1839.08
981.34	1685.48
981.51	1949.46
981.67	1732.99
981.84	1909.12
982.00	1933.08
982.17	1856.69
982.34	1690.19
982.50	1594.75
982.67	2062.71
982.83	1796.07
983.00	1704.73
983.17	1598.85
983.33	2005.78
983.50	1681.38
983.66	1698.99
983.83	1603.56
984.00	1828.84
984.16	1907.27
984.33	1615.85
984.49	1598.23
984.66	1797.91
984.83	1984.48
984.99	1654.14
985.16	1607.86
985.32	1932.26
985.49	1979.98
985.65	1749.37
985.82	1620.35
985.99	2072.54
986.15	1918.54
986.32	1740.57
986.48	1682.41
986.65	1809.59
986.81	1970.15
986.98	1624.24
987.14	1706.57
987.31	1888.43
987.48	1703.50
987.64	1560.14
987.81	1589.84
987.97	2134.19
988.14	1757.16
988.30	1629.98
988.47	1518.16
988.63	1909.73
988.80	1749.58
988.96	1676.67
989.13	1709.85
989.30	1847.88
989.46	1998.82
989.63	1560.14
989.79	1588.81
989.96	1840.30
990.12	2030.56
990.29	1636.12
990.45	1656.19
990.62	1872.66
990.78	2031.38
990.95	1747.94
991.11	1663.77
991.28	1827.20
991.44	1911.78
991.61	1529.42
991.77	1692.44
991.94	1887.82
992.10	2006.39
992.27	1701.45
992.43	1680.15
992.60	1940.86
992.76	1832.52
992.93	1793.61
993.09	1610.73
993.26	1982.23
993.42	2089.34
993.59	1661.72
993.75	1559.53
993.92	1779.48
994.08	1771.90
994.25	1721.93
994.41	1607.86
994.58	1946.59
994.74	2055.55
994.91	1615.03
995.07	1704.73
995.24	1836.00
995.40	1859.76
995.56	1778.46
995.73	1733.61
995.89	2077.66
996.06	1838.46
996.22	1620.15
996.39	1567.72
996.55	1889.87
996.72	1919.36
996.88	1579.19
997.05	1619.74
997.21	2103.06
997.37	1964.21
997.54	1705.14
997.70	1673.19
997.87	1917.92
998.03	1856.48
998.20	1552.77
998.36	1568.54
998.52	1958.47
998.69	1988.99
998.85	1573.04
999.02	1689.16
999.18	2010.29
999.35	1997.18
999.51	1662.54
999.67	1661.52
999.84	1774.77
1000.00	1941.68
1000.17	1720.50
1000.33	1603.35
1000.49	1809.18
1000.66	1840.51
1000.82	1625.27
1000.99	1707.39
1001.15	2004.96
1001.31	1831.70
1001.48	1651.89
1001.64	1723.98
1001.81	1841.33
1001.97	2123.54
1002.13	1642.47
1002.30	1645.13
1002.46	2015.82
1002.63	1848.91
1002.79	1719.27
1002.95	1636.53
1003.12	1988.99
1003.28	1927.75
1003.45	1627.93
1003.61	1584.31
1003.77	1892.73
1003.94	1715.17
1004.10	1688.96
1004.26	1718.66
1004.43	1960.32
1004.59	2067.83
1004.75	1641.04
1004.92	1613.80
1005.08	1815.32
1005.25	1927.55
1005.41	1652.10
1005.57	1734.02
1005.74	2011.31
1005.90	1835.80
1006.06	1742.21
1006.23	1659.88
1006.39	1979.77
1006.55	2227.58
1006.72	1809.38
1006.88	1609.09
1007.04	1760.43
1007.21	1872.05
1007.37	1688.96
1007.53	1667.25
1007.70	2068.04
1007.86	1974.86
1008.02	1720.91
1008.19	1614.62
1008.35	1902.97
1008.51	1756.34
1008.68	1665.82
1008.84	1589.22
1009.00	1778.66
1009.17	2034.25
1009.33	1790.13
1009.49	1731.15
1009.65	1775.79
1009.82	1934.51
1009.98	1718.86
1010.14	1576.73
1010.31	1961.34
1010.47	1937.38
1010.63	1721.93
1010.80	1714.15
1010.96	1928.57
1011.12	1864.27
1011.28	1678.11
1011.45	1636.53
1011.61	2200.54
1011.77	1743.85
1011.94	1616.67
1012.10	1582.88
1012.26	1736.68
1012.42	1800.37
1012.59	1711.08
1012.75	1707.60
1012.91	1835.59
1013.07	1991.04
1013.24	1605.81
1013.40	1644.93
1013.56	1890.07
1013.72	1849.93
1013.89	1737.50
1014.05	1745.69
1014.21	2091.39
1014.37	2178.01
1014.54	1678.92
1014.70	1620.56
1014.86	1862.42
1015.02	1730.33
1015.19	1663.36
1015.35	1605.81
1015.51	1839.90
1015.67	1795.04
1015.84	1630.18
1016.00	1624.45
1016.16	2001.07
1016.32	1993.90
1016.49	1652.30
1016.65	1621.38
1016.81	1851.16
1016.97	1933.90
1017.14	1772.52
1017.30	1649.23
1017.46	1795.25
1017.62	1905.02
1017.78	1709.64
1017.95	1622.81
1018.11	1970.56
1018.27	2159.58
1018.43	1776.82
1018.59	1719.47
1018.76	1967.69
1018.92	2213.24
1019.08	1619.33
1019.24	1646.77
1019.40	2053.09
1019.57	1912.80
1019.73	1732.17
1019.89	1660.70
1020.05	1896.42
1020.21	2127.63
1020.38	1613.59
1020.54	1798.73
1020.70	1948.44
1020.86	1937.99
1021.02	1685.48
1021.18	1654.14
1021.35	1846.65
1021.51	1948.64
1021.67	1782.96
1021.83	1650.87
1021.99	1882.49
1022.15	1896.21
1022.32	1729.92
1022.48	1701.45
1022.64	2036.30
1022.80	2045.72
1022.96	1692.44
1023.12	1591.48
1023.29	2017.86
1023.45	1902.56
1023.61	1642.27
1023.77	1798.32
1023.93	1885.77
1024.09	1779.07
1024.25	1616.87
1024.42	1612.57
1024.58	1815.32
1024.74	1903.59
1024.90	1674.01
1025.06	1713.95
1025.22	1815.11
1025.38	2085.86
1025.54	1611.55
1025.71	1716.61
1025.87	1936.15
1026.03	1933.49
1026.19	1626.50
1026.35	1776.00
1026.51	1932.87
1026.67	1857.51
1026.83	1699.20
1026.99	1758.18
1027.16	1935.33
1027.32	2011.11
1027.48	1688.96
1027.64	1608.68
1027.80	1970.15
1027.96	1873.89
1028.12	1664.38
1028.28	1611.14
1028.44	1899.70
1028.60	2060.05
1028.77	1744.87
1028.93	1698.18
1029.09	1810.40
1029.25	1760.02
1029.41	1703.91
1029.57	1741.18
1029.73	1905.02
1029.89	2056.57
1030.05	1791.97
1030.21	1751.83
1030.37	2199.52
1030.53	1945.16
1030.69	1668.68
1030.85	1612.16
1031.02	1780.91
1031.18	1868.77
1031.34	1687.53
1031.50	1735.04
1031.66	1792.59
1031.82	2068.65
1031.98	1697.56
1032.14	1649.23
1032.30	1762.69
1032.46	1967.89
1032.62	1770.88
1032.78	1595.37
1032.94	1805.28
1033.10	1821.87
1033.26	1706.16
1033.42	1756.13
1033.58	2165.93
1033.74	1799.55
1033.90	1652.71
1034.06	1833.34
1034.22	2144.22
1034.38	2015.82
1034.54	1681.38
1034.70	1723.57
1034.86	2123.33
>>>>>End Processed Spectral Data<<<<<
