SpectraSuite Data File
++++++++++++++++++++++++++++++++++++
Date: Thu Mar 30 16:27:33 PDT 2017
User: UCSD _CER
Dark Spectrum Present: No
Reference Spectrum Present: No
Number of Sampled Component Spectra: 1
Spectrometers: USB4C00073
Integration Time (usec): 250000 (USB4C00073)
Spectra Averaged: 10 (USB4C00073)
Boxcar Smoothing: 0 (USB4C00073)
Correct for Electrical Dark: No (USB4C00073)
Strobe/Lamp Enabled: No (USB4C00073)
Correct for Detector Non-linearity: No (USB4C00073)
Correct for Stray Light: No (USB4C00073)
Number of Pixels in Processed Spectrum: 3648
>>>>>Begin Processed Spectral Data<<<<<
345.37	1284.90
345.58	1284.90
345.80	1284.90
346.01	1259.71
346.22	1279.16
346.43	1975.06
346.65	1767.60
346.86	2146.68
347.07	2095.69
347.28	1798.53
347.50	1783.99
347.71	1936.76
347.92	1733.81
348.13	1811.84
348.35	1721.32
348.56	1936.35
348.77	1765.35
348.98	1815.52
349.20	1669.91
349.41	1925.71
349.62	1985.92
349.83	1871.64
350.05	1726.23
350.26	1960.73
350.47	2112.27
350.68	1775.79
350.90	1706.16
351.11	2110.02
351.32	2073.57
351.53	1795.04
351.75	1731.35
351.96	1945.16
352.17	1881.47
352.38	1853.21
352.60	1874.92
352.81	1921.81
353.02	2130.91
353.23	1759.21
353.44	1791.77
353.66	1877.37
353.87	1871.84
354.08	1899.49
354.29	1834.78
354.51	1840.92
354.72	1891.71
354.93	1798.94
355.14	1747.53
355.35	1769.04
355.57	2084.22
355.78	1852.59
355.99	1890.48
356.20	1927.14
356.42	1913.83
356.63	1901.54
356.84	1844.81
357.05	2020.32
357.26	2175.76
357.48	1894.37
357.69	1824.33
357.90	1960.52
358.11	1845.42
358.32	1808.36
358.54	1841.94
358.75	1887.00
358.96	1976.49
359.17	1814.30
359.38	1820.03
359.60	1974.45
359.81	1909.73
360.02	1816.75
360.23	1766.99
360.44	1837.23
360.66	2056.78
360.87	1736.68
361.08	1737.50
361.29	1963.39
361.50	1941.68
361.72	1784.80
361.93	1859.15
362.14	1927.75
362.35	1739.95
362.56	1901.54
362.77	1746.71
362.99	1968.10
363.20	1931.64
363.41	1899.90
363.62	1722.34
363.83	1990.83
364.05	2043.67
364.26	1711.69
364.47	1766.78
364.68	2070.29
364.89	1849.52
365.10	1727.67
365.32	1838.26
365.53	1815.73
365.74	1864.27
365.95	1836.21
366.16	1704.32
366.37	1908.30
366.59	1875.12
366.80	1819.21
367.01	1685.68
367.22	2159.99
367.43	2285.53
367.64	1812.86
367.86	1817.78
368.07	1981.00
368.28	2051.66
368.49	1725.00
368.70	1820.64
368.91	1871.43
369.12	1905.84
369.34	1713.54
369.55	1748.76
369.76	1891.71
369.97	1854.85
370.18	1739.54
370.39	1742.21
370.60	1769.45
370.82	1751.83
371.03	1826.79
371.24	1763.51
371.45	1984.07
371.66	2000.87
371.87	1804.06
372.08	1773.75
372.30	1768.83
372.51	2025.65
372.72	1877.58
372.93	1774.97
373.14	2077.46
373.35	1812.45
373.56	1771.49
373.78	1810.81
373.99	2024.42
374.20	2258.30
374.41	1812.25
374.62	1816.34
374.83	2086.27
375.04	1891.30
375.25	1841.74
375.47	1779.48
375.68	1850.54
375.89	1970.97
376.10	1814.50
376.31	1901.33
376.52	1977.72
376.73	1946.59
376.94	1809.18
377.15	1770.67
377.37	1908.71
377.58	1866.72
377.79	1685.48
378.00	1728.90
378.21	1913.01
378.42	1988.37
378.63	1826.38
378.84	1878.19
379.05	2006.39
379.27	1936.76
379.48	1926.73
379.69	1764.12
379.90	2046.74
380.11	1665.82
380.32	1786.44
380.53	1900.92
380.74	2088.93
380.95	1913.62
381.16	1803.44
381.37	1774.36
381.59	2065.79
381.80	2042.85
382.01	1759.00
382.22	1707.80
382.43	1979.77
382.64	1898.06
382.85	1733.81
383.06	1873.89
383.27	2022.78
383.48	1914.24
383.69	1846.24
383.91	1731.56
384.12	1991.65
384.33	1967.07
384.54	1816.55
384.75	1681.18
384.96	2277.14
385.17	1997.59
385.38	1754.09
385.59	1768.63
385.80	1993.90
386.01	2108.18
386.22	1882.08
386.43	1831.50
386.64	2203.00
386.86	1878.60
387.07	1907.48
387.28	1712.72
387.49	1850.95
387.70	2071.11
387.91	1864.06
388.12	1745.69
388.33	1966.05
388.54	1868.16
388.75	1764.94
388.96	1850.75
389.17	1856.69
389.38	1895.40
389.59	1870.00
389.80	1828.84
390.01	1921.81
390.22	1857.51
390.43	1894.99
390.64	1675.03
390.86	1974.86
391.07	2029.95
391.28	1823.92
391.49	1829.45
391.70	1753.88
391.91	1827.61
392.12	1794.43
392.33	1792.59
392.54	1915.26
392.75	1860.78
392.96	1876.55
393.17	1755.52
393.38	2189.07
393.59	2060.26
393.80	1759.00
394.01	1849.52
394.22	1981.61
394.43	2222.46
394.64	1856.28
394.85	1970.97
395.06	1953.15
395.27	1978.13
395.48	1830.47
395.69	1730.53
395.90	1888.23
396.11	1912.80
396.32	1791.36
396.53	1910.75
396.74	1860.58
396.95	2033.22
397.16	1758.80
397.37	1706.57
397.58	2031.58
397.79	1912.19
398.00	1846.24
398.21	1788.29
398.42	1918.95
398.63	2172.69
398.84	1790.54
399.05	1761.87
399.26	2081.56
399.47	1959.29
399.68	1643.49
399.89	1753.27
400.10	1766.17
400.31	1840.30
400.52	1827.20
400.73	1773.54
400.94	1727.46
401.15	1934.51
401.36	1786.24
401.57	1872.25
401.78	2053.70
401.99	2027.49
402.20	1723.57
402.41	1927.75
402.62	2113.30
402.83	1871.64
403.04	1776.82
403.25	1950.90
403.46	1973.63
403.67	2166.75
403.88	1895.19
404.09	1893.76
404.30	1930.62
404.51	1918.54
404.72	1809.18
404.93	1975.88
405.14	1847.27
405.35	1904.82
405.56	1813.07
405.77	1796.07
405.98	1939.02
406.19	1880.65
406.40	1749.17
406.61	1790.95
406.82	1804.26
407.03	2199.72
407.24	1714.76
407.45	1826.79
407.66	1938.40
407.87	2019.71
408.08	1870.41
408.29	1889.05
408.49	1989.19
408.70	1886.38
408.91	1804.87
409.12	1878.60
409.33	1793.20
409.54	2066.81
409.75	1803.24
409.96	1796.89
410.17	2029.74
410.38	1892.53
410.59	1765.96
410.80	1897.65
411.01	1885.16
411.22	1878.60
411.43	1842.15
411.64	1779.48
411.85	1812.04
412.06	1787.67
412.27	1644.72
412.47	1788.90
412.68	1904.00
412.89	1969.33
413.10	1783.99
413.31	1707.19
413.52	2127.02
413.73	2169.00
413.94	1780.50
414.15	1914.44
414.36	1856.07
414.57	1820.23
414.78	1771.90
414.99	2117.19
415.19	2583.31
415.40	2632.46
415.61	2759.84
415.82	2622.22
416.03	2574.09
416.24	2384.25
416.45	2127.23
416.66	1957.65
416.87	1811.43
417.08	2011.11
417.29	1799.35
417.50	1918.74
417.70	2101.42
417.91	2076.44
418.12	2036.70
418.33	2081.56
418.54	2293.93
418.75	2432.17
418.96	2419.68
419.17	2619.15
419.38	3113.12
419.59	3093.25
419.79	2930.03
420.00	2832.55
420.21	2979.79
420.42	2379.53
420.63	2097.53
420.84	2021.75
421.05	1967.89
421.26	1940.86
421.47	1755.31
421.67	2082.58
421.88	1815.11
422.09	1770.88
422.30	1963.80
422.51	1803.24
422.72	2113.91
422.93	1975.06
423.14	1824.54
423.35	1703.09
423.55	1733.20
423.76	1819.83
423.97	1833.14
424.18	1732.38
424.39	1926.93
424.60	2056.57
424.81	1890.68
425.02	2011.31
425.22	2120.06
425.43	2088.93
425.64	2263.42
425.85	2225.53
426.06	2537.64
426.27	2406.16
426.48	2400.42
426.68	2364.38
426.89	2468.01
427.10	2557.71
427.31	2101.22
427.52	1913.62
427.73	2105.11
427.94	2045.51
428.14	1918.54
428.35	1786.44
428.56	2104.49
428.77	2015.82
428.98	1916.28
429.19	1996.36
429.40	2104.70
429.60	2156.72
429.81	2198.49
430.02	2099.99
430.23	2046.94
430.44	2103.26
430.65	1869.59
430.85	1876.76
431.06	1974.65
431.27	1719.88
431.48	1830.68
431.69	1878.81
431.90	1914.44
432.10	1908.50
432.31	1881.26
432.52	1917.10
432.73	2479.48
432.94	2418.24
433.15	2277.75
433.35	2145.86
433.56	2353.73
433.77	2118.42
433.98	2118.62
434.19	1982.02
434.40	2023.19
434.60	1957.86
434.81	1832.11
435.02	1902.15
435.23	1912.19
435.44	1856.69
435.64	1720.91
435.85	1762.48
436.06	1871.23
436.27	1844.20
436.48	1718.66
436.68	1799.35
436.89	2136.65
437.10	2007.62
437.31	1824.13
437.52	1921.20
437.73	1923.86
437.93	1939.63
438.14	1848.09
438.35	1696.74
438.56	1862.42
438.77	1893.14
438.97	1939.43
439.18	1764.12
439.39	2024.01
439.60	1753.88
439.80	1678.92
440.01	1806.72
440.22	1820.44
440.43	1973.22
440.64	1729.51
440.84	1858.33
441.05	1784.40
441.26	2262.19
441.47	1857.30
441.68	1757.98
441.88	1865.09
442.09	1851.16
442.30	1930.01
442.51	1855.87
442.71	1831.09
442.92	1917.92
443.13	1762.07
443.34	1753.47
443.55	1786.24
443.75	1975.68
443.96	1777.84
444.17	1755.11
444.38	2041.42
444.58	1778.66
444.79	1876.96
445.00	1836.21
445.21	1914.85
445.41	1865.70
445.62	1612.78
445.83	1865.29
446.04	1922.63
446.24	1746.10
446.45	1647.80
446.66	1786.85
446.87	1982.43
447.07	1821.46
447.28	1977.72
447.49	1843.99
447.70	2001.48
447.90	2019.30
448.11	1819.42
448.32	1888.84
448.53	2075.62
448.73	2074.18
448.94	1831.09
449.15	1946.39
449.36	1917.51
449.56	1956.42
449.77	1781.73
449.98	1739.75
450.19	1901.54
450.39	1951.92
450.60	1984.89
450.81	1960.32
451.02	2026.26
451.22	2169.41
451.43	1849.52
451.64	1865.49
451.84	1957.45
452.05	2108.18
452.26	1894.58
452.47	1872.25
452.67	1885.16
452.88	2104.90
453.09	1783.99
453.30	1760.02
453.50	2020.12
453.71	2109.00
453.92	1783.37
454.12	1902.36
454.33	1814.50
454.54	1863.45
454.75	1750.60
454.95	1753.06
455.16	1916.69
455.37	1967.89
455.57	1843.38
455.78	1825.35
455.99	1881.47
456.19	1908.50
456.40	1749.58
456.61	1845.22
456.82	1931.23
457.02	2015.82
457.23	1878.60
457.44	1976.49
457.64	1828.22
457.85	1974.04
458.06	1845.63
458.26	1971.78
458.47	1912.19
458.68	2025.03
458.89	1779.68
459.09	1966.25
459.30	2227.99
459.51	1979.16
459.71	1773.75
459.92	1823.31
460.13	2002.71
460.33	2205.25
460.54	1805.49
460.75	1828.02
460.95	1779.68
461.16	1943.32
461.37	1807.95
461.57	1845.02
461.78	1933.08
461.99	1802.42
462.19	2042.23
462.40	1802.83
462.61	2239.25
462.81	2072.13
463.02	1779.28
463.23	1820.23
463.43	2028.10
463.64	1873.28
463.85	2776.23
464.05	1818.19
464.26	2358.65
464.47	2112.48
464.67	2001.48
464.88	1894.58
465.09	1823.51
465.29	1942.29
465.50	1934.51
465.71	1821.67
465.91	1857.92
466.12	1873.48
466.33	1873.69
466.53	1802.83
466.74	2075.62
466.94	1879.22
467.15	1824.74
467.36	2000.25
467.56	1809.18
467.77	1938.61
467.98	1863.24
468.18	1795.25
468.39	1842.97
468.60	2157.54
468.80	1862.83
469.01	1783.17
469.21	1973.42
469.42	2065.38
469.63	1877.17
469.83	1820.64
470.04	2096.30
470.25	2171.87
470.45	1934.51
470.66	1827.81
470.86	2018.07
471.07	1877.17
471.28	1903.59
471.48	1983.46
471.69	1942.91
471.90	2371.14
472.10	1815.32
472.31	1838.26
472.51	1826.38
472.72	1839.49
472.93	1753.88
473.13	1946.80
473.34	1924.89
473.54	1903.38
473.75	1831.91
473.96	2014.59
474.16	1943.93
474.37	2013.15
474.57	1935.94
474.78	1863.04
474.99	2023.80
475.19	1995.34
475.40	1835.59
475.60	1756.54
475.81	2092.41
476.02	1925.91
476.22	1897.03
476.43	2038.75
476.63	1976.29
476.84	2159.17
477.05	1734.02
477.25	1836.21
477.46	2305.40
477.66	1946.18
477.87	1707.80
478.08	1814.91
478.28	2034.04
478.49	1895.60
478.69	1771.70
478.90	1812.25
479.10	1984.28
479.31	2123.54
479.52	1899.08
479.72	1952.53
479.93	1987.35
480.13	1881.88
480.34	1805.49
480.54	1902.56
480.75	1827.81
480.96	2055.34
481.16	1757.77
481.37	1927.75
481.57	2023.60
481.78	1964.82
481.98	2004.35
482.19	1904.61
482.40	2158.97
482.60	2026.67
482.81	1922.22
483.01	1846.24
483.22	2121.70
483.42	2080.33
483.63	1979.77
483.83	1930.42
484.04	1882.29
484.24	2033.84
484.45	1886.18
484.66	1731.97
484.86	1992.47
485.07	1837.64
485.27	1883.72
485.48	1817.98
485.68	2097.32
485.89	1836.82
486.09	1922.22
486.30	1847.06
486.50	1966.87
486.71	1962.16
486.91	1978.13
487.12	2061.08
487.33	2290.24
487.53	2281.23
487.74	2105.52
487.94	2015.00
488.15	2124.36
488.35	2183.75
488.56	2076.64
488.76	2047.15
488.97	2027.69
489.17	2122.11
489.38	1959.91
489.58	1915.47
489.79	2016.63
489.99	1984.07
490.20	1890.48
490.40	1966.46
490.61	2004.76
490.81	1889.25
491.02	1886.38
491.22	1931.44
491.43	2052.47
491.63	1973.01
491.84	1985.51
492.04	1778.87
492.25	2019.09
492.45	1888.64
492.66	1862.01
492.86	1723.98
493.07	1932.67
493.27	2216.31
493.48	1723.98
493.68	1861.60
493.89	1898.06
494.09	2037.73
494.30	1823.51
494.50	2099.58
494.71	1997.59
494.91	1833.55
495.12	1939.43
495.32	2043.26
495.53	2015.00
495.73	1785.01
495.94	1848.09
496.14	1723.37
496.35	2157.54
496.55	1883.93
496.76	1853.00
496.96	1904.00
497.17	1914.24
497.37	1987.55
497.58	1836.00
497.78	1773.95
497.98	1883.31
498.19	1911.37
498.39	1924.89
498.60	1961.34
498.80	1763.10
499.01	2034.86
499.21	1798.53
499.42	1888.64
499.62	1893.55
499.83	2191.12
500.03	1751.83
500.24	1908.91
500.44	2089.75
500.64	2038.96
500.85	1840.10
501.05	1969.12
501.26	1744.46
501.46	2106.54
501.67	1804.87
501.87	1753.06
502.08	1773.34
502.28	1855.46
502.48	1941.47
502.69	2000.87
502.89	1804.87
503.10	1885.36
503.30	1945.16
503.51	1929.80
503.71	1779.28
503.92	2047.35
504.12	2000.87
504.32	1941.06
504.53	2156.92
504.73	2141.97
504.94	2120.67
505.14	2222.87
505.35	2265.46
505.55	2195.01
505.75	2138.28
505.96	2212.01
506.16	2325.67
506.37	2010.08
506.57	1921.81
506.78	1999.23
506.98	2111.25
507.18	1868.98
507.39	1853.62
507.59	1935.33
507.80	1908.71
508.00	1987.55
508.20	2061.28
508.41	1935.54
508.61	2133.57
508.82	2104.90
509.02	2001.28
509.22	1802.42
509.43	1782.76
509.63	1871.43
509.84	1879.83
510.04	1779.48
510.24	2129.48
510.45	2018.68
510.65	1789.72
510.86	1917.51
511.06	1829.66
511.26	2076.03
511.47	2001.48
511.67	1867.54
511.88	2026.06
512.08	2073.57
512.28	1758.80
512.49	1958.06
512.69	1944.34
512.90	1995.54
513.10	1836.82
513.30	1902.56
513.51	1997.79
513.71	2158.97
513.91	1920.79
514.12	1934.10
514.32	2091.39
514.53	1976.49
514.73	2071.93
514.93	2038.75
515.14	2145.66
515.34	2364.18
515.54	2231.26
515.75	2287.58
515.95	2449.99
516.15	2476.61
516.36	2204.64
516.56	2118.21
516.77	1801.19
516.97	2116.58
517.17	1977.93
517.38	2050.43
517.58	2253.18
517.78	2076.44
517.99	2276.52
518.19	2314.20
518.39	2604.40
518.60	2399.20
518.80	2249.28
519.00	2273.65
519.21	2118.83
519.41	2313.18
519.61	1934.92
519.82	2037.73
520.02	2021.96
520.22	2016.63
520.43	1984.48
520.63	1977.31
520.83	1922.02
521.04	1865.29
521.24	2204.64
521.44	2234.74
521.65	2296.39
521.85	2511.63
522.05	2272.43
522.26	2165.73
522.46	2371.75
522.66	2179.86
522.87	1950.90
523.07	2106.34
523.27	1962.16
523.48	2251.54
523.68	2031.99
523.88	2024.83
524.09	2175.56
524.29	2093.02
524.49	1931.23
524.70	2240.48
524.90	2380.56
525.10	2284.10
525.31	2021.14
525.51	1919.97
525.71	2137.06
525.91	2065.99
526.12	1868.77
526.32	1788.70
526.52	1877.17
526.73	1883.93
526.93	1919.97
527.13	1761.25
527.34	1929.39
527.54	1959.70
527.74	1896.83
527.94	1840.30
528.15	1862.83
528.35	1985.10
528.55	1998.41
528.76	1970.97
528.96	1751.63
529.16	2083.81
529.36	2028.31
529.57	1789.72
529.77	2092.82
529.97	1839.28
530.18	1975.68
530.38	1870.61
530.58	1986.12
530.78	1976.49
530.99	1880.65
531.19	1989.40
531.39	1854.85
531.60	1960.32
531.80	1851.77
532.00	2037.32
532.20	1967.48
532.41	1851.16
532.61	1844.20
532.81	1869.59
533.01	1899.90
533.22	2006.19
533.42	1977.52
533.62	1723.37
533.82	2082.78
534.03	1922.84
534.23	1948.44
534.43	1826.58
534.63	1877.78
534.84	1964.62
535.04	1909.32
535.24	1901.54
535.44	2242.94
535.65	1865.49
535.85	1850.34
536.05	1823.31
536.25	1944.96
536.46	1840.71
536.66	2084.22
536.86	2008.03
537.06	2091.80
537.27	2167.77
537.47	1989.40
537.67	1878.60
537.87	2149.14
538.08	1922.84
538.28	1813.27
538.48	1848.70
538.68	1951.10
538.88	2044.90
539.09	1788.08
539.29	1960.52
539.49	2085.45
539.69	1980.80
539.90	1971.99
540.10	1835.59
540.30	2164.09
540.50	1951.30
540.70	1831.09
540.91	1952.53
541.11	2121.70
541.31	2298.23
541.51	2136.24
541.72	2186.41
541.92	2228.80
542.12	2082.58
542.32	1987.76
542.52	1952.94
542.73	1937.17
542.93	2045.72
543.13	1930.21
543.33	2060.46
543.53	2177.61
543.74	2208.12
543.94	2032.61
544.14	2234.95
544.34	2387.93
544.54	2252.15
544.75	2363.97
544.95	2544.60
545.15	2424.79
545.35	2446.71
545.55	2259.11
545.75	2058.21
545.96	2391.62
546.16	1976.70
546.36	1999.02
546.56	2034.86
546.76	2167.37
546.97	2240.68
547.17	1960.11
547.37	2008.85
547.57	1884.75
547.77	2025.03
547.97	1953.97
548.18	1970.97
548.38	2018.27
548.58	2509.17
548.78	2556.48
548.98	2911.19
549.18	3211.22
549.39	3405.36
549.59	3042.46
549.79	2710.90
549.99	2823.53
550.19	2645.36
550.39	2516.54
550.60	2250.51
550.80	2287.38
551.00	2244.16
551.20	2039.98
551.40	1983.46
551.60	2108.18
551.80	2051.66
552.01	2070.50
552.21	1998.61
552.41	2053.70
552.61	2234.74
552.81	2036.50
553.01	1864.27
553.21	2066.20
553.42	1855.46
553.62	1863.86
553.82	1861.81
554.02	2145.45
554.22	2058.41
554.42	1826.79
554.62	2006.19
554.83	2344.31
555.03	2602.97
555.23	2540.51
555.43	2905.04
555.63	2876.17
555.83	2742.64
556.03	2455.51
556.23	2284.51
556.44	2428.07
556.64	2537.23
556.84	2112.48
557.04	2298.84
557.24	2342.67
557.44	2217.95
557.64	2130.09
557.84	1952.74
558.04	2005.17
558.25	2125.38
558.45	1917.51
558.65	2007.42
558.85	2072.95
559.05	1851.98
559.25	1985.51
559.45	2184.77
559.65	2550.54
559.85	3070.11
560.05	2478.25
560.26	2603.58
560.46	2644.13
560.66	2444.05
560.86	2281.03
561.06	2151.60
561.26	2376.67
561.46	2222.66
561.66	2043.87
561.86	2150.16
562.06	1987.14
562.26	2002.71
562.47	2008.65
562.67	1854.03
562.87	2097.32
563.07	1843.38
563.27	2000.05
563.47	2028.10
563.67	1980.80
563.87	2127.23
564.07	2018.27
564.27	2157.74
564.47	2238.23
564.67	2314.00
564.87	2193.17
565.08	2238.43
565.28	2087.29
565.48	2243.75
565.68	2144.02
565.88	2110.02
566.08	2239.04
566.28	1995.75
566.48	1832.93
566.68	1914.24
566.88	1910.55
567.08	2067.01
567.28	1940.04
567.48	1984.28
567.68	2105.31
567.88	1903.18
568.08	2094.66
568.28	2190.92
568.48	2047.97
568.68	2237.00
568.89	2070.50
569.09	1840.51
569.29	2119.85
569.49	2090.98
569.69	1871.02
569.89	1842.15
570.09	1725.41
570.29	1877.37
570.49	1770.88
570.69	1833.14
570.89	2050.43
571.09	2195.42
571.29	1749.37
571.49	2020.94
571.69	1958.88
571.89	1977.72
572.09	1865.70
572.29	1842.15
572.49	2012.33
572.69	1994.93
572.89	1941.27
573.09	1789.11
573.29	2068.65
573.49	2154.87
573.69	2083.81
573.89	2178.22
574.09	2014.18
574.29	2197.06
574.49	1916.28
574.69	1854.44
574.89	1810.40
575.09	1835.80
575.29	1829.45
575.49	1925.50
575.69	1972.81
575.89	1772.72
576.09	1952.33
576.29	1938.40
576.49	1857.51
576.69	1974.24
576.89	1913.21
577.09	1973.83
577.29	1807.54
577.49	2220.82
577.69	1891.91
577.89	2026.47
578.09	1959.91
578.29	1750.40
578.49	1959.09
578.69	1860.17
578.89	2049.61
579.09	1952.94
579.29	1854.23
579.49	2073.36
579.69	1907.48
579.89	2210.17
580.09	1771.49
580.29	1795.86
580.49	1878.40
580.69	1816.75
580.89	1924.27
581.09	1871.43
581.29	1851.16
581.49	1885.36
581.69	1789.52
581.89	1799.35
582.09	1808.56
582.28	1825.56
582.48	2041.21
582.68	2134.39
582.88	2209.96
583.08	2046.74
583.28	2021.96
583.48	1998.82
583.68	1909.94
583.88	1966.46
584.08	1980.59
584.28	1940.45
584.48	2174.74
584.68	1983.46
584.88	1891.50
585.08	2037.32
585.28	2086.68
585.48	2118.42
585.68	2009.26
585.87	2015.41
586.07	2017.45
586.27	1956.63
586.47	2025.85
586.67	1910.35
586.87	1948.85
587.07	1908.91
587.27	1811.63
587.47	2000.25
587.67	2284.10
587.87	2624.06
588.07	2443.43
588.27	2410.05
588.46	2701.89
588.66	2709.87
588.86	2393.46
589.06	2355.78
589.26	2342.47
589.46	2246.62
589.66	1995.95
589.86	1927.96
590.06	2037.52
590.26	2199.72
590.46	2121.90
590.66	2246.83
590.85	2208.32
591.05	2298.84
591.25	2064.97
591.45	2085.86
591.65	2176.38
591.85	2160.40
592.05	2172.89
592.25	2289.42
592.45	2426.23
592.64	2245.80
592.84	2168.59
593.04	2034.25
593.24	2463.50
593.44	2098.55
593.64	2133.98
593.84	2191.94
594.04	2091.59
594.24	2251.33
594.43	1962.36
594.63	2014.59
594.83	2129.89
595.03	2062.10
595.23	1871.23
595.43	1793.20
595.63	1898.88
595.83	2086.68
596.02	1736.47
596.22	1931.85
596.42	2032.81
596.62	2010.49
596.82	1916.90
597.02	2053.50
597.22	2135.83
597.41	1975.47
597.61	1899.49
597.81	2088.72
598.01	2123.13
598.21	2008.03
598.41	1997.38
598.61	1967.89
598.80	2069.47
599.00	2102.65
599.20	2163.88
599.40	1998.41
599.60	2033.22
599.80	2184.36
599.99	2161.43
600.19	2005.17
600.39	2056.16
600.59	2105.31
600.79	2056.98
600.99	2025.65
601.19	2259.93
601.38	2260.96
601.58	2074.80
601.78	1843.79
601.98	2337.96
602.18	3030.99
602.37	3717.88
602.57	3875.99
602.77	4333.71
602.97	4456.18
603.17	4188.30
603.37	3990.06
603.56	4005.42
603.76	3849.77
603.96	3735.90
604.16	3524.55
604.36	3307.06
604.56	3057.00
604.75	2645.36
604.95	2588.22
605.15	2625.09
605.35	2475.79
605.55	2261.16
605.74	2182.73
605.94	2355.57
606.14	2146.48
606.34	2090.98
606.54	2048.79
606.73	1960.32
606.93	2054.93
607.13	1878.40
607.33	1980.18
607.53	2165.93
607.72	2084.42
607.92	2018.48
608.12	2078.89
608.32	1967.48
608.51	2089.95
608.71	1912.80
608.91	2078.69
609.11	2163.68
609.31	2124.77
609.50	2221.02
609.70	2451.42
609.90	2417.01
610.10	2387.93
610.29	2264.03
610.49	2139.51
610.69	2256.25
610.89	2145.25
611.09	2120.06
611.28	2191.33
611.48	2169.62
611.68	2022.37
611.88	1941.88
612.07	1907.68
612.27	2117.19
612.47	1924.68
612.67	2017.45
612.86	2066.40
613.06	2003.12
613.26	1799.96
613.46	1971.58
613.65	2036.91
613.85	2490.13
614.05	2243.55
614.25	2260.34
614.44	2124.97
614.64	2126.41
614.84	2083.60
615.04	2038.96
615.23	2056.98
615.43	2169.82
615.63	2154.05
615.83	1994.31
616.02	1964.00
616.22	2286.76
616.42	2157.94
616.62	2242.73
616.81	2335.50
617.01	2412.10
617.21	2294.95
617.41	2108.59
617.60	2126.41
617.80	2188.25
618.00	2149.55
618.19	2075.00
618.39	2040.19
618.59	2026.67
618.79	1940.04
618.98	1772.31
619.18	1895.19
619.38	2178.42
619.57	1894.17
619.77	1909.73
619.97	1910.14
620.17	1922.84
620.36	1925.50
620.56	2219.38
620.76	2048.79
620.95	2125.79
621.15	2180.68
621.35	2079.30
621.54	2109.41
621.74	2116.78
621.94	1982.64
622.14	1902.97
622.33	1843.17
622.53	1983.66
622.73	1930.62
622.92	1780.30
623.12	1929.39
623.32	2191.33
623.51	2019.50
623.71	1764.94
623.91	2026.47
624.10	1814.30
624.30	1954.17
624.50	1809.99
624.69	1780.30
624.89	2424.18
625.09	1886.18
625.29	1698.18
625.48	1779.48
625.68	1934.51
625.88	2062.30
626.07	1943.32
626.27	1796.68
626.47	1866.52
626.66	1725.82
626.86	1867.13
627.06	1885.16
627.25	1924.07
627.45	2106.13
627.64	1854.44
627.84	2069.88
628.04	1816.96
628.23	2175.35
628.43	1798.32
628.63	1867.95
628.82	1966.25
629.02	2277.55
629.22	2154.05
629.41	2259.73
629.61	2141.15
629.81	2363.15
630.00	2104.90
630.20	2054.52
630.40	2232.08
630.59	2243.14
630.79	2129.48
630.98	2031.99
631.18	2057.39
631.38	2010.70
631.57	2093.64
631.77	1789.11
631.97	1984.28
632.16	1982.64
632.36	1955.20
632.56	1927.96
632.75	1934.10
632.95	2054.52
633.14	1766.58
633.34	2054.52
633.54	1689.57
633.73	1854.23
633.93	1823.31
634.12	1726.44
634.32	2229.62
634.52	1916.90
634.71	1762.69
634.91	1933.08
635.11	1746.51
635.30	1814.30
635.50	1936.56
635.69	1830.06
635.89	2191.33
636.09	2095.89
636.28	1856.07
636.48	1902.97
636.67	2078.07
636.87	2048.38
637.07	2022.37
637.26	1901.13
637.46	2038.75
637.65	2137.06
637.85	2037.11
638.04	1928.16
638.24	1979.98
638.44	2061.08
638.63	1935.13
638.83	1904.61
639.02	1990.22
639.22	2035.89
639.42	1898.06
639.61	1923.04
639.81	1959.50
640.00	1919.77
640.20	1974.45
640.39	2021.55
640.59	2401.65
640.79	2389.37
640.98	2394.69
641.18	2423.98
641.37	2450.80
641.57	2325.88
641.76	2234.54
641.96	2027.08
642.15	2196.04
642.35	2078.07
642.55	2054.32
642.74	1912.39
642.94	2122.72
643.13	2131.53
643.33	1887.41
643.52	1860.37
643.72	1867.13
643.91	1913.62
644.11	1834.57
644.31	1788.90
644.50	1823.51
644.70	2057.59
644.89	1867.75
645.09	1925.91
645.28	1909.53
645.48	1990.22
645.67	1790.95
645.87	1723.37
646.06	1899.49
646.26	1974.24
646.45	1720.91
646.65	1700.22
646.84	2159.58
647.04	1864.88
647.24	1788.08
647.43	1909.73
647.63	1951.10
647.82	2095.69
648.02	1790.54
648.21	1811.84
648.41	2072.34
648.60	1876.14
648.80	2002.71
648.99	1884.95
649.19	1847.88
649.38	1738.32
649.58	1905.23
649.77	1930.42
649.97	2056.98
650.16	1974.24
650.36	1666.43
650.55	1986.73
650.75	1941.88
650.94	2078.07
651.14	1868.98
651.33	1903.59
651.53	2102.65
651.72	1823.72
651.92	1877.37
652.11	1693.47
652.31	1958.27
652.50	1970.76
652.70	1938.61
652.89	1776.82
653.09	2107.56
653.28	1918.54
653.48	1768.42
653.67	1768.83
653.87	2329.97
654.06	1936.76
654.25	2061.89
654.45	1845.02
654.64	1891.91
654.84	1883.31
655.03	1683.64
655.23	1994.31
655.42	1987.35
655.62	2120.06
655.81	1926.52
656.01	1791.77
656.20	2019.91
656.40	2120.06
656.59	1897.85
656.79	2035.68
656.98	1957.65
657.17	2018.68
657.37	1889.05
657.56	1823.51
657.76	1919.15
657.95	2038.96
658.15	1582.26
658.34	1890.28
658.54	1911.57
658.73	1760.84
658.92	1840.51
659.12	1913.01
659.31	2017.86
659.51	1860.78
659.70	2019.71
659.90	1936.56
660.09	2174.94
660.29	1997.59
660.48	1855.66
660.67	2102.85
660.87	1897.85
661.06	1968.71
661.26	2040.60
661.45	1975.47
661.65	1977.11
661.84	1844.40
662.03	1860.37
662.23	1824.74
662.42	2149.14
662.62	1783.17
662.81	1762.89
663.00	1811.84
663.20	1922.84
663.39	1942.09
663.59	1949.26
663.78	1809.18
663.97	1855.05
664.17	2003.73
664.36	1737.09
664.56	1788.90
664.75	2010.70
664.94	1991.65
665.14	1915.67
665.33	1907.89
665.53	1988.58
665.72	1966.05
665.91	2099.37
666.11	1954.17
666.30	1976.90
666.50	1941.27
666.69	1932.46
666.88	1880.85
667.08	1971.37
667.27	1886.59
667.47	1934.92
667.66	1872.87
667.85	2025.24
668.05	1911.98
668.24	1824.94
668.43	2020.32
668.63	1864.68
668.82	2048.58
669.02	1979.77
669.21	1909.32
669.40	1782.96
669.60	2137.87
669.79	1762.69
669.98	2334.27
670.18	1813.07
670.37	1801.60
670.56	1879.42
670.76	1922.84
670.95	1921.61
671.15	2046.74
671.34	1984.89
671.53	1951.92
671.73	1884.54
671.92	1875.53
672.11	1805.28
672.31	1876.35
672.50	1991.24
672.69	1780.30
672.89	1670.53
673.08	1857.92
673.27	2007.42
673.47	1951.51
673.66	1943.32
673.85	1787.06
674.05	2033.22
674.24	2285.33
674.43	2336.12
674.63	2740.18
674.82	3098.17
675.01	2586.17
675.21	2717.04
675.40	2471.90
675.59	2418.04
675.79	2607.47
675.98	2292.91
676.17	2395.92
676.37	2293.93
676.56	2125.18
676.75	2118.01
676.95	2048.38
677.14	1982.43
677.33	2144.63
677.52	1837.03
677.72	1875.12
677.91	1935.74
678.10	1745.69
678.30	1806.31
678.49	1785.62
678.68	2166.55
678.88	1705.96
679.07	2012.13
679.26	1824.33
679.45	2150.98
679.65	2056.57
679.84	1696.54
680.03	1722.55
680.23	1877.99
680.42	2216.93
680.61	1774.16
680.81	1812.86
681.00	1917.31
681.19	1995.13
681.38	1987.55
681.58	1954.38
681.77	1862.22
681.96	2019.30
682.15	1867.34
682.35	1960.73
682.54	1999.64
682.73	1803.65
682.93	1821.87
683.12	1838.26
683.31	2004.35
683.50	2253.99
683.70	1825.35
683.89	1914.03
684.08	1797.50
684.27	2028.10
684.47	1741.80
684.66	1922.02
684.85	2147.09
685.04	2063.53
685.24	1825.35
685.43	1893.35
685.62	1711.90
685.81	1996.56
686.01	2066.20
686.20	2119.44
686.39	2182.52
686.58	2668.91
686.78	2447.32
686.97	2411.07
687.16	2376.87
687.35	2280.21
687.55	2175.56
687.74	2200.75
687.93	2081.35
688.12	2180.88
688.32	2142.38
688.51	1971.78
688.70	2122.92
688.89	1901.13
689.08	1815.11
689.28	1888.43
689.47	1980.39
689.66	1927.55
689.85	1983.46
690.05	1868.57
690.24	1860.37
690.43	1942.50
690.62	1913.01
690.81	1828.84
691.01	1911.57
691.20	1862.01
691.39	1794.23
691.58	1939.63
691.77	2136.24
691.97	1931.23
692.16	1951.71
692.35	1884.54
692.54	1867.13
692.73	2068.45
692.93	2034.86
693.12	2110.43
693.31	2171.87
693.50	2137.67
693.69	2128.45
693.89	2027.08
694.08	2215.90
694.27	2210.78
694.46	1946.18
694.65	2018.07
694.85	2127.84
695.04	2081.97
695.23	2039.78
695.42	2495.45
695.61	2792.41
695.80	3056.18
696.00	3298.25
696.19	3392.05
696.38	3012.36
696.57	2821.28
696.76	2771.72
696.95	2564.26
697.15	2673.62
697.34	2619.35
697.53	2281.23
697.72	2274.27
697.91	2188.87
698.10	2343.70
698.30	2009.67
698.49	2005.78
698.68	2025.65
698.87	1924.07
699.06	1837.44
699.25	1921.61
699.45	2049.81
699.64	1939.22
699.83	2007.01
700.02	1806.72
700.21	1984.07
700.40	1858.12
700.59	1885.77
700.79	1841.74
700.98	1998.82
701.17	1808.97
701.36	1814.30
701.55	1820.03
701.74	2136.85
701.93	2055.55
702.12	2351.89
702.32	2441.59
702.51	2770.70
702.70	2768.85
702.89	2540.71
703.08	2320.76
703.27	2489.31
703.46	2362.13
703.65	2241.71
703.85	2072.54
704.04	2105.93
704.23	2248.06
704.42	1981.61
704.61	1966.66
704.80	2197.88
704.99	1879.22
705.18	1988.58
705.37	1910.96
705.57	2294.54
705.76	2836.44
705.95	2899.72
706.14	3402.70
706.33	3576.37
706.52	3713.17
706.71	3076.87
706.90	2799.57
707.09	2811.45
707.28	2705.78
707.47	2459.20
707.67	2509.17
707.86	2300.07
708.05	2448.14
708.24	2205.87
708.43	2126.20
708.62	2023.80
708.81	1884.95
709.00	1788.49
709.19	1839.08
709.38	2051.86
709.57	1829.86
709.76	2031.59
709.96	1953.15
710.15	2216.72
710.34	2029.33
710.53	2097.12
710.72	1981.61
710.91	2113.30
711.10	2052.27
711.29	2042.85
711.48	1902.56
711.67	1848.50
711.86	2039.98
712.05	1868.98
712.24	1896.01
712.43	2056.78
712.62	2128.04
712.81	1941.06
713.00	2078.89
713.19	1807.74
713.39	1976.49
713.58	1788.70
713.77	1921.81
713.96	2062.51
714.15	1955.81
714.34	1946.39
714.53	1833.14
714.72	2229.21
714.91	1862.01
715.10	1976.09
715.29	1849.11
715.48	2421.52
715.67	2138.90
715.86	2010.49
716.05	1970.35
716.24	1962.36
716.43	1900.52
716.62	1837.23
716.81	1818.60
717.00	1909.94
717.19	2158.56
717.38	1937.79
717.57	1891.91
717.76	1737.29
717.95	2037.73
718.14	1926.52
718.33	1807.74
718.52	1714.97
718.71	1734.83
718.90	1759.41
719.09	1846.24
719.28	1908.09
719.47	2036.30
719.66	2061.08
719.85	2084.42
720.04	2033.22
720.23	2130.30
720.42	2022.37
720.61	2065.58
720.80	1879.63
720.99	2035.89
721.18	1933.08
721.37	1904.00
721.56	1915.26
721.75	2076.85
721.94	1846.45
722.13	1911.98
722.32	1922.43
722.51	2037.32
722.70	1912.39
722.89	1924.48
723.08	1892.53
723.27	2028.10
723.46	1908.30
723.65	1868.98
723.84	1848.09
724.03	2081.15
724.22	1761.46
724.41	1940.86
724.60	1874.30
724.79	2000.87
724.98	1942.09
725.16	1874.51
725.35	1967.07
725.54	1798.94
725.73	1923.86
725.92	1938.61
726.11	1964.00
726.30	2171.67
726.49	2036.70
726.68	2179.04
726.87	2296.80
727.06	2368.27
727.25	2070.70
727.44	2162.86
727.63	2095.69
727.82	2038.96
728.01	2059.64
728.20	2102.04
728.38	2209.76
728.57	1968.71
728.76	1955.20
728.95	2065.99
729.14	1809.79
729.33	1789.52
729.52	1706.57
729.71	1815.32
729.90	1794.23
730.09	1905.23
730.28	1968.10
730.47	1950.90
730.66	2218.77
730.84	2112.27
731.03	2085.65
731.22	2102.65
731.41	2053.50
731.60	2067.63
731.79	1830.27
731.98	1905.63
732.17	2070.70
732.36	2036.09
732.55	1879.63
732.73	1822.28
732.92	2104.49
733.11	1980.59
733.30	1839.28
733.49	1761.66
733.68	1992.67
733.87	1955.20
734.06	1893.14
734.25	2003.12
734.43	2139.92
734.62	2314.20
734.81	2293.52
735.00	2303.35
735.19	2254.61
735.38	2243.55
735.57	1999.43
735.76	2176.79
735.94	2303.76
736.13	2842.58
736.32	2831.32
736.51	2939.45
736.70	3278.59
736.89	3302.96
737.08	3123.56
737.27	3375.05
737.45	4091.02
737.64	4163.11
737.83	4540.96
738.02	4613.25
738.21	4504.51
738.40	4006.85
738.59	3595.41
738.77	3472.33
738.96	3186.64
739.15	3103.49
739.34	2938.84
739.53	2753.90
739.72	2744.07
739.90	2613.62
740.09	2271.81
740.28	2268.74
740.47	2269.15
740.66	2178.63
740.85	1977.93
741.03	2015.82
741.22	1870.41
741.41	1985.71
741.60	1850.75
741.79	2020.53
741.98	2156.10
742.16	2269.97
742.35	2085.65
742.54	2085.86
742.73	2436.88
742.92	2186.00
743.10	2062.30
743.29	2119.65
743.48	2462.68
743.67	2032.81
743.86	1902.15
744.05	1923.04
744.23	1936.76
744.42	1931.44
744.61	1955.40
744.80	1866.52
744.99	1899.70
745.17	1748.97
745.36	1785.62
745.55	1960.73
745.74	1932.05
745.93	1806.72
746.11	1834.37
746.30	1781.53
746.49	2029.54
746.68	1774.97
746.86	1885.77
747.05	1870.21
747.24	1984.69
747.43	2032.81
747.62	1843.99
747.80	1892.73
747.99	2145.66
748.18	2097.12
748.37	2026.26
748.56	2031.18
748.74	2130.30
748.93	2045.92
749.12	2178.63
749.31	2689.39
749.49	3036.73
749.68	3353.14
749.87	3649.28
750.06	3655.21
750.24	3737.54
750.43	4081.19
750.62	4401.49
750.81	4696.81
750.99	4902.63
751.18	4925.77
751.37	4258.55
751.56	3847.31
751.74	4016.07
751.93	3906.71
752.12	3196.06
752.31	3025.26
752.49	2862.45
752.68	2983.69
752.87	2580.85
753.06	2407.39
753.24	2294.95
753.43	2363.77
753.62	2060.26
753.81	2013.77
753.99	2201.36
754.18	2036.91
754.37	1867.95
754.55	1942.50
754.74	2153.85
754.93	1735.45
755.12	1876.96
755.30	1826.58
755.49	2033.84
755.68	1953.76
755.86	1918.95
756.05	1780.30
756.24	2105.31
756.43	1772.31
756.61	1769.45
756.80	1949.87
756.99	2078.07
757.17	1903.59
757.36	1794.02
757.55	1867.54
757.74	1978.13
757.92	1902.77
758.11	1757.36
758.30	1703.50
758.48	1863.65
758.67	1743.23
758.86	1871.64
759.04	1752.65
759.23	1855.25
759.42	1900.11
759.60	1827.61
759.79	1882.70
759.98	1869.39
760.16	1800.16
760.35	1798.32
760.54	1729.92
760.73	1945.57
760.91	1753.27
761.10	1920.18
761.29	1913.21
761.47	1907.48
761.66	2180.68
761.85	1942.70
762.03	2072.95
762.22	2671.98
762.41	4518.43
762.59	6496.16
762.78	7580.56
762.97	9080.28
763.15	9624.84
763.34	8771.25
763.52	6795.98
763.71	6474.04
763.90	6078.17
764.08	5598.94
764.27	5332.71
764.46	5103.33
764.64	4527.44
764.83	4154.10
765.02	3819.46
765.20	3533.36
765.39	3155.31
765.58	2602.56
765.76	2473.13
765.95	2300.69
766.13	2156.10
766.32	2012.13
766.51	2022.16
766.69	2546.03
766.88	2001.68
767.07	1840.10
767.25	1743.03
767.44	2048.58
767.62	2098.55
767.81	1836.00
768.00	1912.80
768.18	1934.72
768.37	1849.73
768.56	1759.61
768.74	1840.10
768.93	1791.77
769.11	1997.38
769.30	1907.48
769.49	1836.82
769.67	1900.72
769.86	1862.83
770.04	1847.47
770.23	1872.05
770.42	2058.41
770.60	1927.96
770.79	1810.20
770.97	1867.75
771.16	2300.28
771.35	2745.92
771.53	3200.98
771.72	3519.64
771.90	3937.63
772.09	4246.05
772.27	3859.19
772.46	3212.85
772.65	3316.69
772.83	3106.77
773.02	3017.48
773.20	2742.23
773.39	2830.91
773.58	2735.27
773.76	2374.21
773.95	2382.20
774.13	2358.44
774.32	2186.21
774.50	2009.88
774.69	2046.54
774.87	1951.10
775.06	2224.91
775.25	1840.10
775.43	1905.02
775.62	1951.71
775.80	1957.86
775.99	1951.71
776.17	1826.17
776.36	1913.83
776.54	2073.77
776.73	1817.57
776.92	1901.54
777.10	2018.07
777.29	1943.73
777.47	1784.80
777.66	1836.82
777.84	1894.78
778.03	1895.40
778.21	1771.90
778.40	1893.55
778.58	1956.42
778.77	2042.44
778.95	1758.59
779.14	1828.43
779.32	2118.42
779.51	2022.98
779.70	1858.12
779.88	1749.78
780.07	1847.88
780.25	2236.18
780.44	1865.49
780.62	2005.17
780.81	1950.49
780.99	1946.39
781.18	1813.89
781.36	1815.32
781.55	1863.65
781.73	2101.01
781.92	1750.40
782.10	1765.14
782.29	1957.04
782.47	2099.78
782.66	1883.11
782.84	1728.69
783.03	1795.04
783.21	2052.47
783.40	1845.42
783.58	1838.46
783.77	1832.11
783.95	1877.37
784.14	1766.37
784.32	1862.83
784.51	2053.50
784.69	1849.93
784.88	1764.12
785.06	1895.60
785.24	1796.68
785.43	2049.40
785.61	1990.22
785.80	1824.33
785.98	2017.86
786.17	1940.86
786.35	1818.80
786.54	1960.32
786.72	2022.57
786.91	2050.02
787.09	1876.76
787.28	1760.43
787.46	1920.38
787.65	1982.64
787.83	1784.80
788.01	1907.07
788.20	1814.30
788.38	1956.83
788.57	1892.12
788.75	1916.69
788.94	2207.92
789.12	2113.30
789.31	1938.40
789.49	2029.54
789.67	1869.80
789.86	1997.79
790.04	1839.69
790.23	1767.60
790.41	2213.24
790.60	1928.57
790.78	1914.44
790.96	1902.97
791.15	2049.61
791.33	1911.78
791.52	1902.77
791.70	1809.18
791.89	1931.85
792.07	2019.09
792.25	1905.43
792.44	1746.92
792.62	2043.26
792.81	1826.17
792.99	1903.59
793.17	1789.11
793.36	1835.18
793.54	2270.38
793.73	2509.79
793.91	2808.99
794.10	3238.66
794.28	3588.66
794.46	3455.95
794.65	3450.83
794.83	2963.00
795.01	2873.10
795.20	2966.48
795.38	2742.03
795.57	2747.76
795.75	2660.93
795.93	2454.49
796.12	2432.78
796.30	2426.43
796.49	2359.87
796.67	2083.60
796.85	2189.69
797.04	2107.16
797.22	2094.05
797.40	1815.52
797.59	1961.34
797.77	1956.22
797.96	1840.51
798.14	1845.02
798.32	1821.46
798.51	2042.03
798.69	2172.28
798.87	1883.52
799.06	1857.71
799.24	1781.32
799.42	2161.84
799.61	2305.40
799.79	2539.48
799.98	2929.21
800.16	2903.61
800.34	3416.01
800.53	4003.37
800.71	4224.96
800.89	4878.06
801.08	4882.15
801.26	4896.49
801.44	4262.03
801.63	3693.92
801.81	3646.82
801.99	3459.43
802.18	3266.92
802.36	3208.14
802.54	3051.68
802.73	2740.18
802.91	2715.20
803.09	2550.75
803.28	2471.90
803.46	2387.73
803.64	2424.59
803.83	2012.74
804.01	1928.37
804.19	1849.93
804.38	2108.59
804.56	2050.02
804.74	1972.19
804.92	1970.76
805.11	1862.22
805.29	2088.93
805.47	1886.79
805.66	1782.76
805.84	1810.20
806.02	2047.97
806.21	1864.68
806.39	2024.83
806.57	2070.09
806.76	2035.48
806.94	1946.59
807.12	1860.78
807.30	1895.40
807.49	2017.04
807.67	1978.54
807.85	2059.64
808.04	2073.36
808.22	2243.75
808.40	1820.44
808.58	1824.33
808.77	2024.62
808.95	2166.34
809.13	2195.42
809.31	3142.61
809.50	4051.70
809.68	4517.00
809.86	4837.92
810.05	5188.12
810.23	5741.28
810.41	6964.53
810.59	10801.81
810.78	13152.87
810.96	15038.64
811.14	16319.24
811.32	15828.75
811.51	13081.61
811.69	10702.48
811.87	10594.96
812.05	9354.71
812.24	8914.40
812.42	8219.11
812.60	7534.27
812.78	6434.92
812.97	5692.74
813.15	5383.70
813.33	4712.79
813.51	4209.80
813.70	3512.06
813.88	3020.55
814.06	2735.27
814.24	2455.31
814.42	2148.52
814.61	2177.61
814.79	2301.30
814.97	1833.34
815.15	1898.67
815.34	1961.95
815.52	2059.23
815.70	1827.40
815.88	1854.03
816.06	1834.98
816.25	1852.59
816.43	1810.61
816.61	1983.66
816.79	2120.67
816.98	1769.65
817.16	1875.32
817.34	1816.14
817.52	2004.76
817.70	2154.46
817.89	1904.61
818.07	1817.37
818.25	1903.38
818.43	1954.99
818.61	1882.49
818.80	1860.58
818.98	2146.68
819.16	1921.61
819.34	1778.05
819.52	2070.29
819.70	1816.34
819.89	1913.21
820.07	1732.58
820.25	1710.26
820.43	1933.28
820.61	2016.23
820.80	1875.32
820.98	1783.37
821.16	1707.60
821.34	1759.82
821.52	1857.92
821.70	1912.39
821.89	1902.56
822.07	1880.65
822.25	1851.98
822.43	1771.29
822.61	2097.53
822.79	1924.89
822.98	1820.23
823.16	1704.32
823.34	1964.62
823.52	2028.72
823.70	1985.71
823.88	1707.39
824.06	1969.74
824.25	1872.87
824.43	1990.83
824.61	1797.71
824.79	1960.52
824.97	2009.67
825.15	2089.34
825.33	2347.18
825.52	2654.58
825.70	2688.37
825.88	2827.02
826.06	2982.46
826.24	3061.10
826.42	2913.03
826.60	2584.54
826.78	2626.93
826.97	2425.82
827.15	2568.15
827.33	2280.82
827.51	2371.55
827.69	2186.00
827.87	2235.97
828.05	2203.82
828.23	2006.80
828.41	2190.51
828.60	2130.71
828.78	1812.04
828.96	1974.24
829.14	1868.16
829.32	1889.46
829.50	1851.77
829.68	1859.76
829.86	1834.37
830.04	1987.96
830.22	1920.99
830.41	1740.57
830.59	1871.64
830.77	1953.15
830.95	1780.71
831.13	1820.85
831.31	1815.52
831.49	2000.87
831.67	1991.65
831.85	1962.16
832.03	1865.09
832.21	1982.23
832.39	1749.78
832.57	1775.79
832.76	2006.19
832.94	1899.08
833.12	1712.10
833.30	1868.16
833.48	2032.20
833.66	1944.96
833.84	1808.15
834.02	1880.24
834.20	2023.60
834.38	2024.01
834.56	1706.37
834.74	1763.51
834.92	1748.35
835.10	2129.89
835.28	1929.80
835.46	1875.32
835.64	1879.83
835.82	1823.92
836.01	2077.05
836.19	1997.38
836.37	1847.68
836.55	1794.02
836.73	1801.60
836.91	1758.39
837.09	1976.90
837.27	2093.43
837.45	1742.21
837.63	1775.38
837.81	1772.11
837.99	1905.43
838.17	1873.48
838.35	1840.51
838.53	2263.42
838.71	2056.78
838.89	1912.60
839.07	1889.66
839.25	1997.59
839.43	2075.82
839.61	2067.63
839.79	2783.39
839.97	3398.40
840.15	3781.37
840.33	3926.98
840.51	4288.24
840.69	4086.31
840.87	3572.48
841.05	3368.91
841.23	3416.63
841.41	4120.72
841.59	5343.36
841.77	5888.93
841.95	6267.40
842.13	6842.06
842.31	6482.64
842.49	5392.51
842.67	4822.35
842.85	4744.32
843.03	4194.65
843.21	4024.26
843.39	3942.34
843.57	3660.33
843.75	3454.51
843.93	3090.59
844.11	2889.68
844.29	2788.31
844.47	2599.69
844.65	2643.31
844.83	2348.41
845.01	2220.00
845.19	2265.67
845.36	2049.40
845.54	2065.17
845.72	2002.09
845.90	2006.80
846.08	1797.71
846.26	1909.73
846.44	1964.62
846.62	1953.15
846.80	1889.87
846.98	1788.29
847.16	1876.55
847.34	1907.89
847.52	1757.77
847.70	1773.75
847.88	1875.53
848.06	2083.19
848.24	1920.79
848.41	1715.38
848.59	2013.36
848.77	1934.92
848.95	1812.86
849.13	1812.04
849.31	1989.60
849.49	1935.94
849.67	1754.09
849.85	1746.71
850.03	1952.74
850.21	1905.84
850.39	1805.90
850.57	1933.08
850.74	2065.58
850.92	2100.81
851.10	2106.95
851.28	2282.87
851.46	2525.15
851.64	2861.42
851.82	2612.18
852.00	2665.23
852.18	2700.45
852.36	2474.15
852.53	2296.39
852.71	2341.44
852.89	2320.96
853.07	2314.20
853.25	2076.03
853.43	1984.48
853.61	2118.83
853.79	2123.33
853.97	1959.70
854.14	1888.64
854.32	2144.22
854.50	2045.72
854.68	1863.65
854.86	1881.47
855.04	1835.39
855.22	2005.58
855.40	1768.01
855.57	1788.29
855.75	1992.88
855.93	1951.30
856.11	1683.84
856.29	1793.41
856.47	1822.08
856.65	1905.02
856.82	1820.85
857.00	1725.21
857.18	1881.06
857.36	1844.40
857.54	1871.23
857.72	1971.78
857.89	1948.85
858.07	1918.74
858.25	1971.99
858.43	1746.92
858.61	1844.81
858.79	1875.53
858.97	1767.19
859.14	1918.54
859.32	1854.03
859.50	1858.74
859.68	1919.36
859.86	1815.73
860.03	1929.19
860.21	1982.43
860.39	1840.10
860.57	1937.38
860.75	1978.34
860.93	2151.19
861.10	2017.25
861.28	1812.04
861.46	1942.70
861.64	1991.65
861.82	1867.34
861.99	1958.27
862.17	2030.36
862.35	2020.94
862.53	1893.96
862.71	1849.11
862.88	1940.66
863.06	1958.68
863.24	1843.17
863.42	1810.61
863.60	1862.42
863.77	1959.70
863.95	1667.25
864.13	1867.75
864.31	1872.46
864.49	1983.66
864.66	1724.80
864.84	1801.19
865.02	1897.85
865.20	2205.87
865.37	1897.65
865.55	1801.80
865.73	1757.98
865.91	2025.24
866.09	1982.43
866.26	1980.80
866.44	2097.32
866.62	2002.50
866.80	1859.76
866.97	1966.66
867.15	1925.71
867.33	1977.31
867.51	1984.07
867.68	1918.13
867.86	1889.87
868.04	1852.80
868.22	1709.44
868.39	1851.16
868.57	1950.28
868.75	2089.95
868.93	1723.16
869.10	1814.50
869.28	2090.57
869.46	2078.69
869.64	1876.96
869.81	1845.63
869.99	1937.38
870.17	1907.27
870.35	1785.62
870.52	1767.81
870.70	2020.53
870.88	1804.87
871.05	1728.69
871.23	1667.46
871.41	1861.81
871.59	1866.11
871.76	1825.76
871.94	1790.54
872.12	1903.38
872.29	1715.79
872.47	1809.79
872.65	1737.29
872.83	1907.68
873.00	2051.25
873.18	1846.24
873.36	1830.06
873.53	1978.54
873.71	1744.46
873.89	1804.06
874.06	1840.30
874.24	1951.71
874.42	2051.86
874.60	1931.64
874.77	1852.59
874.95	1803.03
875.13	2020.94
875.30	1786.85
875.48	1837.03
875.66	2097.73
875.83	1821.87
876.01	1844.20
876.19	1968.10
876.36	1747.33
876.54	1920.79
876.72	1783.78
876.89	1905.43
877.07	1977.11
877.25	1686.91
877.42	1875.53
877.60	1841.12
877.78	2114.94
877.95	1850.54
878.13	1803.44
878.31	1918.74
878.48	1992.06
878.66	1984.69
878.84	1797.71
879.01	1846.24
879.19	1932.87
879.37	1983.87
879.54	1788.90
879.72	1741.39
879.90	1670.73
880.07	1971.58
880.25	1592.09
880.42	1923.66
880.60	1915.87
880.78	1978.95
880.95	1816.55
881.13	1815.52
881.31	1916.49
881.48	1819.83
881.66	1770.67
881.83	1869.18
882.01	1796.27
882.19	1751.01
882.36	1847.88
882.54	1825.56
882.72	1970.56
882.89	1888.02
883.07	1766.37
883.24	1803.85
883.42	1967.48
883.60	1903.18
883.77	1759.21
883.95	1793.41
884.12	2037.11
884.30	1965.23
884.48	2017.45
884.65	1929.60
884.83	2011.11
885.00	1987.14
885.18	1795.25
885.36	1862.63
885.53	1988.78
885.71	2067.63
885.88	1759.00
886.06	1845.02
886.23	1957.86
886.41	1865.90
886.59	1803.03
886.76	1780.91
886.94	1966.46
887.11	2271.20
887.29	1845.22
887.47	1719.68
887.64	2045.92
887.82	2084.01
887.99	1681.38
888.17	1859.97
888.34	1841.53
888.52	1773.54
888.69	1875.94
888.87	1740.16
889.05	1862.83
889.22	1843.79
889.40	1784.19
889.57	1958.68
889.75	2022.37
889.92	1844.61
890.10	1740.36
890.27	1820.64
890.45	1784.40
890.62	1674.42
890.80	1757.36
890.98	1688.76
891.15	2062.10
891.33	1994.93
891.50	1753.06
891.68	1700.63
891.85	1962.16
892.03	1968.92
892.20	1807.54
892.38	1752.45
892.55	1947.00
892.73	1959.09
892.90	1748.56
893.08	1821.87
893.25	1819.01
893.43	1820.85
893.60	1914.44
893.78	1641.65
893.95	1927.75
894.13	1861.40
894.30	1772.93
894.48	1845.02
894.65	1984.89
894.83	1903.38
895.00	1668.28
895.18	1677.90
895.35	1994.93
895.53	1957.65
895.70	1719.47
895.88	1949.87
896.05	1956.63
896.23	1745.28
896.40	1795.25
896.58	1866.93
896.75	2002.30
896.93	2077.25
897.10	1799.96
897.28	1747.12
897.45	1884.54
897.63	1967.07
897.80	1942.50
897.98	1833.75
898.15	1892.73
898.33	1775.79
898.50	1885.56
898.67	1838.87
898.85	1823.10
899.02	1951.92
899.20	1985.92
899.37	1829.25
899.55	1898.88
899.72	2049.40
899.90	1797.71
900.07	1757.16
900.25	1944.14
900.42	2016.43
900.59	1786.24
900.77	1902.36
900.94	1951.92
901.12	1931.44
901.29	1773.13
901.47	1908.30
901.64	1956.22
901.82	1859.56
901.99	1635.92
902.16	1759.00
902.34	2048.79
902.51	1959.70
902.69	1768.63
902.86	1831.50
903.03	2340.21
903.21	1881.06
903.38	1823.10
903.56	1808.97
903.73	2031.38
903.91	1838.05
904.08	1745.69
904.25	1675.65
904.43	1789.72
904.60	1969.94
904.78	1821.05
904.95	1753.27
905.12	1862.22
905.30	2076.03
905.47	1917.31
905.65	1974.86
905.82	1898.06
905.99	2003.12
906.17	1898.26
906.34	1811.63
906.52	1879.63
906.69	2028.72
906.86	2017.04
907.04	1917.31
907.21	2052.47
907.38	2056.78
907.56	1808.36
907.73	1804.06
907.91	2092.61
908.08	2048.58
908.25	1802.01
908.43	1765.35
908.60	1968.71
908.77	1918.95
908.95	1798.32
909.12	1753.47
909.30	1978.75
909.47	1722.34
909.64	1838.26
909.82	1974.24
909.99	1862.01
910.16	1912.60
910.34	1781.73
910.51	1803.44
910.68	1918.74
910.86	1883.93
911.03	1746.51
911.20	1926.93
911.38	2492.58
911.55	3229.85
911.72	3470.49
911.90	3534.79
912.07	3887.86
912.24	3927.39
912.42	3179.27
912.59	2682.22
912.76	2748.99
912.94	2479.89
913.11	2314.00
913.28	2186.82
913.46	2070.70
913.63	2203.20
913.80	2357.21
913.98	2026.67
914.15	2237.00
914.32	2202.59
914.49	2064.56
914.67	1910.96
914.84	2054.11
915.01	2108.59
915.19	1981.00
915.36	1908.30
915.53	2087.29
915.71	2011.51
915.88	1939.84
916.05	1828.02
916.22	2006.39
916.40	1924.68
916.57	1766.37
916.74	1902.77
916.92	2075.62
917.09	1747.33
917.26	1758.80
917.43	1734.63
917.61	1844.81
917.78	1714.56
917.95	1653.33
918.13	1760.02
918.30	2159.38
918.47	1902.77
918.64	1769.65
918.82	1763.71
918.99	1900.72
919.16	2171.67
919.33	1910.55
919.51	1846.86
919.68	1971.78
919.85	2088.72
920.02	1755.93
920.20	1854.03
920.37	2126.00
920.54	2024.83
920.71	1798.94
920.89	1800.37
921.06	2099.99
921.23	1797.30
921.40	1774.97
921.58	2041.21
921.75	2518.39
921.92	2127.63
922.09	2210.37
922.27	2201.36
922.44	2197.47
922.61	2163.47
922.78	1979.57
922.96	1922.43
923.13	1937.99
923.30	2096.30
923.47	1790.74
923.64	1822.08
923.82	2002.50
923.99	1964.62
924.16	1906.86
924.33	1762.07
924.50	1943.32
924.68	2098.76
924.85	1760.64
925.02	1827.61
925.19	2015.61
925.36	1942.91
925.54	1910.14
925.71	1846.04
925.88	2273.25
926.05	1879.63
926.22	1744.46
926.40	1866.11
926.57	1911.16
926.74	1948.44
926.91	1785.21
927.08	1986.94
927.26	2031.79
927.43	1894.37
927.60	1765.96
927.77	1811.63
927.94	2078.48
928.11	2023.39
928.29	1693.67
928.46	1842.35
928.63	1807.74
928.80	1855.46
928.97	1907.68
929.14	1769.45
929.32	2171.67
929.49	1906.45
929.66	1766.58
929.83	1710.67
930.00	1837.85
930.17	1942.29
930.35	1710.46
930.52	1786.24
930.69	2062.92
930.86	1764.73
931.03	1871.43
931.20	1605.81
931.37	2011.11
931.55	1869.39
931.72	1867.75
931.89	1676.67
932.06	1769.04
932.23	2083.40
932.40	1888.64
932.57	1878.60
932.74	2023.19
932.92	2030.97
933.09	1916.49
933.26	1595.98
933.43	1839.49
933.60	1910.35
933.77	1842.35
933.94	1867.95
934.11	1835.59
934.29	1885.36
934.46	1721.32
934.63	1865.09
934.80	1713.74
934.97	1864.88
935.14	1833.96
935.31	1690.39
935.48	1804.47
935.65	1941.68
935.82	1888.02
936.00	1727.87
936.17	2067.01
936.34	1885.36
936.51	1915.67
936.68	1727.05
936.85	1925.09
937.02	1899.70
937.19	1910.14
937.36	1818.39
937.53	1926.32
937.70	1993.90
937.87	1840.92
938.05	1913.42
938.22	1902.36
938.39	1743.44
938.56	1811.63
938.73	1755.72
938.90	1850.13
939.07	1802.83
939.24	1840.71
939.41	1660.49
939.58	1947.41
939.75	1961.34
939.92	1755.31
940.09	1966.46
940.26	1844.61
940.43	2012.54
940.60	1764.33
940.77	1810.20
940.95	1927.14
941.12	1973.42
941.29	1786.44
941.46	1825.76
941.63	2041.01
941.80	2067.22
941.97	1689.16
942.14	1701.86
942.31	1951.71
942.48	1865.49
942.65	1860.78
942.82	1808.56
942.99	1969.53
943.16	1868.57
943.33	1715.58
943.50	1774.97
943.67	1980.80
943.84	2008.03
944.01	1809.59
944.18	1731.97
944.35	2065.79
944.52	1778.66
944.69	1832.11
944.86	1716.81
945.03	1977.72
945.20	2200.95
945.37	1687.32
945.54	1859.15
945.71	2059.44
945.88	2116.58
946.05	1772.11
946.22	1743.23
946.39	2067.63
946.56	1883.72
946.73	1706.98
946.90	1767.40
947.07	1809.18
947.24	1886.79
947.41	1663.16
947.58	1905.23
947.75	1974.45
947.92	1946.59
948.09	1600.90
948.26	1691.62
948.43	1900.52
948.60	2125.38
948.77	1766.58
948.94	1790.74
949.11	1992.06
949.27	1914.85
949.44	1758.39
949.61	1732.79
949.78	1911.16
949.95	2036.09
950.12	1715.38
950.29	1701.66
950.46	1822.28
950.63	2006.60
950.80	1746.92
950.97	1816.14
951.14	2017.25
951.31	1831.50
951.48	1762.28
951.65	1697.36
951.82	2127.23
951.99	1913.01
952.15	1699.61
952.32	1807.95
952.49	1806.10
952.66	1807.95
952.83	1755.93
953.00	1738.32
953.17	1872.25
953.34	1959.70
953.51	1812.04
953.68	1815.11
953.85	2021.96
954.02	2031.38
954.18	1820.44
954.35	1808.77
954.52	1747.94
954.69	1894.37
954.86	1636.74
955.03	1806.92
955.20	1963.59
955.37	1866.93
955.54	1776.82
955.71	1737.50
955.87	1902.97
956.04	2080.33
956.21	1782.76
956.38	1751.83
956.55	1905.84
956.72	2174.53
956.89	1807.33
957.06	1770.88
957.23	1789.72
957.39	2038.14
957.56	1772.31
957.73	1732.99
957.90	1646.98
958.07	2086.68
958.24	1807.13
958.41	1806.72
958.57	1983.25
958.74	1899.29
958.91	1725.41
959.08	1766.17
959.25	1970.15
959.42	1858.12
959.59	1846.86
959.75	1791.15
959.92	2048.17
960.09	2003.73
960.26	1761.66
960.43	1839.69
960.60	1901.74
960.76	1865.09
960.93	1673.80
961.10	1819.21
961.27	1975.88
961.44	1849.52
961.61	1702.68
961.77	1705.34
961.94	1904.61
962.11	1999.64
962.28	1773.54
962.45	1696.95
962.62	1865.09
962.78	1987.96
962.95	1718.25
963.12	1774.97
963.29	1962.36
963.46	2197.27
963.62	1854.03
963.79	1765.76
963.96	2181.09
964.13	1851.77
964.30	1859.15
964.46	1795.45
964.63	1753.68
964.80	2242.53
964.97	1647.80
965.14	1924.27
965.30	2001.28
965.47	2098.76
965.64	1982.43
965.81	1936.15
965.98	2157.33
966.14	1972.60
966.31	1841.33
966.48	1831.29
966.65	2095.69
966.81	1964.82
966.98	1821.87
967.15	1848.09
967.32	1909.53
967.49	1816.55
967.65	1674.83
967.82	1642.68
967.99	1877.37
968.16	1721.52
968.32	1946.18
968.49	1801.19
968.66	1870.61
968.83	2074.18
968.99	1858.94
969.16	1718.86
969.33	2053.50
969.50	1955.81
969.66	1904.82
969.83	2011.11
970.00	1970.35
970.17	1958.47
970.33	1776.20
970.50	1732.99
970.67	2070.91
970.84	2058.62
971.00	1728.28
971.17	1721.52
971.34	1969.53
971.50	1875.73
971.67	1909.73
971.84	1843.38
972.01	1770.88
972.17	1634.07
972.34	1711.69
972.51	1877.58
972.67	2017.66
972.84	1937.99
973.01	1721.52
973.18	1778.05
973.34	2005.99
973.51	1786.24
973.68	1790.95
973.84	1817.57
974.01	1848.91
974.18	2085.04
974.34	1875.53
974.51	1888.02
974.68	1803.85
974.85	2124.36
975.01	1924.68
975.18	1791.77
975.35	1884.75
975.51	1808.97
975.68	1675.85
975.85	1932.05
976.01	1780.50
976.18	2052.88
976.35	1789.52
976.51	1782.35
976.68	2079.71
976.85	2049.40
977.01	1837.64
977.18	1871.84
977.35	1953.56
977.51	1728.08
977.68	1649.23
977.85	1720.29
978.01	1979.16
978.18	1949.46
978.35	1836.00
978.51	1833.96
978.68	2007.62
978.85	2080.12
979.01	1795.86
979.18	1825.35
979.34	1888.02
979.51	1910.75
979.68	1717.22
979.84	1841.12
980.01	2193.37
980.18	1922.43
980.34	1761.25
980.51	1879.01
980.67	1972.60
980.84	1969.94
981.01	1811.43
981.17	1869.80
981.34	1665.41
981.51	1983.46
981.67	1766.58
981.84	1907.68
982.00	1956.83
982.17	1888.02
982.34	1687.32
982.50	1594.14
982.67	2065.17
982.83	1817.16
983.00	1699.20
983.17	1603.15
983.33	2034.86
983.50	1681.18
983.66	1715.99
983.83	1592.91
984.00	1831.70
984.16	1894.17
984.33	1618.92
984.49	1620.15
984.66	1750.40
984.83	1978.34
984.99	1653.94
985.16	1606.22
985.32	1948.44
985.49	2017.86
985.65	1737.91
985.82	1628.14
985.99	2059.64
986.15	1894.17
986.32	1700.02
986.48	1682.00
986.65	1825.35
986.81	1972.60
986.98	1621.17
987.14	1693.26
987.31	1905.63
987.48	1705.75
987.64	1551.54
987.81	1574.27
987.97	2141.15
988.14	1784.60
988.30	1622.81
988.47	1516.52
988.63	1933.08
988.80	1756.95
988.96	1669.09
989.13	1728.69
989.30	1853.00
989.46	1970.15
989.63	1572.02
989.79	1587.18
989.96	1829.86
990.12	2050.22
990.29	1655.37
990.45	1696.74
990.62	1868.36
990.78	2015.61
990.95	1746.92
991.11	1651.89
991.28	1811.22
991.44	1914.85
991.61	1557.69
991.77	1697.97
991.94	1917.92
992.10	2025.65
992.27	1698.38
992.43	1676.67
992.60	1951.10
992.76	1807.13
992.93	1818.80
993.09	1619.12
993.26	2017.25
993.42	2096.30
993.59	1643.70
993.75	1553.79
993.92	1811.22
994.08	1810.61
994.25	1721.32
994.41	1621.38
994.58	1945.37
994.74	2045.92
994.91	1626.29
995.07	1745.07
995.24	1848.91
995.40	1862.42
995.56	1776.61
995.73	1736.27
995.89	2087.90
996.06	1881.26
996.22	1645.75
996.39	1567.92
996.55	1885.16
996.72	1925.09
996.88	1599.67
997.05	1606.63
997.21	2128.86
997.37	1919.36
997.54	1723.16
997.70	1658.85
997.87	1922.02
998.03	1867.95
998.20	1558.30
998.36	1563.21
998.52	1944.96
998.69	1989.60
998.85	1575.09
999.02	1669.71
999.18	1996.16
999.35	1965.44
999.51	1669.71
999.67	1680.97
999.84	1744.05
1000.00	1968.92
1000.17	1736.47
1000.33	1628.54
1000.49	1813.07
1000.66	1852.18
1000.82	1653.53
1000.99	1679.13
1001.15	2019.71
1001.31	1821.05
1001.48	1660.49
1001.64	1719.06
1001.81	1852.80
1001.97	2118.62
1002.13	1637.15
1002.30	1676.47
1002.46	2057.39
1002.63	1836.41
1002.79	1723.98
1002.95	1645.75
1003.12	1991.44
1003.28	1914.85
1003.45	1622.61
1003.61	1598.03
1003.77	1900.52
1003.94	1715.17
1004.10	1664.79
1004.26	1727.87
1004.43	1925.71
1004.59	2075.41
1004.75	1650.87
1004.92	1625.47
1005.08	1804.67
1005.25	1882.90
1005.41	1661.11
1005.57	1725.62
1005.74	2045.31
1005.90	1830.06
1006.06	1728.49
1006.23	1649.43
1006.39	1993.70
1006.55	2203.61
1006.72	1793.00
1006.88	1639.60
1007.04	1786.85
1007.21	1855.25
1007.37	1693.67
1007.53	1654.14
1007.70	2081.76
1007.86	1968.92
1008.02	1702.07
1008.19	1626.70
1008.35	1919.15
1008.51	1765.35
1008.68	1668.48
1008.84	1582.88
1009.00	1784.60
1009.17	2030.56
1009.33	1774.36
1009.49	1718.66
1009.65	1778.25
1009.82	1931.64
1009.98	1701.66
1010.14	1566.49
1010.31	1973.01
1010.47	1953.15
1010.63	1709.85
1010.80	1702.07
1010.96	1953.97
1011.12	1858.53
1011.28	1661.52
1011.45	1628.14
1011.61	2218.56
1011.77	1769.44
1011.94	1633.05
1012.10	1623.02
1012.26	1746.92
1012.42	1824.74
1012.59	1686.71
1012.75	1679.74
1012.91	1836.21
1013.07	1999.23
1013.24	1614.62
1013.40	1639.19
1013.56	1889.25
1013.72	1849.93
1013.89	1720.09
1014.05	1713.74
1014.21	2121.70
1014.37	2204.43
1014.54	1712.10
1014.70	1626.50
1014.86	1850.95
1015.02	1737.91
1015.19	1648.00
1015.35	1594.75
1015.51	1868.98
1015.67	1834.57
1015.84	1663.36
1016.00	1674.01
1016.16	2003.73
1016.32	1954.58
1016.49	1645.34
1016.65	1607.25
1016.81	1855.25
1016.97	1945.98
1017.14	1746.92
1017.30	1646.57
1017.46	1821.67
1017.62	1900.31
1017.78	1741.80
1017.95	1635.51
1018.11	1970.97
1018.27	2204.02
1018.43	1796.68
1018.59	1712.92
1018.76	1953.35
1018.92	2188.87
1019.08	1637.76
1019.24	1651.69
1019.40	2070.29
1019.57	1930.42
1019.73	1726.85
1019.89	1651.89
1020.05	1890.68
1020.21	2137.67
1020.38	1614.21
1020.54	1788.90
1020.70	1939.63
1020.86	1925.91
1021.02	1642.68
1021.18	1629.77
1021.35	1815.93
1021.51	1947.00
1021.67	1785.62
1021.83	1674.42
1021.99	1881.26
1022.15	1931.03
1022.32	1745.48
1022.48	1711.90
1022.64	2035.48
1022.80	2087.49
1022.96	1674.83
1023.12	1617.49
1023.29	1973.01
1023.45	1954.38
1023.61	1628.95
1023.77	1811.84
1023.93	1901.54
1024.09	1801.19
1024.25	1637.76
1024.42	1604.17
1024.58	1848.91
1024.74	1911.78
1024.90	1677.08
1025.06	1708.21
1025.22	1808.36
1025.38	2081.56
1025.54	1618.71
1025.71	1722.34
1025.87	1926.73
1026.03	1951.92
1026.19	1621.58
1026.35	1793.20
1026.51	1948.44
1026.67	1878.19
1026.83	1697.15
1026.99	1778.46
1027.16	1937.17
1027.32	2036.09
1027.48	1696.74
1027.64	1633.05
1027.80	1965.85
1027.96	1891.71
1028.12	1665.41
1028.28	1626.09
1028.44	1911.16
1028.60	2046.54
1028.77	1752.65
1028.93	1694.90
1029.09	1798.73
1029.25	1762.48
1029.41	1699.20
1029.57	1741.59
1029.73	1898.06
1029.89	2068.86
1030.05	1768.01
1030.21	1741.18
1030.37	2143.81
1030.53	1935.54
1030.69	1679.33
1030.85	1600.90
1031.02	1777.23
1031.18	1879.63
1031.34	1679.95
1031.50	1753.06
1031.66	1761.66
1031.82	2049.20
1031.98	1701.45
1032.14	1662.54
1032.30	1778.05
1032.46	1977.31
1032.62	1807.33
1032.78	1602.33
1032.94	1819.42
1033.10	1828.84
1033.26	1717.63
1033.42	1758.59
1033.58	2128.04
1033.74	1829.25
1033.90	1672.99
1034.06	1818.39
1034.22	2178.83
1034.38	1994.72
1034.54	1689.57
1034.70	1678.52
1034.86	2096.10
>>>>>End Processed Spectral Data<<<<<
