SpectraSuite Data File
++++++++++++++++++++++++++++++++++++
Date: Thu Mar 30 14:31:21 PDT 2017
User: UCSD _CER
Dark Spectrum Present: No
Reference Spectrum Present: No
Number of Sampled Component Spectra: 1
Spectrometers: USB4C00073
Integration Time (usec): 380000 (USB4C00073)
Spectra Averaged: 10 (USB4C00073)
Boxcar Smoothing: 0 (USB4C00073)
Correct for Electrical Dark: No (USB4C00073)
Strobe/Lamp Enabled: No (USB4C00073)
Correct for Detector Non-linearity: No (USB4C00073)
Correct for Stray Light: No (USB4C00073)
Number of Pixels in Processed Spectrum: 3648
>>>>>Begin Processed Spectral Data<<<<<
345.37	1224.69
345.58	1224.69
345.80	1224.69
346.01	1251.51
346.22	1244.14
346.43	2053.70
346.65	1944.14
346.86	2466.16
347.07	2365.20
347.28	1860.37
347.50	1830.47
347.71	2154.46
347.92	1865.49
348.13	1849.11
348.35	1811.22
348.56	2158.97
348.77	1938.61
348.98	1851.98
349.20	1666.23
349.41	2153.44
349.62	2306.01
349.83	1918.74
350.05	1832.73
350.26	2212.22
350.47	2398.17
350.68	1835.80
350.90	1754.29
351.11	2421.31
351.32	2379.13
351.53	1876.55
351.75	1814.50
351.96	2203.20
352.17	2132.75
352.38	1917.31
352.60	1904.00
352.81	2182.52
353.02	2441.79
353.23	1807.13
353.44	1839.28
353.66	2093.23
353.87	2099.99
354.08	1910.96
354.29	1819.01
354.51	2022.98
354.72	2071.11
354.93	1802.83
355.14	1828.84
355.35	1875.73
355.57	2286.35
355.78	1858.33
355.99	1888.84
356.20	2135.42
356.42	2096.10
356.63	1916.28
356.84	1831.91
357.05	2312.16
357.26	2524.53
357.48	1948.44
357.69	1880.44
357.90	2205.87
358.11	2081.97
358.32	1845.02
358.54	1896.21
358.75	2074.80
358.96	2273.25
359.17	1838.46
359.38	1859.97
359.60	2234.95
359.81	2119.24
360.02	1851.57
360.23	1805.90
360.44	2013.36
360.66	2317.28
360.87	1794.43
361.08	1817.78
361.29	2194.19
361.50	2184.36
361.72	1832.32
361.93	1918.95
362.14	2148.32
362.35	1888.02
362.56	2025.85
362.77	1722.96
362.99	2257.68
363.20	2151.80
363.41	1914.65
363.62	1723.37
363.83	2249.49
364.05	2336.73
364.26	1807.74
364.47	1797.30
364.68	2350.45
364.89	2020.53
365.10	1726.64
365.32	1857.92
365.53	1997.38
365.74	2028.51
365.95	1848.91
366.16	1722.96
366.37	2114.12
366.59	2090.98
366.80	1845.83
367.01	1740.16
367.22	2500.16
367.43	2648.02
367.64	1925.91
367.86	1859.35
368.07	2206.69
368.28	2363.56
368.49	1752.04
368.70	1890.28
368.91	2085.86
369.12	2131.12
369.34	1746.10
369.55	1746.30
369.76	2130.30
369.97	2075.21
370.18	1750.81
370.39	1810.20
370.60	1935.13
370.82	1974.86
371.03	1854.03
371.24	1795.45
371.45	2275.91
371.66	2243.34
371.87	1840.71
372.08	1864.06
372.30	2001.68
372.51	2334.07
372.72	2000.05
372.93	1828.22
373.14	2449.17
373.35	2052.88
373.56	1798.53
373.78	1843.38
373.99	2287.38
374.20	2647.82
374.41	1807.95
374.62	1830.27
374.83	2414.76
375.04	2075.62
375.25	1861.19
375.47	1859.97
375.68	2056.78
375.89	2276.52
376.10	1868.77
376.31	1924.89
376.52	2214.47
376.73	2205.66
376.94	1884.95
377.15	1825.15
377.37	2149.55
377.58	2075.21
377.79	1764.73
378.00	1802.01
378.21	2186.00
378.42	2250.92
378.63	1907.27
378.84	1921.40
379.05	2325.67
379.27	2181.70
379.48	1957.04
379.69	1835.80
379.90	2346.97
380.11	1820.23
380.32	1843.58
380.53	1980.80
380.74	2390.59
380.95	2136.44
381.16	1919.15
381.37	1885.36
381.59	2361.72
381.80	2288.40
382.01	1817.37
382.22	1754.49
382.43	2221.84
382.64	2116.99
382.85	1764.53
383.06	1904.20
383.27	2225.94
383.48	2069.06
383.69	1870.00
383.91	1785.83
384.12	2260.34
384.33	2265.05
384.54	1922.22
384.75	1816.14
384.96	2719.91
385.17	2324.44
385.38	1873.69
385.59	1845.22
385.80	2271.61
386.01	2388.55
386.22	1957.45
386.43	1848.91
386.64	2556.89
386.86	2105.52
387.07	1942.29
387.28	1763.10
387.49	2045.92
387.70	2381.79
387.91	1972.60
388.12	1852.39
388.33	2243.75
388.54	2059.44
388.75	1798.94
388.96	1914.03
389.17	2041.42
389.38	2085.86
389.59	1918.33
389.80	1952.33
390.01	2126.61
390.22	2079.10
390.43	1968.92
390.64	1746.10
390.86	2220.41
391.07	2324.85
391.28	1839.69
391.49	1899.70
391.70	1927.34
391.91	2026.67
392.12	1892.94
392.33	1951.51
392.54	2172.49
392.75	2148.11
392.96	1970.56
393.17	1825.35
393.38	2560.17
393.59	2316.25
393.80	1785.83
394.01	1876.55
394.22	2102.65
394.43	2447.53
394.64	1787.26
394.85	1956.42
395.06	2139.31
395.27	2153.64
395.48	1853.21
395.69	1753.68
395.90	2137.87
396.11	2148.11
396.32	1840.10
396.53	1947.82
396.74	2084.01
396.95	2332.23
397.16	1819.21
397.37	1734.02
397.58	2280.00
397.79	2149.34
398.00	1880.65
398.21	1874.92
398.42	2190.92
398.63	2533.75
398.84	1846.24
399.05	1830.06
399.26	2365.40
399.47	2208.94
399.68	1736.88
399.89	1809.18
400.10	1957.24
400.31	2064.15
400.52	1904.82
400.73	1847.27
400.94	1887.00
401.15	2215.08
401.36	1886.18
401.57	1884.54
401.78	2351.48
401.99	2321.99
402.20	1799.35
402.41	2012.74
402.62	2395.10
402.83	2104.70
403.04	1817.98
403.25	2052.88
403.46	2193.17
403.67	2380.15
403.88	1855.25
404.09	1812.25
404.30	2037.73
404.51	1998.00
404.72	1778.87
404.93	1994.52
405.14	2005.78
405.35	2123.33
405.56	1884.54
405.77	1805.90
405.98	2187.03
406.19	2121.29
406.40	1782.96
406.61	1862.42
406.82	2059.03
407.03	2587.61
407.24	1812.66
407.45	1894.37
407.66	2203.20
407.87	2320.55
408.08	1941.68
408.29	1956.83
408.49	2227.17
408.70	2152.62
408.91	1836.62
409.12	1992.67
409.33	1998.20
409.54	2365.61
409.75	1811.22
409.96	1857.10
410.17	2293.93
410.38	2140.95
410.59	1819.01
410.80	1968.71
411.01	2134.80
411.22	2113.50
411.43	1949.05
411.64	1829.86
411.85	1987.14
412.06	1954.99
412.27	1638.99
412.47	1792.79
412.68	2111.66
412.89	2230.03
413.10	1882.90
413.31	1771.90
413.52	2458.59
413.73	2519.82
413.94	1802.01
414.15	1988.99
414.36	2017.86
414.57	1978.34
414.78	1772.72
414.99	1773.75
415.19	2200.13
415.40	2116.78
415.61	1932.26
415.82	1907.68
416.03	2237.41
416.24	2196.65
416.45	1851.57
416.66	1781.12
416.87	1906.45
417.08	2247.24
417.29	1770.26
417.50	1916.69
417.70	2213.65
417.91	2203.20
418.12	1908.71
418.33	1832.73
418.54	2178.42
418.75	2308.88
418.96	1980.80
419.17	1899.08
419.38	2332.23
419.59	2198.70
419.79	1942.29
420.00	1870.00
420.21	2656.01
420.42	2175.56
420.63	1806.51
420.84	1918.95
421.05	2142.38
421.26	2151.39
421.47	1776.20
421.67	2243.14
421.88	2016.43
422.09	1992.67
422.30	2113.91
422.51	1886.38
422.72	2488.49
422.93	2279.18
423.14	1929.80
423.35	1748.97
423.55	1897.44
423.76	2012.95
423.97	1867.13
424.18	1738.11
424.39	2079.51
424.60	2293.32
424.81	1856.48
425.02	1950.28
425.22	2081.15
425.43	2083.81
425.64	2039.57
425.85	1904.00
426.06	2502.21
426.27	2317.48
426.48	1977.52
426.68	1943.32
426.89	2271.61
427.10	2429.91
427.31	1893.14
427.52	1830.47
427.73	2244.37
427.94	2228.19
428.14	2058.41
428.35	1939.84
428.56	2434.22
428.77	2303.35
428.98	1919.56
429.19	1891.71
429.40	2064.76
429.60	2094.66
429.81	2006.60
430.02	1916.69
430.23	2135.62
430.44	2276.32
430.65	1841.53
430.85	1859.35
431.06	2230.44
431.27	1913.62
431.48	1874.71
431.69	1914.85
431.90	2134.60
432.10	2159.17
432.31	1962.77
432.52	1839.90
432.73	2599.49
432.94	2420.08
433.15	2024.62
433.35	1836.41
433.56	2346.36
433.77	2199.31
433.98	2124.15
434.19	2040.19
434.40	2347.79
434.60	2359.46
434.81	2155.08
435.02	2053.91
435.23	2235.56
435.44	2092.41
435.64	1798.32
435.85	1817.57
436.06	2113.91
436.27	2034.25
436.48	1821.26
436.68	1868.36
436.89	2477.43
437.10	2359.06
437.31	1969.74
437.52	2094.87
437.73	2265.26
437.93	2220.82
438.14	1999.43
438.35	1772.93
438.56	2091.18
438.77	2103.26
438.97	2046.13
439.18	1862.42
439.39	2341.44
439.60	1959.29
439.80	1874.10
440.01	1896.21
440.22	2074.18
440.43	2268.74
440.64	1845.63
440.84	1902.77
441.05	1956.83
441.26	2624.88
441.47	1973.01
441.68	1923.25
441.88	2222.46
442.09	2271.40
442.30	2244.57
442.51	2270.58
442.71	2324.65
442.92	2354.14
443.13	2010.90
443.34	1916.90
443.55	2043.05
443.75	2287.17
443.96	1871.43
444.17	1822.90
444.38	2295.16
444.58	1987.76
444.79	1994.52
445.00	1943.93
445.21	2132.55
445.41	2090.36
445.62	1718.25
445.83	1992.47
446.04	2152.82
446.24	1913.62
446.45	1721.93
446.66	1886.59
446.87	2214.06
447.07	2051.04
447.28	2121.49
447.49	1891.09
447.70	2282.05
447.90	2310.72
448.11	1936.76
448.32	2013.77
448.53	2413.33
448.73	2384.45
448.94	1873.48
449.15	2051.45
449.36	2150.57
449.56	2222.05
449.77	1876.96
449.98	1783.17
450.19	2068.65
450.39	2063.12
450.60	1958.68
450.81	1968.10
451.02	2122.51
451.22	2407.39
451.43	1803.65
451.64	1869.39
451.84	2048.79
452.05	2334.27
452.26	1896.62
452.47	1929.60
452.67	2085.24
452.88	2413.12
453.09	1793.61
453.30	1830.27
453.50	2284.51
453.71	2483.98
453.92	2017.66
454.12	2190.30
454.33	2209.96
454.54	2243.55
454.75	1973.22
454.95	1918.13
455.16	2199.52
455.37	2302.53
455.57	2009.67
455.78	1905.43
455.99	2143.81
456.19	2129.07
456.40	1841.53
456.61	1930.01
456.82	2134.19
457.02	2321.99
457.23	2095.69
457.44	2246.01
457.64	2249.69
457.85	2363.36
458.06	2058.82
458.26	2121.08
458.47	2198.70
458.68	2328.75
458.89	1883.93
459.09	2055.55
459.30	2532.52
459.51	2140.13
459.71	1785.42
459.92	1862.63
460.13	2296.18
460.33	2533.75
460.54	1972.60
460.75	1969.74
460.95	1990.01
461.16	2224.50
461.37	1943.32
461.57	1916.90
461.78	2138.28
461.99	1930.82
462.19	2152.01
462.40	1841.33
462.61	2527.40
462.81	2322.40
463.02	1852.59
463.23	1858.53
463.43	2257.07
463.64	2054.93
463.85	3153.26
464.05	1875.94
464.26	2682.02
464.47	2359.67
464.67	2073.16
464.88	2067.22
465.09	2110.64
465.29	2309.29
465.50	2161.63
465.71	2086.68
465.91	2171.87
466.12	2170.03
466.33	2008.65
466.53	1879.83
466.74	2401.04
466.94	2119.65
467.15	1961.95
467.36	2091.59
467.56	2000.25
467.77	2185.18
467.98	1954.99
468.18	1921.20
468.39	2020.73
468.60	2447.32
468.80	1922.02
469.01	1828.22
469.21	2239.66
469.42	2372.37
469.63	1911.78
469.83	1845.02
470.04	2227.78
470.25	2385.88
470.45	2044.90
470.66	1892.32
470.86	2195.63
471.07	2070.91
471.28	2016.43
471.48	1979.57
471.69	2168.80
471.90	2916.92
472.10	2131.32
472.31	2120.26
472.51	2278.57
472.72	2287.38
472.93	2026.67
473.13	2130.91
473.34	2328.34
473.54	2236.38
473.75	2032.81
473.96	2155.69
474.16	2145.86
474.37	2223.48
474.57	2012.54
474.78	1870.61
474.99	2222.66
475.19	2160.20
475.40	1938.40
475.60	1961.54
475.81	2618.12
476.02	2341.85
476.22	2241.09
476.43	2318.10
476.63	2262.39
476.84	2436.06
477.05	1862.42
477.25	1906.04
477.46	2700.04
477.66	2211.81
477.87	1897.24
478.08	1928.37
478.28	2334.07
478.49	2122.72
478.69	1911.37
478.90	1913.21
479.10	2222.46
479.31	2437.70
479.52	1995.75
479.72	2053.50
479.93	2280.62
480.13	2111.87
480.34	1961.13
480.54	2044.49
480.75	2057.18
480.96	2366.84
481.16	1891.50
481.37	2017.25
481.57	2315.02
481.78	2198.08
481.98	2150.78
482.19	2028.31
482.40	2456.54
482.60	2246.42
482.81	2054.11
483.01	1810.81
483.22	2343.49
483.42	2282.87
483.63	2008.24
483.83	1950.69
484.04	2080.94
484.24	2326.08
484.45	2095.07
484.66	1901.74
484.86	2283.08
485.07	2043.87
485.27	2013.36
485.48	1899.70
485.68	2405.13
485.89	2023.60
486.09	2052.88
486.30	1901.13
486.50	2169.62
486.71	2127.84
486.91	2029.95
487.12	2243.14
487.33	2885.79
487.53	2966.28
487.74	2634.30
487.94	2517.16
488.15	2516.54
488.35	2429.91
488.56	2078.89
488.76	2017.25
488.97	2184.98
489.17	2333.25
489.38	2065.38
489.58	1981.20
489.79	2295.16
489.99	2220.61
490.20	1931.23
490.40	2068.45
490.61	2239.66
490.81	2047.15
491.02	1986.32
491.22	1983.46
491.43	2277.34
491.63	2135.62
491.84	2093.02
492.04	1859.76
492.25	2230.03
492.45	2088.31
492.66	1907.48
492.86	1827.20
493.07	2095.07
493.27	2537.23
493.48	1795.86
493.68	1885.56
493.89	2127.02
494.09	2281.03
494.30	1957.04
494.50	2154.05
494.71	2224.50
494.91	1887.82
495.12	1940.45
495.32	2026.67
495.53	2159.17
495.73	1987.14
495.94	2179.86
496.14	2008.44
496.35	2722.16
496.55	2268.74
496.76	1995.75
496.96	2045.72
497.17	2143.61
497.37	2256.86
497.58	1948.03
497.78	1865.29
497.98	2103.26
498.19	2106.54
498.39	1928.57
498.60	1977.52
498.80	1839.08
499.01	2258.70
499.21	1845.42
499.42	1998.00
499.62	2090.57
499.83	2516.54
500.03	1842.35
500.24	2029.13
500.44	2377.90
500.64	2344.51
500.85	1956.63
501.05	2031.38
501.26	1881.88
501.46	2342.67
501.67	1887.20
501.87	1872.46
502.08	1992.47
502.28	2062.10
502.48	2022.16
502.69	2045.31
502.89	1894.99
503.10	2011.11
503.30	2030.97
503.51	1982.64
503.71	1895.60
503.92	2246.83
504.12	2017.66
504.32	1866.31
504.53	2233.11
504.73	2240.27
504.94	2071.32
505.14	2159.99
505.35	2245.39
505.55	2222.46
505.75	1967.28
505.96	2122.72
506.16	2503.44
506.37	2036.50
506.57	1892.73
506.78	2028.10
506.98	2321.78
507.18	1919.15
507.39	1844.81
507.59	1917.51
507.80	2054.93
508.00	2153.03
508.20	2132.96
508.41	1943.93
508.61	2380.35
508.82	2291.47
509.02	2073.36
509.22	1888.64
509.43	1973.22
509.63	2039.98
509.84	1979.57
510.04	1818.19
510.24	2401.24
510.45	2250.51
510.65	1873.69
510.86	2009.88
511.06	1972.60
511.26	2271.20
511.47	2106.75
511.67	1896.21
511.88	2202.59
512.08	2333.87
512.28	1853.21
512.49	2002.91
512.69	2160.61
512.90	2157.54
513.10	1927.96
513.30	2000.05
513.51	2232.49
513.71	2408.41
513.91	2019.30
514.12	2047.76
514.32	2312.16
514.53	2048.58
514.73	2021.55
514.93	1974.65
515.14	2120.47
515.34	2355.78
515.54	1896.62
515.75	2035.27
515.95	2225.12
516.15	2374.62
516.36	1974.86
516.56	2010.08
516.77	1781.53
516.97	2209.76
517.17	1975.88
517.38	2057.39
517.58	2376.67
517.78	2039.98
517.99	2035.89
518.19	1952.74
518.39	2290.65
518.60	2018.27
518.80	1840.10
519.00	2008.44
519.21	2086.68
519.41	2432.99
519.61	1866.52
519.82	2058.00
520.02	2172.08
520.22	2109.61
520.43	1900.72
520.63	1983.25
520.83	2029.13
521.04	1859.56
521.24	2014.38
521.44	1970.56
521.65	2014.79
521.85	2210.37
522.05	1900.31
522.26	1908.91
522.46	2469.44
522.66	2261.37
522.87	1991.04
523.07	2128.04
523.27	2067.01
523.48	2376.67
523.68	1968.30
523.88	2032.40
524.09	2350.86
524.29	2164.91
524.49	1813.89
524.70	2036.50
524.90	2400.42
525.10	2201.36
525.31	1844.20
525.51	1863.86
525.71	2262.19
525.91	2212.01
526.12	1937.38
526.32	1847.47
526.52	2061.49
526.73	2014.59
526.93	2017.66
527.13	1828.22
527.34	2096.92
527.54	2136.65
527.74	1975.27
527.94	1856.28
528.15	1947.00
528.35	2141.56
528.55	2056.78
528.76	2027.49
528.96	1842.35
529.16	2306.01
529.36	2064.97
529.57	1881.88
529.77	2336.53
529.97	1948.44
530.18	2036.70
530.38	1949.87
530.58	2214.88
530.78	2151.80
530.99	1931.23
531.19	2013.15
531.39	2018.68
531.60	2131.94
531.80	2013.56
532.00	2128.66
532.20	2166.96
532.41	1995.95
532.61	1911.98
532.81	1882.08
533.01	2052.68
533.22	2195.22
533.42	2101.42
533.62	1817.16
533.82	2362.33
534.03	2080.53
534.23	2065.38
534.43	1887.20
534.63	2045.31
534.84	2171.87
535.04	2078.69
535.24	2005.37
535.44	2580.44
535.65	2067.42
535.85	1932.46
536.05	1888.02
536.25	2129.27
536.46	1958.88
536.66	2113.30
536.86	1999.02
537.06	2242.32
537.27	2345.74
537.47	1986.53
537.67	1938.20
537.87	2391.00
538.08	2112.27
538.28	1851.16
538.48	1825.97
538.68	2083.40
538.88	2244.16
539.09	1802.21
539.29	1953.35
539.49	2300.89
539.69	2166.75
539.90	2049.81
540.10	1895.19
540.30	2371.96
540.50	2035.48
540.70	1833.75
540.91	1910.14
541.11	2279.18
541.31	2391.62
541.51	2011.92
541.72	2048.38
541.92	2167.37
542.12	2022.16
542.32	1977.11
542.52	1907.68
542.73	1984.28
542.93	2213.65
543.13	1936.76
543.33	2071.52
543.53	2265.67
543.74	2241.91
543.94	1923.25
544.14	2041.62
544.34	2296.18
544.54	2129.48
544.75	2034.66
544.95	2153.44
545.15	2252.36
545.35	2392.64
545.55	2085.45
545.75	1959.29
545.96	2500.98
546.16	2005.37
546.36	1960.11
546.56	1999.43
546.76	2341.65
546.97	2419.47
547.17	1990.01
547.37	2090.16
547.57	2055.75
547.77	2263.21
547.97	2057.59
548.18	2026.06
548.38	2108.59
548.58	2335.30
548.78	1920.59
548.98	1971.99
549.18	2249.08
549.39	2373.60
549.59	2019.71
549.79	1982.64
549.99	2391.82
550.19	2273.65
550.39	2143.20
550.60	2013.36
550.80	2187.03
551.00	2238.84
551.20	1980.39
551.40	1958.06
551.60	2220.82
551.80	2186.62
552.01	2051.86
552.21	1993.90
552.41	2190.71
552.61	2463.50
552.81	2062.92
553.01	1920.38
553.21	2228.39
553.42	1987.14
553.62	1952.74
553.82	1875.73
554.02	2419.68
554.22	2289.22
554.42	1884.95
554.62	2118.21
554.83	2413.53
555.03	2372.57
555.23	2003.94
555.43	2205.46
555.63	2153.03
555.83	2120.06
556.03	2064.15
556.23	1858.53
556.44	2162.25
556.64	2327.31
556.84	1716.40
557.04	1964.21
557.24	2140.74
557.44	2133.57
557.64	2032.61
557.84	1892.94
558.04	2087.29
558.25	2240.07
558.45	1874.30
558.65	2009.06
558.85	2146.27
559.05	1839.69
559.25	1985.10
559.45	2004.55
559.65	2497.09
559.85	2957.88
560.05	1976.09
560.26	2053.29
560.46	2076.23
560.66	2012.13
560.86	1948.23
561.06	1901.33
561.26	2378.10
561.46	2214.67
561.66	1966.25
561.86	2110.84
562.06	2002.09
562.26	2134.60
562.47	1992.26
562.67	1883.72
562.87	2240.07
563.07	1902.77
563.27	2010.49
563.47	2012.33
563.67	2067.83
563.87	2242.12
564.07	1899.08
564.27	1950.49
564.47	2135.42
564.67	2159.99
564.87	1940.45
565.08	2002.91
565.28	2009.06
565.48	2201.98
565.68	2042.03
565.88	2120.47
566.08	2512.45
566.28	2124.15
566.48	1859.56
566.68	2014.18
566.88	2114.32
567.08	2285.53
567.28	2028.72
567.48	2007.62
567.68	2194.19
567.88	1925.71
568.08	1972.19
568.28	2130.50
568.48	2124.15
568.68	2333.46
568.89	2049.81
569.09	1878.81
569.29	2280.00
569.49	2253.18
569.69	1889.46
569.89	1926.52
570.09	1832.11
570.29	2011.72
570.49	1868.77
570.69	1961.54
570.89	2297.00
571.09	2510.40
571.29	1879.01
571.49	2133.37
571.69	2195.83
571.89	2217.13
572.09	1973.22
572.29	2012.33
572.49	2258.50
572.69	2256.04
572.89	2028.92
573.09	1699.40
573.29	2105.72
573.49	2168.80
573.69	1963.18
573.89	2042.23
574.09	2035.68
574.29	2320.76
574.49	1997.59
574.69	1910.35
574.89	1920.18
575.09	1975.06
575.29	1851.36
575.49	1976.29
575.69	2177.40
575.89	1914.03
576.09	1990.83
576.29	2002.71
576.49	1967.89
576.69	2113.50
576.89	1958.47
577.09	1987.14
577.29	1873.07
577.49	2442.00
577.69	1926.32
577.89	2104.08
578.09	2118.83
578.29	1867.54
578.49	1997.18
578.69	1893.35
578.89	2297.00
579.09	2125.18
579.29	1916.69
579.49	2106.34
579.69	2047.97
579.89	2441.79
580.09	1754.90
580.29	1821.26
580.49	2019.91
580.69	1944.34
580.89	1911.16
581.09	1954.38
581.29	2042.23
581.49	2126.82
581.69	1885.56
581.89	1924.48
582.09	1954.99
582.28	1974.65
582.48	2056.37
582.68	2103.88
582.88	2360.90
583.08	2091.39
583.28	1974.24
583.48	2009.06
583.68	1982.43
583.88	2106.54
584.08	2008.24
584.28	2024.21
584.48	2481.32
584.68	2211.81
584.88	1970.97
585.08	2162.25
585.28	2285.53
585.48	2354.55
585.68	2060.05
585.87	2116.99
586.07	2188.25
586.27	2110.43
586.47	2037.32
586.67	1970.15
586.87	2128.04
587.07	2030.97
587.27	1886.18
587.47	2037.93
587.67	2412.10
587.87	2617.92
588.07	2041.82
588.27	1920.18
588.46	2258.91
588.66	2283.89
588.86	1946.39
589.06	2034.25
589.26	2245.39
589.46	2252.36
589.66	1902.15
589.86	1861.19
590.06	2081.76
590.26	2182.32
590.46	1942.70
590.66	2028.92
590.85	1970.15
591.05	2125.38
591.25	1874.71
591.45	1962.77
591.65	2201.98
591.85	2110.02
592.05	1907.89
592.25	2013.15
592.45	2274.06
592.64	2060.05
592.84	1995.34
593.04	1914.44
593.24	2568.15
593.44	2033.84
593.64	2013.15
593.84	2045.10
594.04	2034.45
594.24	2420.90
594.43	1969.33
594.63	1999.23
594.83	2307.86
595.03	2280.82
595.23	1909.32
595.43	1864.27
595.63	2022.16
595.83	2296.18
596.02	1756.13
596.22	1961.75
596.42	2185.39
596.62	2098.96
596.82	1977.72
597.02	2013.77
597.22	2359.87
597.41	2167.57
597.61	1942.09
597.81	2089.75
598.01	2248.26
598.21	2030.56
598.41	1855.25
598.61	1889.87
598.80	2135.62
599.00	2156.31
599.20	2121.29
599.40	1989.40
599.60	2055.96
599.80	2277.75
599.99	2115.35
600.19	1937.58
600.39	2117.60
600.59	2198.49
600.79	2042.23
600.99	1994.72
601.19	2421.31
601.38	2461.86
601.58	2060.05
601.78	1749.37
601.98	2204.02
602.18	2180.27
602.37	2202.39
602.57	1973.42
602.77	2214.67
602.97	2144.84
603.17	2155.28
603.37	2085.45
603.56	2281.03
603.76	2238.63
603.96	2000.05
604.16	2022.78
604.36	2351.27
604.56	2275.09
604.75	1919.77
604.95	2008.24
605.15	2345.74
605.35	2286.56
605.55	1953.76
605.74	1917.51
605.94	2322.19
606.14	2113.91
606.34	1987.96
606.54	2050.02
606.73	2008.03
606.93	2220.20
607.13	1926.73
607.33	2076.23
607.53	2405.13
607.72	2321.17
607.92	2067.63
608.12	2136.85
608.32	2124.97
608.51	2251.95
608.71	1879.83
608.91	2053.50
609.11	2237.00
609.31	2068.65
609.50	1971.58
609.70	2180.27
609.90	2276.73
610.10	2305.40
610.29	1918.95
610.49	1864.47
610.69	2239.86
610.89	2128.25
611.09	1964.00
611.28	2162.86
611.48	2277.34
611.68	2099.17
611.88	1961.13
612.07	1888.23
612.27	2250.92
612.47	2007.21
612.67	2012.33
612.86	2093.64
613.06	2118.01
613.26	1865.70
613.46	1931.23
613.65	2048.79
613.85	2627.54
614.05	2254.61
614.25	2056.57
614.44	1970.15
614.64	2145.25
614.84	2035.07
615.04	1925.50
615.23	1954.79
615.43	2220.20
615.63	2230.24
615.83	1901.54
616.02	1809.38
616.22	2200.13
616.42	1889.46
616.62	1879.42
616.81	1968.10
617.01	2128.66
617.21	2096.51
617.41	1848.29
617.60	2003.94
617.80	2226.55
618.00	2231.47
618.19	2097.53
618.39	1998.00
618.59	2226.14
618.79	2108.38
618.98	1840.51
619.18	1975.27
619.38	2546.44
619.57	2119.44
619.77	1981.20
619.97	1979.77
620.17	2010.08
620.36	1920.99
620.56	2124.36
620.76	1862.83
620.95	1919.97
621.15	2017.25
621.35	1882.70
621.54	1995.75
621.74	2149.96
621.94	2005.37
622.14	1858.94
622.33	1828.22
622.53	2100.81
622.73	2049.40
622.92	1837.03
623.12	1975.88
623.32	2457.56
623.51	2274.06
623.71	1866.31
623.91	2145.86
624.10	1978.34
624.30	2147.30
624.50	1846.24
624.69	1805.08
624.89	2822.92
625.09	2069.88
625.29	1767.19
625.48	1859.56
625.68	2158.15
625.88	2341.65
626.07	2047.15
626.27	1905.23
626.47	2035.48
626.66	1879.83
626.86	1976.09
627.06	1976.70
627.25	2116.58
627.45	2427.87
627.64	1964.41
627.84	2159.79
628.04	1997.18
628.23	2506.30
628.43	1880.85
628.63	1877.58
628.82	2012.54
629.02	2432.17
629.22	2045.72
629.41	2119.65
629.61	2153.23
629.81	2440.97
630.00	1943.32
630.20	1872.05
630.40	2115.35
630.59	2189.48
630.79	1947.21
630.98	1901.13
631.18	2099.17
631.38	2135.62
631.57	2082.78
631.77	1852.59
631.97	2162.86
632.16	2165.32
632.36	1977.93
632.56	2048.17
632.75	2165.52
632.95	2303.76
633.14	1870.82
633.34	2139.31
633.54	1833.14
633.73	2069.88
633.93	1933.69
634.12	1806.31
634.32	2599.90
634.52	2120.47
634.71	1822.49
634.91	2006.19
635.11	1948.03
635.30	1999.84
635.50	1980.80
635.69	1892.32
635.89	2429.10
636.09	2269.97
636.28	1881.67
636.48	1889.05
636.67	2215.29
636.87	2231.88
637.07	2046.13
637.26	1928.57
637.46	2135.42
637.65	2270.99
637.85	2008.65
638.04	1881.88
638.24	2022.37
638.44	2178.22
638.63	2003.73
638.83	1939.63
639.02	2200.95
639.22	2220.82
639.42	1970.15
639.61	1939.84
639.81	2143.61
640.00	2097.32
640.20	2105.93
640.39	2023.39
640.59	2462.89
640.79	2282.26
640.98	2004.76
641.18	1906.66
641.37	2059.23
641.57	2000.05
641.76	1995.75
641.96	1746.71
642.15	2153.23
642.35	2007.42
642.55	1984.28
642.74	1837.44
642.94	2223.07
643.13	2362.54
643.33	1924.68
643.52	1886.79
643.72	2076.64
643.91	2103.26
644.11	1873.69
644.31	1897.03
644.50	2018.89
644.70	2336.53
644.89	2013.97
645.09	2056.16
645.28	2145.04
645.48	2214.47
645.67	1907.89
645.87	1798.32
646.06	2057.80
646.26	2164.70
646.45	1767.19
646.65	1745.28
646.84	2466.37
647.04	2044.28
647.24	1821.05
647.43	1942.09
647.63	2154.05
647.82	2399.20
648.02	1856.69
648.21	1968.71
648.41	2355.78
648.60	2061.49
648.80	2077.87
648.99	1977.31
649.19	1996.36
649.38	1857.10
649.58	1942.09
649.77	2028.72
649.97	2322.40
650.16	2203.61
650.36	1731.56
650.55	2114.73
650.75	2174.33
650.94	2375.64
651.14	1977.72
651.33	2017.04
651.53	2414.56
651.72	1990.22
651.92	1951.92
652.11	1771.29
652.31	2226.76
652.50	2180.06
652.70	1973.22
652.89	1875.94
653.09	2367.86
653.28	2056.37
653.48	1756.54
653.67	1770.06
653.87	2642.90
654.06	2151.60
654.25	2197.68
654.45	1896.21
654.64	2058.00
654.84	2073.16
655.03	1755.93
655.23	2108.59
655.42	2274.06
655.62	2464.32
655.81	2119.44
656.01	1954.17
656.20	2341.03
656.40	2435.03
656.59	2055.14
656.79	2169.82
656.98	2190.71
657.17	2292.09
657.37	1962.16
657.56	1957.45
657.76	2215.29
657.95	2281.44
658.15	1631.62
658.34	1997.79
658.54	2116.99
658.73	1924.89
658.92	1941.68
659.12	1983.46
659.31	2212.83
659.51	1926.93
659.70	1994.52
659.90	1887.20
660.09	2255.63
660.29	2072.54
660.48	1875.32
660.67	2100.81
660.87	2023.19
661.06	2175.76
661.26	2029.13
661.45	2081.97
661.65	2197.88
661.84	2041.01
662.03	1876.35
662.23	1918.95
662.42	2478.66
662.62	1937.58
662.81	1823.92
663.00	1917.10
663.20	2138.49
663.39	2204.64
663.59	2074.59
663.78	1945.16
663.97	2083.19
664.17	2304.37
664.36	1870.61
664.56	1931.64
664.75	2277.34
664.94	2238.84
665.14	2027.08
665.33	1982.84
665.53	2127.02
665.72	2090.98
665.91	2056.78
666.11	1973.42
666.30	2132.75
666.50	2042.44
666.69	1995.54
666.88	1913.62
667.08	2147.09
667.27	2076.44
667.47	1948.23
667.66	1923.45
667.85	2267.72
668.05	2123.95
668.24	1891.50
668.43	2158.15
668.63	2037.73
668.82	2275.09
669.02	2061.08
669.21	1925.09
669.40	1924.68
669.60	2422.95
669.79	1809.38
669.98	2601.94
670.18	1940.66
670.37	1905.23
670.56	1975.27
670.76	2011.51
670.95	2085.45
671.15	2241.71
671.34	1962.36
671.53	1967.07
671.73	2013.15
671.92	1967.89
672.11	1857.30
672.31	1923.25
672.50	2170.03
672.69	1908.30
672.89	1730.53
673.08	1940.66
673.27	2231.26
673.47	2161.84
673.66	1980.39
673.85	1843.79
674.05	2097.94
674.24	2082.58
674.43	1793.00
674.63	2028.72
674.82	2493.20
675.01	1749.58
675.21	2043.87
675.40	1922.63
675.59	2006.60
675.79	2347.18
675.98	1931.03
676.17	2085.24
676.37	2142.18
676.56	2031.79
676.75	1942.70
676.95	1993.70
677.14	2060.05
677.33	2303.56
677.52	1825.76
677.72	1909.73
677.91	2173.51
678.10	1854.44
678.30	1877.99
678.49	1870.41
678.68	2461.25
678.88	1823.31
679.07	2127.43
679.26	1934.51
679.45	2421.31
679.65	2352.50
679.84	1765.35
680.03	1805.49
680.23	2065.58
680.42	2561.60
680.61	1866.93
680.81	1901.13
681.00	2083.60
681.19	2196.86
681.38	2065.38
681.58	2015.41
681.77	2047.56
681.96	2225.94
682.15	1848.29
682.35	2011.11
682.54	2201.36
682.73	1924.48
682.93	1865.29
683.12	1871.02
683.31	2232.49
683.50	2574.71
683.70	1873.28
683.89	2023.19
684.08	1969.74
684.27	2287.99
684.47	1835.18
684.66	1902.56
684.85	2474.77
685.04	2309.29
685.24	1876.76
685.43	1923.25
685.62	1842.76
685.81	2139.31
686.01	2040.19
686.20	1837.85
686.39	1871.84
686.58	2426.43
686.78	1982.02
686.97	1927.96
687.16	2263.62
687.35	2155.90
687.55	1913.01
687.74	1974.04
687.93	1890.48
688.12	2037.52
688.32	1962.77
688.51	1770.06
688.70	2160.20
688.89	1918.13
689.08	1786.44
689.28	1895.60
689.47	2122.72
689.66	2118.42
689.85	2036.09
690.05	1843.17
690.24	1970.35
690.43	2148.73
690.62	1976.70
690.81	1857.92
691.01	2118.62
691.20	2050.63
691.39	1848.29
691.58	1999.43
691.77	2401.45
691.97	2134.80
692.16	1993.08
692.35	1934.92
692.54	2020.12
692.73	2149.34
692.93	1953.56
693.12	1968.10
693.31	2161.22
693.50	2123.13
693.69	2026.87
693.89	1899.29
694.08	2308.88
694.27	2325.26
694.46	1898.06
694.65	1932.05
694.85	2178.22
695.04	2180.06
695.23	1890.89
695.42	2088.72
695.61	2195.22
695.80	2306.22
696.00	2241.50
696.19	2254.61
696.38	2089.54
696.57	2280.41
696.76	2123.33
696.95	1996.56
697.15	2388.34
697.34	2379.13
697.53	1946.39
697.72	2048.79
697.91	2058.00
698.10	2340.62
698.30	1932.05
698.49	1928.78
698.68	2185.18
698.87	2056.37
699.06	1872.46
699.25	1967.07
699.45	2290.65
699.64	2131.94
699.83	2099.17
700.02	1913.01
700.21	2192.96
700.40	2050.22
700.59	1909.53
700.79	1971.37
700.98	2208.73
701.17	1989.19
701.36	1855.25
701.55	1883.72
701.74	2249.08
701.93	1883.11
702.12	1891.30
702.32	1840.30
702.51	2234.13
702.70	2182.11
702.89	1950.69
703.08	1928.57
703.27	2293.11
703.46	2159.17
703.65	1846.65
703.85	1849.32
704.04	1984.28
704.23	2276.32
704.42	1849.93
704.61	1904.20
704.80	2374.01
704.99	1998.00
705.18	2005.37
705.37	1927.55
705.57	2172.89
705.76	2319.53
705.95	1963.59
706.14	2277.34
706.33	2483.16
706.52	2697.79
706.71	2136.44
706.90	2015.00
707.09	2272.84
707.28	2212.22
707.47	1892.73
707.67	2055.96
707.86	1968.71
708.05	2292.50
708.24	1938.61
708.43	1982.43
708.62	2038.55
708.81	1967.69
709.00	1881.88
709.19	1891.50
709.38	2258.30
709.57	1935.13
709.76	1952.33
709.96	1883.93
710.15	2312.16
710.34	2061.49
710.53	2053.50
710.72	1928.37
710.91	2302.12
711.10	2221.84
711.29	2013.77
711.48	1897.44
711.67	1911.98
711.86	2144.22
712.05	1805.28
712.24	1836.21
712.43	2203.00
712.62	2337.96
712.81	1961.95
713.00	2123.33
713.19	1922.43
713.39	2174.12
713.58	1842.35
713.77	1996.56
713.96	2185.18
714.15	2027.28
714.34	1908.09
714.53	1769.85
714.72	2429.10
714.91	1904.20
715.10	1994.72
715.29	1826.17
715.48	2599.28
715.67	2200.13
715.86	1945.98
716.05	1902.77
716.24	2056.16
716.43	2010.90
716.62	1835.80
716.81	1804.87
717.00	2055.55
717.19	2371.75
717.38	1917.51
717.57	1906.66
717.76	1875.53
717.95	2252.97
718.14	1935.54
718.33	1975.88
718.52	1847.27
718.71	1876.76
718.90	1870.41
719.09	1896.42
719.28	2079.10
719.47	2235.56
719.66	1994.72
719.85	2024.62
720.04	2012.95
720.23	2076.44
720.42	1860.58
720.61	1986.73
720.80	1866.72
720.99	2130.50
721.18	1908.09
721.37	1852.39
721.56	2015.00
721.75	2236.59
721.94	1843.79
722.13	1909.32
722.32	2039.98
722.51	2234.95
722.70	1991.85
722.89	2020.73
723.08	2086.27
723.27	2232.08
723.46	2025.44
723.65	1979.57
723.84	2014.79
724.03	2343.90
724.22	1830.88
724.41	1950.69
724.60	2076.44
724.79	2225.53
724.98	1960.93
725.16	1932.46
725.35	2216.52
725.54	1944.34
725.73	1932.87
725.92	1982.02
726.11	2054.93
726.30	2198.70
726.49	1855.66
726.68	1901.74
726.87	2138.90
727.06	2296.59
727.25	1902.36
727.44	2025.24
727.63	2086.06
727.82	2025.65
728.01	1963.18
728.20	2019.71
728.38	2339.60
728.57	2023.39
728.76	1918.13
728.95	2052.68
729.14	1883.11
729.33	1886.38
729.52	1670.12
729.71	1840.71
729.90	1920.59
730.09	1979.36
730.28	1881.06
730.47	1877.99
730.66	2283.08
730.84	2101.83
731.03	1952.33
731.22	1963.59
731.41	2100.81
731.60	2172.89
731.79	1769.65
731.98	1825.35
732.17	2185.39
732.36	2191.94
732.55	1884.34
732.73	1791.56
732.92	2295.98
733.11	2149.55
733.30	1841.94
733.49	1777.84
733.68	2189.07
733.87	2123.54
734.06	1778.46
734.25	1834.98
734.43	1955.61
734.62	2126.82
734.81	1882.08
735.00	1846.86
735.19	2002.91
735.38	2157.13
735.57	1787.67
735.76	1987.76
735.94	2135.83
736.13	2465.34
736.32	1970.56
736.51	1935.74
736.70	2419.68
736.89	2397.35
737.08	2077.05
737.27	2214.67
737.45	2494.43
737.64	2348.41
737.83	2347.79
738.02	2326.29
738.21	2472.72
738.40	2585.97
738.59	2093.02
738.77	2162.86
738.96	2068.04
739.15	2184.36
739.34	2099.99
739.53	2050.84
739.72	2319.53
739.90	2302.12
740.09	1897.44
740.28	1972.40
740.47	2235.56
740.66	2185.80
740.85	1833.34
741.03	1916.28
741.22	1901.13
741.41	2045.92
741.60	1763.92
741.79	1976.29
741.98	2289.83
742.16	2398.79
742.35	1933.49
742.54	1964.62
742.73	2401.86
742.92	1985.10
743.10	1787.47
743.29	1877.17
743.48	2472.31
743.67	2002.30
743.86	1775.38
744.05	1848.91
744.23	1894.37
744.42	1929.19
744.61	1951.51
744.80	1779.07
744.99	1992.88
745.17	1788.90
745.36	1775.18
745.55	2003.32
745.74	2082.99
745.93	1978.13
746.11	1821.26
746.30	1785.21
746.49	2276.11
746.68	1937.38
746.86	1888.43
747.05	1860.37
747.24	2159.79
747.43	2159.79
747.62	1781.53
747.80	1865.90
747.99	2285.12
748.18	2187.23
748.37	1933.28
748.56	1991.24
748.74	2226.55
748.93	2125.38
749.12	2120.67
749.31	2458.18
749.49	2734.86
749.68	2941.50
749.87	3072.36
750.06	2886.61
750.24	3019.93
750.43	2974.47
750.62	2758.00
750.81	2916.72
750.99	3089.36
751.18	3090.79
751.37	2644.13
751.56	2711.31
751.74	3121.51
751.93	3194.63
752.12	2255.43
752.31	2193.17
752.49	2333.66
752.68	2605.84
752.87	2120.67
753.06	2074.18
753.24	2181.29
753.43	2375.23
753.62	1914.85
753.81	1903.79
753.99	2362.13
754.18	2187.03
754.37	1852.39
754.55	1927.34
754.74	2389.16
754.93	1823.51
755.12	1887.61
755.30	1815.11
755.49	2252.15
755.68	2068.45
755.86	2018.48
756.05	1784.60
756.24	2345.74
756.43	1891.30
756.61	1842.76
756.80	1967.28
756.99	2308.06
757.17	2076.44
757.36	1853.82
757.55	1889.87
757.74	2154.46
757.92	2101.63
758.11	1813.48
758.30	1746.92
758.48	2025.85
758.67	1889.25
758.86	1913.62
759.04	1826.79
759.23	1978.95
759.42	2074.39
759.60	1856.28
759.79	1910.35
759.98	2044.49
760.16	1951.10
760.35	1882.90
760.54	1817.98
760.73	2109.61
760.91	1845.02
761.10	1873.48
761.29	1971.99
761.47	2074.59
761.66	2446.50
761.85	1932.26
762.03	2095.69
762.22	2352.91
762.41	2692.05
762.59	2867.77
762.78	3059.67
762.97	3765.60
763.15	3710.30
763.34	3382.02
763.52	2889.27
763.71	3044.31
763.90	3100.42
764.08	2663.38
764.27	2691.44
764.46	2910.98
764.64	2537.84
764.83	2401.04
765.02	2293.52
765.20	2436.47
765.39	2426.84
765.58	1989.40
765.76	2000.46
765.95	2196.24
766.13	2129.68
766.32	1943.11
766.51	1908.50
766.69	2883.74
766.88	2160.61
767.07	1796.27
767.25	1689.16
767.44	2268.53
767.62	2270.99
767.81	1845.02
768.00	1899.70
768.18	2072.95
768.37	1973.01
768.56	1732.99
768.74	1855.87
768.93	1856.28
769.11	2178.42
769.30	1974.04
769.49	1870.82
769.67	2048.99
769.86	1985.71
770.04	1893.14
770.23	1836.82
770.42	2324.65
770.60	2087.70
770.79	1839.08
770.97	1864.06
771.16	2292.91
771.35	2218.36
771.53	2063.94
771.72	2156.51
771.90	2434.01
772.09	2654.78
772.27	2445.89
772.46	2159.17
772.65	2526.17
772.83	2368.89
773.02	2244.37
773.20	2010.49
773.39	2314.61
773.58	2334.27
773.76	1924.68
773.95	1925.30
774.13	2219.59
774.32	2065.79
774.50	1891.30
774.69	1984.07
774.87	2067.83
775.06	2479.68
775.25	1903.59
775.43	1926.32
775.62	2160.61
775.80	2212.42
775.99	1961.13
776.17	1906.86
776.36	2095.28
776.54	2292.50
776.73	1883.93
776.92	2000.46
777.10	2265.67
777.29	2157.33
777.47	1883.31
777.66	1923.86
777.84	2120.47
778.03	2080.53
778.21	1885.56
778.40	1992.88
778.58	2167.37
778.77	2257.89
778.95	1826.17
779.14	1917.51
779.32	2412.30
779.51	2255.02
779.70	1864.88
779.88	1787.67
780.07	2012.54
780.25	2561.60
780.44	1944.75
780.62	2017.04
780.81	2200.75
780.99	2178.01
781.18	1870.21
781.36	1873.69
781.55	2061.69
781.73	2375.23
781.92	1797.30
782.10	1832.93
782.29	2144.02
782.47	2357.83
782.66	1892.73
782.84	1780.30
783.03	1981.00
783.21	2295.77
783.40	1868.57
783.58	1853.00
783.77	1984.28
783.95	2058.62
784.14	1872.66
784.32	1928.98
784.51	2293.32
784.69	1973.83
784.88	1770.88
785.06	1894.78
785.24	1874.51
785.43	2232.29
785.61	1976.70
785.80	1828.63
785.98	2173.92
786.17	2073.57
786.35	1801.80
786.54	1997.38
786.72	2251.33
786.91	2242.73
787.09	1935.74
787.28	1789.31
787.46	2086.27
787.65	2232.70
787.83	1756.54
788.01	1879.01
788.20	1870.82
788.38	2058.62
788.57	1864.88
788.75	1816.96
788.94	2376.46
789.12	2292.91
789.31	1938.40
789.49	2017.66
789.67	1987.76
789.86	2135.62
790.04	1842.97
790.23	1739.34
790.41	2467.39
790.60	2015.41
790.78	1858.74
790.96	1885.36
791.15	2197.47
791.33	2058.62
791.52	1910.55
791.70	1782.35
791.89	2107.56
792.07	2233.11
792.25	1923.66
792.44	1775.79
792.62	2266.69
792.81	1981.00
792.99	1885.56
793.17	1864.88
793.36	1922.02
793.54	2391.41
793.73	2062.92
793.91	2010.49
794.10	2431.14
794.28	2547.88
794.46	2204.23
794.65	2254.40
794.83	2144.02
795.01	2299.46
795.20	2214.47
795.38	2136.65
795.57	2276.52
795.75	2290.86
795.93	2019.71
796.12	2013.77
796.30	2240.48
796.49	2224.30
796.67	1885.77
796.85	2013.97
797.04	2094.05
797.22	2209.96
797.40	1828.22
797.59	1950.90
797.77	2111.87
797.96	1961.75
798.14	1816.14
798.32	1874.10
798.51	2208.53
798.69	2397.35
798.87	1913.62
799.06	1897.65
799.24	1835.80
799.42	2217.54
799.61	1986.32
799.79	1968.71
799.98	2503.64
800.16	2138.28
800.34	2195.22
800.53	2316.66
800.71	2424.39
800.89	2907.91
801.08	2565.49
801.26	2576.55
801.44	2463.30
801.63	2316.05
801.81	2267.72
801.99	2165.93
802.18	2234.54
802.36	2299.66
802.54	2181.50
802.73	1967.28
802.91	2214.06
803.09	2226.76
803.28	2123.95
803.46	2056.78
803.64	2451.01
803.83	1945.16
804.01	1868.98
804.19	1827.81
804.38	2229.21
804.56	2158.15
804.74	1922.84
804.92	1930.21
805.11	1911.57
805.29	2231.88
805.47	1850.54
805.66	1758.59
805.84	1869.18
806.02	2230.24
806.21	1858.12
806.39	2075.21
806.57	2205.25
806.76	2218.77
806.94	1929.19
807.12	1861.60
807.30	1938.20
807.49	2060.87
807.67	1914.24
807.85	2031.79
808.04	2198.90
808.22	2465.34
808.40	1799.75
808.58	1746.10
808.77	2184.77
808.95	2333.66
809.13	1918.95
809.31	2230.65
809.50	2469.24
809.68	2634.71
809.86	2311.34
810.05	2433.81
810.23	2980.20
810.41	3073.59
810.59	4191.17
810.78	4905.70
810.96	5585.83
811.14	5967.78
811.32	5353.39
811.51	4654.21
811.69	4317.73
811.87	4393.71
812.05	3801.85
812.24	3629.82
812.42	3788.54
812.60	3664.64
812.78	3019.12
812.97	2815.14
813.15	3182.75
813.33	2852.41
813.51	2640.65
813.70	2249.69
813.88	2265.26
814.06	2338.99
814.24	2127.84
814.42	1914.24
814.61	2218.15
814.79	2441.79
814.97	1797.71
815.15	1872.66
815.34	2153.03
815.52	2249.69
815.70	1852.18
815.88	1938.20
816.06	1887.20
816.25	1995.75
816.43	1860.58
816.61	2012.33
816.79	2330.18
816.98	1788.70
817.16	1819.21
817.34	1829.04
817.52	2104.08
817.70	2316.46
817.89	1944.75
818.07	1820.85
818.25	2035.68
818.43	2099.17
818.61	1898.47
818.80	1862.63
818.98	2390.18
819.16	2110.43
819.34	1789.52
819.52	2149.96
819.70	1954.99
819.89	2092.41
820.07	1777.23
820.25	1752.24
820.43	2125.59
820.61	2240.68
820.80	1912.80
820.98	1795.86
821.16	1823.51
821.34	1884.13
821.52	1884.75
821.70	2034.25
821.89	2097.73
822.07	2019.91
822.25	1993.49
822.43	1860.99
822.61	2323.42
822.79	2141.15
822.98	1915.67
823.16	1747.94
823.34	2134.39
823.52	2303.15
823.70	1963.39
823.88	1756.95
824.06	2210.17
824.25	2061.89
824.43	2018.48
824.61	1819.42
824.79	2080.53
824.97	2106.54
825.15	2016.23
825.33	2153.64
825.52	2343.08
825.70	2204.23
825.88	2070.29
826.06	2093.02
826.24	2278.77
826.42	2367.45
826.60	2055.96
826.78	2124.36
826.97	2130.91
827.15	2345.13
827.33	1950.69
827.51	2002.30
827.69	2009.06
827.87	2141.36
828.05	2025.03
828.23	1865.09
828.41	2278.16
828.60	2220.00
828.78	1791.15
828.96	2022.78
829.14	1973.22
829.32	2041.82
829.50	1913.83
829.68	1886.79
829.86	1995.75
830.04	2206.07
830.22	1990.63
830.41	1835.80
830.59	2036.50
830.77	2217.54
830.95	1854.44
831.13	1858.33
831.31	1946.80
831.49	2241.09
831.67	2040.60
831.85	2044.08
832.03	2037.32
832.21	2184.57
832.39	1781.53
832.57	1831.91
832.76	2242.53
832.94	2038.96
833.12	1738.52
833.30	1918.95
833.48	2296.80
833.66	2157.13
833.84	1866.52
834.02	1913.83
834.20	2221.02
834.38	2219.18
834.56	1767.60
834.74	1833.96
834.92	1866.93
835.10	2409.84
835.28	1931.85
835.46	1934.92
835.64	2068.65
835.82	1976.29
836.01	2200.13
836.19	2122.11
836.37	1993.70
836.55	1916.69
836.73	1863.04
836.91	1793.20
837.09	2186.21
837.27	2338.17
837.45	1777.84
837.63	1773.75
837.81	1876.55
837.99	2056.57
838.17	2019.71
838.35	1827.81
838.53	2461.04
838.71	2171.46
838.89	1819.21
839.07	1846.24
839.25	2089.95
839.43	2217.34
839.61	1910.35
839.79	2176.58
839.97	2418.45
840.15	2478.86
840.33	2260.75
840.51	2477.43
840.69	2408.82
840.87	2411.69
841.05	2275.70
841.23	2206.69
841.41	2417.01
841.59	2830.91
841.77	2683.25
841.95	2797.73
842.13	3231.90
842.31	2921.63
842.49	2564.88
842.67	2568.36
842.85	2739.57
843.03	2394.08
843.21	2268.33
843.39	2439.75
843.57	2483.98
843.75	2440.56
843.93	2133.37
844.11	2167.57
844.29	2309.49
844.47	2235.36
844.65	2206.28
844.83	2028.72
845.01	2127.23
845.19	2313.59
845.36	1999.23
845.54	2009.88
845.72	2138.69
845.90	2233.72
846.08	1899.70
846.26	1974.45
846.44	2174.33
846.62	2176.99
846.80	2009.06
846.98	1880.04
847.16	2060.26
847.34	2121.70
847.52	1864.06
847.70	1795.04
847.88	2048.38
848.06	2385.27
848.24	2031.58
848.41	1803.85
848.59	2257.27
848.77	2173.10
848.95	1884.54
849.13	1890.68
849.31	2202.18
849.49	2150.37
849.67	1862.63
849.85	1811.43
850.03	2177.61
850.21	2153.44
850.39	1816.96
850.57	2009.67
850.74	2318.30
850.92	2322.40
851.10	2076.44
851.28	1961.95
851.46	2278.77
851.64	2605.22
851.82	2061.28
852.00	2162.25
852.18	2488.49
852.36	2370.11
852.53	2032.20
852.71	2086.47
852.89	2276.52
853.07	2257.27
853.25	1947.00
853.43	1835.80
853.61	2166.14
853.79	2175.35
853.97	1903.38
854.14	1929.19
854.32	2323.83
854.50	2208.53
854.68	1927.34
854.86	1911.98
855.04	1982.02
855.22	2257.68
855.40	1781.53
855.57	1866.52
855.75	2212.42
855.93	2170.44
856.11	1755.11
856.29	1881.88
856.47	1990.63
856.65	2139.92
856.82	1824.13
857.00	1789.52
857.18	2030.77
857.36	1967.28
857.54	2000.05
857.72	2072.34
857.89	2188.87
858.07	2105.93
858.25	2094.66
858.43	1807.74
858.61	2051.86
858.79	2064.15
858.97	1824.33
859.14	2009.06
859.32	2078.89
859.50	2030.56
859.68	1956.01
859.86	1840.10
860.03	2111.05
860.21	2166.55
860.39	1842.15
860.57	2038.34
860.75	2120.26
860.93	2422.95
861.10	2099.58
861.28	1830.47
861.46	2127.43
861.64	2156.10
861.82	1898.47
861.99	1985.92
862.17	2225.73
862.35	2224.50
862.53	1908.91
862.71	1913.01
862.88	2128.45
863.06	2216.31
863.24	1886.79
863.42	1839.69
863.60	2050.43
863.77	2170.44
863.95	1769.24
864.13	1893.35
864.31	2022.57
864.49	2222.87
864.66	1812.86
864.84	1853.41
865.02	2159.79
865.20	2560.58
865.37	2006.19
865.55	1858.74
865.73	1872.25
865.91	2214.06
866.09	2015.82
866.26	1920.38
866.44	2191.53
866.62	2042.23
866.80	1796.89
866.97	1902.56
867.15	2031.38
867.33	2104.08
867.51	1956.83
867.68	1935.54
867.86	2007.21
868.04	1983.05
868.22	1668.48
868.39	1895.60
868.57	2168.59
868.75	2353.73
868.93	1795.25
869.10	1857.10
869.28	2390.59
869.46	2301.30
869.64	1918.54
869.81	1872.05
869.99	2125.59
870.17	2100.60
870.35	1834.98
870.52	1911.57
870.70	2221.84
870.88	1972.19
871.05	1830.06
871.23	1736.47
871.41	2065.79
871.59	2093.23
871.76	1885.97
871.94	1828.63
872.12	2095.07
872.29	1849.73
872.47	1896.21
872.65	1818.39
872.83	2130.30
873.00	2329.97
873.18	1892.53
873.36	1841.94
873.53	2204.23
873.71	1871.23
873.89	1794.02
874.06	1894.58
874.24	2161.43
874.42	2306.22
874.60	2029.74
874.77	1996.56
874.95	1967.07
875.13	2279.59
875.30	1849.11
875.48	1818.80
875.66	2370.11
875.83	1958.68
876.01	1837.03
876.19	1972.40
876.36	1912.80
876.54	2094.66
876.72	1797.50
876.89	1948.03
877.07	2238.23
877.25	1798.73
877.42	1898.26
877.60	1881.88
877.78	2394.08
877.95	2027.08
878.13	1823.72
878.31	2016.63
878.48	2262.39
878.66	2215.29
878.84	1893.76
879.01	1898.47
879.19	2154.46
879.37	2193.37
879.54	1875.53
879.72	1755.31
879.90	1785.21
880.07	2224.30
880.25	1651.69
880.42	2044.08
880.60	2131.53
880.78	2217.13
880.95	1860.37
881.13	1934.10
881.31	2105.72
881.48	2004.76
881.66	1850.34
881.83	2004.96
882.01	1982.43
882.19	1885.36
882.36	1895.40
882.54	1863.86
882.72	2189.89
882.89	2141.97
883.07	1852.18
883.24	1874.92
883.42	2242.32
883.60	2100.81
883.77	1784.40
883.95	1899.08
884.12	2256.86
884.30	2123.95
884.48	2000.05
884.65	1893.14
884.83	2133.78
885.00	2130.30
885.18	1768.22
885.36	1885.77
885.53	2185.18
885.71	2301.30
885.88	1795.25
886.06	1851.16
886.23	2172.49
886.41	2010.49
886.59	1855.46
886.76	1792.79
886.94	2209.76
887.11	2565.70
887.29	1903.38
887.47	1803.44
887.64	2307.86
887.82	2330.59
887.99	1726.03
888.17	1891.91
888.34	2053.70
888.52	1899.49
888.69	1864.88
888.87	1786.24
889.05	2049.81
889.22	2013.97
889.40	1859.97
889.57	2114.12
889.75	2406.98
889.92	2036.70
890.10	1806.51
890.27	1947.00
890.45	1990.63
890.62	1807.33
890.80	1789.52
890.98	1724.18
891.15	2336.94
891.33	2252.15
891.50	1844.81
891.68	1780.91
891.85	2232.29
892.03	2210.17
892.20	1803.24
892.38	1793.41
892.55	2194.60
892.73	2215.90
892.90	1730.12
893.08	1838.26
893.25	1957.65
893.43	2026.26
893.60	1953.76
893.78	1695.51
893.95	2165.11
894.13	2092.61
894.30	1820.64
894.48	1879.63
894.65	2240.68
894.83	2142.38
895.00	1710.26
895.18	1705.14
895.35	2247.24
895.53	2188.87
895.70	1760.02
895.88	1980.39
896.05	2139.51
896.23	1870.00
896.40	1856.69
896.58	1930.82
896.75	2215.08
896.93	2344.92
897.10	1879.63
897.28	1752.45
897.45	2090.98
897.63	2181.70
897.80	1948.85
897.98	1822.28
898.15	2157.33
898.33	2009.47
898.50	1906.86
898.67	1869.59
898.85	2022.78
899.02	2164.91
899.20	2082.17
899.37	1859.76
899.55	2100.60
899.72	2312.98
899.90	1839.08
900.07	1805.49
900.25	2185.80
900.42	2295.57
900.59	1831.50
900.77	1953.97
900.94	2199.72
901.12	2133.57
901.29	1868.57
901.47	1994.31
901.64	2205.66
901.82	2048.79
901.99	1659.67
902.16	1839.90
902.34	2285.33
902.51	2129.68
902.69	1834.78
902.86	1887.20
903.03	2700.86
903.21	2086.27
903.38	1849.73
903.56	1809.99
903.73	2270.58
903.91	2029.74
904.08	1808.15
904.25	1703.50
904.43	1954.79
904.60	2235.15
904.78	1862.01
904.95	1793.41
905.12	2022.98
905.30	2366.22
905.47	1940.25
905.65	2042.23
905.82	2064.35
905.99	2174.94
906.17	1863.86
906.34	1818.80
906.52	1921.40
906.69	2163.27
906.86	1937.99
907.04	1955.81
907.21	2195.42
907.38	2253.58
907.56	1804.26
907.73	1810.20
907.91	2346.36
908.08	2272.02
908.25	1857.92
908.43	1754.29
908.60	2181.09
908.77	2117.80
908.95	1893.14
909.12	1781.94
909.30	2185.59
909.47	1847.47
909.64	1896.83
909.82	2084.83
909.99	2059.85
910.16	2115.96
910.34	1837.44
910.51	1819.01
910.68	2143.20
910.86	2068.86
911.03	1772.93
911.20	1792.18
911.38	2266.69
911.55	2553.20
911.72	2413.53
911.90	2286.76
912.07	2714.79
912.24	2905.66
912.42	2288.61
912.59	2111.66
912.76	2435.24
912.94	2275.70
913.11	2001.68
913.28	1893.55
913.46	1938.61
913.63	2186.21
913.80	2199.72
913.98	1834.57
914.15	2247.85
914.32	2275.70
914.49	1966.66
914.67	1776.41
914.84	2123.74
915.01	2182.93
915.19	1910.75
915.36	1801.39
915.53	2225.32
915.71	2153.23
915.88	1919.77
916.05	1872.66
916.22	2267.10
916.40	2144.63
916.57	1776.00
916.74	2011.72
916.92	2375.44
917.09	1922.84
917.26	1813.07
917.43	1752.04
917.61	2000.05
917.78	1827.61
917.95	1790.74
918.13	1779.68
918.30	2442.61
918.47	2102.85
918.64	1793.20
918.82	1763.51
918.99	2035.89
919.16	2335.30
919.33	1851.77
919.51	1841.12
919.68	2072.75
919.85	2304.99
920.02	1744.87
920.20	1886.79
920.37	2376.67
920.54	2204.64
920.71	1797.30
920.89	1858.94
921.06	2369.91
921.23	1916.08
921.40	1779.48
921.58	1913.83
921.75	2604.20
921.92	1965.64
922.09	1954.17
922.27	1888.02
922.44	2102.85
922.61	2167.16
922.78	1857.51
922.96	1851.36
923.13	2018.27
923.30	2244.37
923.47	1734.22
923.64	1790.33
923.82	2159.99
923.99	2110.23
924.16	1938.20
924.33	1786.03
924.50	2097.73
924.68	2363.56
924.85	1806.10
925.02	1858.74
925.19	2208.53
925.36	2111.66
925.54	1868.16
925.71	1898.26
925.88	2626.11
926.05	2025.03
926.22	1795.04
926.40	1957.45
926.57	2123.54
926.74	2178.63
926.91	1819.42
927.08	2014.79
927.26	2295.98
927.43	2096.71
927.60	1841.74
927.77	1912.39
927.94	2390.59
928.11	2291.27
928.29	1723.57
928.46	1912.80
928.63	1973.83
928.80	1996.36
928.97	1936.76
929.14	1802.21
929.32	2462.07
929.49	2096.92
929.66	1824.94
929.83	1762.07
930.00	1996.97
930.17	2179.65
930.35	1782.96
930.52	1840.30
930.69	2363.36
930.86	1888.64
931.03	1903.59
931.20	1673.19
931.37	2289.63
931.55	2099.17
931.72	1892.32
931.89	1790.95
932.06	1907.48
932.23	2363.97
932.40	1934.72
932.57	1974.65
932.74	2323.22
932.92	2279.39
933.09	2011.11
933.26	1579.60
933.43	2013.77
933.60	2142.38
933.77	1892.73
933.94	1937.17
934.11	2048.38
934.29	2133.37
934.46	1806.51
934.63	1919.77
934.80	1854.64
934.97	2062.71
935.14	1867.34
935.31	1698.79
935.48	1933.69
935.65	2125.38
935.82	1872.66
936.00	1757.77
936.17	2336.94
936.34	2033.84
936.51	1929.39
936.68	1749.37
936.85	2135.01
937.02	2122.11
937.19	1956.83
937.36	1890.07
937.53	2150.16
937.70	2231.06
937.87	1829.86
938.05	1992.88
938.22	2118.42
938.39	1932.26
938.56	1869.39
938.73	1800.78
938.90	2060.87
939.07	1975.27
939.24	1946.39
939.41	1715.17
939.58	2167.16
939.75	2168.59
939.92	1819.21
940.09	2112.27
940.26	2032.20
940.43	2232.70
940.60	1880.24
940.77	1875.94
940.95	2127.02
941.12	2185.18
941.29	1883.31
941.46	1887.82
941.63	2311.13
941.80	2354.14
941.97	1755.72
942.14	1708.42
942.31	2206.69
942.48	2083.40
942.65	1962.98
942.82	1896.01
942.99	2174.53
943.16	2093.23
943.33	1746.51
943.50	1836.82
943.67	2222.46
943.84	2279.39
944.01	1818.39
944.18	1802.42
944.35	2328.54
944.52	1968.92
944.69	1949.26
944.86	1765.96
945.03	2222.66
945.20	2504.87
945.37	1691.42
945.54	1893.14
945.71	2318.10
945.88	2400.01
946.05	1808.77
946.22	1768.63
946.39	2326.29
946.56	2065.99
946.73	1719.47
946.90	1796.89
947.07	2017.86
947.24	2067.42
947.41	1733.20
947.58	1937.79
947.75	2207.51
947.92	2137.67
948.09	1659.06
948.26	1715.79
948.43	2134.80
948.60	2408.21
948.77	1803.03
948.94	1846.04
949.11	2208.32
949.27	2145.86
949.44	1823.72
949.61	1760.23
949.78	2147.50
949.95	2272.02
950.12	1722.34
950.29	1720.70
950.46	1989.19
950.63	2260.14
950.80	1771.29
950.97	1860.99
951.14	2275.50
951.31	2059.03
951.48	1799.96
951.65	1735.04
951.82	2436.88
951.99	2116.78
952.15	1757.36
952.32	1859.35
952.49	2005.17
952.66	1982.43
952.83	1816.14
953.00	1773.95
953.17	2084.42
953.34	2243.75
953.51	1888.64
953.68	1904.41
953.85	2311.13
954.02	2256.04
954.18	1891.71
954.35	1843.38
954.52	1948.23
954.69	2116.99
954.86	1733.20
955.03	1909.73
955.20	2201.77
955.37	2091.59
955.54	1855.87
955.71	1796.48
955.87	2184.57
956.04	2397.35
956.21	1814.30
956.38	1767.19
956.55	2103.47
956.72	2522.28
956.89	1914.65
957.06	1770.47
957.23	2004.76
957.39	2291.47
957.56	1875.53
957.73	1772.31
957.90	1730.94
958.07	2436.06
958.24	1870.00
958.41	1853.21
958.57	2248.06
958.74	2123.74
958.91	1772.52
959.08	1806.51
959.25	2228.60
959.42	2045.10
959.59	1874.10
959.75	1855.46
959.92	2290.86
960.09	2263.42
960.26	1801.39
960.43	1903.18
960.60	2148.73
960.76	2037.73
960.93	1728.49
961.10	1902.15
961.27	2257.68
961.44	2032.81
961.61	1755.31
961.77	1736.88
961.94	2134.80
962.11	2276.73
962.28	1821.46
962.45	1763.92
962.62	2067.42
962.78	2255.63
962.95	1694.28
963.12	1809.99
963.29	2199.31
963.46	2578.80
963.62	1913.62
963.79	1838.26
963.96	2521.66
964.13	2053.50
964.30	1934.72
964.46	1831.29
964.63	1910.14
964.80	2517.77
964.97	1673.60
965.14	1968.10
965.30	2136.85
965.47	2226.55
965.64	1980.80
965.81	1908.71
965.98	2327.31
966.14	2124.56
966.31	1818.60
966.48	1764.33
966.65	2288.61
966.81	2158.97
966.98	1832.32
967.15	1826.17
967.32	2089.95
967.49	1949.46
967.65	1674.42
967.82	1669.91
967.99	2059.44
968.16	1821.87
968.32	1980.59
968.49	1792.38
968.66	2087.90
968.83	2353.73
968.99	1942.09
969.16	1768.63
969.33	2277.55
969.50	2202.59
969.66	1967.07
969.83	2066.20
970.00	2233.31
970.17	2189.07
970.33	1870.00
970.50	1778.87
970.67	2363.36
970.84	2319.73
971.00	1778.25
971.17	1722.75
971.34	2191.53
971.50	2094.46
971.67	1960.32
971.84	1848.70
972.01	1920.18
972.17	1764.33
972.34	1729.10
972.51	1974.24
972.67	2299.25
972.84	2162.65
973.01	1786.65
973.18	1822.49
973.34	2264.44
973.51	1936.76
973.68	1843.79
973.84	1857.10
974.01	2020.12
974.18	2389.16
974.34	1895.60
974.51	1937.99
974.68	1968.92
974.85	2444.87
975.01	1924.68
975.18	1854.23
975.35	2099.99
975.51	1970.97
975.68	1754.29
975.85	1973.01
976.01	2007.62
976.18	2348.20
976.35	1844.40
976.51	1858.94
976.68	2397.56
976.85	2311.75
977.01	1894.99
977.18	1926.32
977.35	2206.07
977.51	1909.12
977.68	1682.20
977.85	1745.07
978.01	2244.16
978.18	2206.28
978.35	1884.13
978.51	1891.91
978.68	2264.44
978.85	2380.15
979.01	1855.66
979.18	1862.22
979.34	2046.94
979.51	2139.51
979.68	1771.49
979.84	1890.68
980.01	2551.36
980.18	2145.25
980.34	1807.74
980.51	1870.61
980.67	2219.59
980.84	2241.30
981.01	1842.97
981.17	1904.82
981.34	1817.57
981.51	2185.39
981.67	1755.31
981.84	1918.13
982.00	2191.53
982.17	2062.30
982.34	1697.36
982.50	1598.03
982.67	2372.37
982.83	2008.24
983.00	1707.80
983.17	1619.94
983.33	2291.27
983.50	1834.16
983.66	1727.87
983.83	1639.60
984.00	2020.73
984.16	2080.94
984.33	1611.75
984.49	1597.21
984.66	1965.03
984.83	2237.82
984.99	1688.76
985.16	1614.21
985.32	2199.31
985.49	2227.99
985.65	1755.72
985.82	1635.10
985.99	2395.92
986.15	2136.85
986.32	1783.58
986.48	1683.84
986.65	2001.68
986.81	2207.92
986.98	1631.62
987.14	1725.82
987.31	2109.20
987.48	1822.49
987.64	1579.39
987.81	1574.89
987.97	2449.58
988.14	1954.38
988.30	1637.76
988.47	1516.32
988.63	2155.49
988.80	1917.72
988.96	1719.88
989.13	1727.67
989.30	2040.19
989.46	2251.74
989.63	1557.07
989.79	1605.40
989.96	2074.80
990.12	2328.75
990.29	1643.29
990.45	1692.24
990.62	2116.17
990.78	2323.01
990.95	1752.86
991.11	1663.97
991.28	2004.76
991.44	2132.96
991.61	1574.07
991.77	1721.11
991.94	2116.99
992.10	2285.53
992.27	1712.31
992.43	1710.46
992.60	2157.54
992.76	2049.81
992.93	1879.42
993.09	1615.64
993.26	2267.92
993.42	2417.42
993.59	1659.06
993.75	1575.91
993.92	1959.70
994.08	1976.29
994.25	1729.51
994.41	1619.12
994.58	2203.00
994.74	2336.94
994.91	1617.90
995.07	1732.38
995.24	2055.34
995.40	2067.01
995.56	1793.61
995.73	1756.95
995.89	2398.17
996.06	2048.38
996.22	1616.87
996.39	1583.69
996.55	2075.41
996.72	2145.45
996.88	1575.91
997.05	1619.94
997.21	2450.19
997.37	2181.09
997.54	1752.45
997.70	1684.45
997.87	2158.97
998.03	2068.24
998.20	1578.57
998.36	1571.41
998.52	2205.66
998.69	2256.45
998.85	1569.97
999.02	1674.83
999.18	2218.36
999.35	2257.07
999.51	1693.47
999.67	1680.56
999.84	1914.65
1000.00	2229.83
1000.17	1735.45
1000.33	1658.85
1000.49	2031.58
1000.66	2066.20
1000.82	1660.90
1000.99	1709.44
1001.15	2298.44
1001.31	2047.56
1001.48	1678.92
1001.64	1766.17
1001.81	2041.21
1001.97	2454.49
1002.13	1699.20
1002.30	1683.02
1002.46	2302.94
1002.63	2057.18
1002.79	1749.58
1002.95	1639.81
1003.12	2292.50
1003.28	2146.68
1003.45	1641.86
1003.61	1594.34
1003.77	2120.06
1003.94	1854.44
1004.10	1682.41
1004.26	1751.01
1004.43	2166.96
1004.59	2402.47
1004.75	1655.78
1004.92	1618.30
1005.08	2015.20
1005.25	2120.67
1005.41	1666.84
1005.57	1724.18
1005.74	2298.64
1005.90	2041.42
1006.06	1792.38
1006.23	1659.67
1006.39	2196.86
1006.55	2548.90
1006.72	1811.84
1006.88	1603.76
1007.04	1953.76
1007.21	2056.78
1007.37	1707.60
1007.53	1650.66
1007.70	2343.90
1007.86	2214.47
1008.02	1726.64
1008.19	1614.82
1008.35	2115.96
1008.51	1946.39
1008.68	1651.28
1008.84	1626.70
1009.00	1932.67
1009.17	2262.60
1009.33	1832.73
1009.49	1763.71
1009.65	1950.90
1009.82	2149.14
1009.98	1726.64
1010.14	1576.12
1010.31	2217.54
1010.47	2183.34
1010.63	1735.24
1010.80	1711.08
1010.96	2130.71
1011.12	2061.89
1011.28	1699.61
1011.45	1637.35
1011.61	2576.75
1011.77	1942.09
1011.94	1641.04
1012.10	1613.39
1012.26	1912.39
1012.42	2013.77
1012.59	1720.09
1012.75	1722.34
1012.91	2066.20
1013.07	2244.16
1013.24	1614.21
1013.40	1667.46
1013.56	2130.30
1013.72	2072.54
1013.89	1725.41
1014.05	1774.56
1014.21	2436.26
1014.37	2520.84
1014.54	1728.49
1014.70	1602.95
1014.86	2049.81
1015.02	1905.43
1015.19	1662.95
1015.35	1616.87
1015.51	2057.80
1015.67	2005.17
1015.84	1673.60
1016.00	1689.16
1016.16	2275.29
1016.32	2216.52
1016.49	1659.47
1016.65	1618.30
1016.81	2078.69
1016.97	2187.85
1017.14	1803.24
1017.30	1682.20
1017.46	1985.30
1017.62	2139.10
1017.78	1737.91
1017.95	1642.27
1018.11	2238.84
1018.27	2526.78
1018.43	1832.52
1018.59	1745.07
1018.76	2233.11
1018.92	2547.67
1019.08	1642.47
1019.24	1665.00
1019.40	2341.44
1019.57	2144.63
1019.73	1753.88
1019.89	1690.39
1020.05	2150.98
1020.21	2452.65
1020.38	1650.66
1020.54	1823.10
1020.70	2189.07
1020.86	2179.24
1021.02	1670.12
1021.18	1672.78
1021.35	2021.75
1021.51	2197.06
1021.67	1833.34
1021.83	1709.44
1021.99	2103.06
1022.15	2150.37
1022.32	1759.41
1022.48	1710.05
1022.64	2323.01
1022.80	2337.96
1022.96	1740.98
1023.12	1617.08
1023.29	2280.00
1023.45	2182.32
1023.61	1670.94
1023.77	1904.41
1023.93	2135.62
1024.09	1962.77
1024.25	1678.31
1024.42	1599.46
1024.58	2017.04
1024.74	2135.42
1024.90	1706.16
1025.06	1762.28
1025.22	2010.49
1025.38	2423.77
1025.54	1614.00
1025.71	1796.27
1025.87	2187.03
1026.03	2164.50
1026.19	1630.18
1026.35	1828.63
1026.51	2193.37
1026.67	2098.35
1026.83	1704.32
1026.99	1856.69
1027.16	2202.18
1027.32	2315.23
1027.48	1687.12
1027.64	1681.59
1027.80	2195.42
1027.96	2127.43
1028.12	1697.36
1028.28	1674.83
1028.44	2150.37
1028.60	2373.60
1028.77	1790.74
1028.93	1745.48
1029.09	2005.58
1029.25	1908.50
1029.41	1721.93
1029.57	1777.23
1029.73	2152.01
1029.89	2377.49
1030.05	1786.65
1030.21	1759.82
1030.37	2506.71
1030.53	2217.34
1030.69	1715.79
1030.85	1608.88
1031.02	1954.38
1031.18	2088.93
1031.34	1673.60
1031.50	1787.88
1031.66	1995.13
1031.82	2352.91
1031.98	1719.47
1032.14	1635.71
1032.30	1938.20
1032.46	2218.77
1032.62	1798.12
1032.78	1610.52
1032.94	1999.84
1033.10	2017.45
1033.26	1745.69
1033.42	1825.15
1033.58	2478.86
1033.74	2010.90
1033.90	1682.20
1034.06	1852.39
1034.22	2465.34
1034.38	2287.38
1034.54	1714.35
1034.70	1747.53
1034.86	2422.54
>>>>>End Processed Spectral Data<<<<<
