SpectraSuite Data File
++++++++++++++++++++++++++++++++++++
Date: Thu Mar 30 14:04:11 PDT 2017
User: UCSD _CER
Dark Spectrum Present: No
Reference Spectrum Present: No
Number of Sampled Component Spectra: 1
Spectrometers: USB4C00073
Integration Time (usec): 380000 (USB4C00073)
Spectra Averaged: 10 (USB4C00073)
Boxcar Smoothing: 0 (USB4C00073)
Correct for Electrical Dark: No (USB4C00073)
Strobe/Lamp Enabled: No (USB4C00073)
Correct for Detector Non-linearity: No (USB4C00073)
Correct for Stray Light: No (USB4C00073)
Number of Pixels in Processed Spectrum: 3648
>>>>>Begin Processed Spectral Data<<<<<
345.37	1179.43
345.58	1179.43
345.80	1179.43
346.01	1190.28
346.22	1189.67
346.43	1966.25
346.65	1779.28
346.86	2275.70
347.07	2214.26
347.28	1761.05
347.50	1747.94
347.71	1996.56
347.92	1748.35
348.13	1728.49
348.35	1693.06
348.56	1992.88
348.77	1825.35
348.98	1771.70
349.20	1615.44
349.41	2022.78
349.62	2141.15
349.83	1864.27
350.05	1737.29
350.26	2045.10
350.47	2215.29
350.68	1776.20
350.90	1704.11
351.11	2217.54
351.32	2206.07
351.53	1808.77
351.75	1713.33
351.96	2101.63
352.17	2016.02
352.38	1848.29
352.60	1853.41
352.81	2021.75
353.02	2301.71
353.23	1750.19
353.44	1786.24
353.66	1947.21
353.87	1998.00
354.08	1859.35
354.29	1772.31
354.51	1936.97
354.72	1961.13
354.93	1752.86
355.14	1751.83
355.35	1791.56
355.57	2161.22
355.78	1821.46
355.99	1860.99
356.20	2008.03
356.42	1984.48
356.63	1877.78
356.84	1794.64
357.05	2136.85
357.26	2376.05
357.48	1921.20
357.69	1850.95
357.90	2080.94
358.11	1940.66
358.32	1815.32
358.54	1856.69
358.75	1962.77
358.96	2114.94
359.17	1746.30
359.38	1790.13
359.60	2114.12
359.81	1983.87
360.02	1780.09
360.23	1717.22
360.44	1911.78
360.66	2158.56
360.87	1730.33
361.08	1747.74
361.29	2041.01
361.50	2022.57
361.72	1776.41
361.93	1827.61
362.14	2024.42
362.35	1794.02
362.56	1916.08
362.77	1684.66
362.99	2073.57
363.20	1977.11
363.41	1875.53
363.62	1634.28
363.83	2114.32
364.05	2132.75
364.26	1693.67
364.47	1721.93
364.68	2182.73
364.89	1875.94
365.10	1686.71
365.32	1777.84
365.53	1860.78
365.74	1895.60
365.95	1753.47
366.16	1645.54
366.37	1977.11
366.59	1942.70
366.80	1785.83
367.01	1650.05
367.22	2332.43
367.43	2466.57
367.64	1805.49
367.86	1778.46
368.07	2063.74
368.28	2167.16
368.49	1697.36
368.70	1819.42
368.91	1921.20
369.12	1966.46
369.34	1698.18
369.55	1661.31
369.76	1998.82
369.97	1915.47
370.18	1689.37
370.39	1721.11
370.60	1802.21
370.82	1846.65
371.03	1795.66
371.24	1741.39
371.45	2107.16
371.66	2069.88
371.87	1770.67
372.08	1782.96
372.30	1872.87
372.51	2167.57
372.72	1936.76
372.93	1778.05
373.14	2272.63
373.35	1896.01
373.56	1697.97
373.78	1784.80
373.99	2129.89
374.20	2445.07
374.41	1761.46
374.62	1752.04
374.83	2252.56
375.04	1955.20
375.25	1828.22
375.47	1775.79
375.68	1968.10
375.89	2126.41
376.10	1838.87
376.31	1859.35
376.52	2100.19
376.73	2039.16
376.94	1815.93
377.15	1737.50
377.37	2021.55
377.58	1980.59
377.79	1692.65
378.00	1724.18
378.21	2033.63
378.42	2132.14
378.63	1826.58
378.84	1866.52
379.05	2190.92
379.27	2020.53
379.48	1908.30
379.69	1766.17
379.90	2196.45
380.11	1746.92
380.32	1789.31
380.53	1922.22
380.74	2242.53
380.95	2040.60
381.16	1810.20
381.37	1811.02
381.59	2254.61
381.80	2154.46
382.01	1772.11
382.22	1682.00
382.43	2098.14
382.64	2016.84
382.85	1741.39
383.06	1873.89
383.27	2097.32
383.48	1986.73
383.69	1811.63
383.91	1742.21
384.12	2156.31
384.33	2149.34
384.54	1881.67
384.75	1779.68
384.96	2575.73
385.17	2248.87
385.38	1845.42
385.59	1798.53
385.80	2157.33
386.01	2281.23
386.22	1918.95
386.43	1838.67
386.64	2421.93
386.86	2029.33
387.07	1912.39
387.28	1767.19
387.49	1975.47
387.70	2280.82
387.91	1944.96
388.12	1799.14
388.33	2086.47
388.54	1968.10
388.75	1765.35
388.96	1889.05
389.17	1935.54
389.38	1986.94
389.59	1873.48
389.80	1873.28
390.01	1995.13
390.22	1952.53
390.43	1917.10
390.64	1694.28
390.86	2102.44
391.07	2217.54
391.28	1782.14
391.49	1846.45
391.70	1844.81
391.91	1887.61
392.12	1816.14
392.33	1857.71
392.54	2044.28
392.75	1988.99
392.96	1884.34
393.17	1784.60
393.38	2393.87
393.59	2215.90
393.80	1719.88
394.01	1870.21
394.22	2045.51
394.43	2363.77
394.64	1752.04
394.85	1919.36
395.06	2037.52
395.27	2048.79
395.48	1788.29
395.69	1702.68
395.90	1995.75
396.11	1993.08
396.32	1793.00
396.53	1883.11
396.74	1983.46
396.95	2173.71
397.16	1772.72
397.37	1678.52
397.58	2146.89
397.79	2000.25
398.00	1816.55
398.21	1801.80
398.42	2033.63
398.63	2357.01
398.84	1774.16
399.05	1726.85
399.26	2202.80
399.47	2072.34
399.68	1628.14
399.89	1739.34
400.10	1830.47
400.31	1950.28
400.52	1879.01
400.73	1820.64
400.94	1864.88
401.15	2153.85
401.36	1876.96
401.57	1895.80
401.78	2226.55
401.99	2191.94
402.20	1718.04
402.41	1930.62
402.62	2264.44
402.83	1981.00
403.04	1778.46
403.25	1982.84
403.46	2085.24
403.67	2316.46
403.88	1923.45
404.09	1888.23
404.30	2029.95
404.51	1984.89
404.72	1798.12
404.93	1964.41
405.14	1931.85
405.35	2024.83
405.56	1819.42
405.77	1755.72
405.98	2028.92
406.19	2011.92
406.40	1803.85
406.61	1854.03
406.82	2002.50
407.03	2459.82
407.24	1813.27
407.45	1910.14
407.66	2147.70
407.87	2198.90
408.08	1893.35
408.29	1867.34
408.49	2104.49
408.70	1998.41
408.91	1795.66
409.12	1903.38
409.33	1845.42
409.54	2232.08
409.75	1764.33
409.96	1833.55
410.17	2172.28
410.38	2013.15
410.59	1802.83
410.80	1892.12
411.01	1974.65
411.22	1973.63
411.43	1858.74
411.64	1753.68
411.85	1860.99
412.06	1855.05
412.27	1617.49
412.47	1750.40
412.68	2006.80
412.89	2091.18
413.10	1794.84
413.31	1704.73
413.52	2315.02
413.73	2299.46
413.94	1765.14
414.15	1894.17
414.36	1928.98
414.57	1884.13
414.78	1760.43
414.99	1958.06
415.19	2494.02
415.40	2498.52
415.61	2505.89
415.82	2377.28
416.03	2509.38
416.24	2361.72
416.45	2026.26
416.66	1818.80
416.87	1856.28
417.08	2101.63
417.29	1789.92
417.50	1908.91
417.70	2193.17
417.91	2172.49
418.12	1978.54
418.33	2009.47
418.54	2300.69
418.75	2453.88
418.96	2375.85
419.17	2570.41
419.38	3135.85
419.59	3090.18
419.79	2879.44
420.00	2655.60
420.21	3018.71
420.42	2401.24
420.63	1984.89
420.84	1989.40
421.05	2037.32
421.26	2024.42
421.47	1707.80
421.67	2124.36
421.88	1916.28
422.09	1908.91
422.30	2070.29
422.51	1905.23
422.72	2369.30
422.93	2218.15
423.14	1870.82
423.35	1724.59
423.55	1844.61
423.76	1899.90
423.97	1813.27
424.18	1701.04
424.39	2004.35
424.60	2191.53
424.81	1885.56
425.02	2060.05
425.22	2289.42
425.43	2314.61
425.64	2435.85
425.85	2406.77
426.06	2835.41
426.27	2648.84
426.48	2426.43
426.68	2351.68
426.89	2562.62
427.10	2660.11
427.31	2134.60
427.52	1931.03
427.73	2275.50
427.94	2189.48
428.14	2005.58
428.35	1871.23
428.56	2270.38
428.77	2163.68
428.98	1907.68
429.19	1944.34
429.40	2113.71
429.60	2222.46
429.81	2154.46
430.02	2064.56
430.23	2121.70
430.44	2211.19
430.65	1837.03
430.85	1852.59
431.06	2099.58
431.27	1789.11
431.48	1810.81
431.69	1843.58
431.90	2023.60
432.10	2049.40
432.31	1977.72
432.52	2054.73
432.73	2747.55
432.94	2673.21
433.15	2358.85
433.35	2141.97
433.56	2480.50
433.77	2318.10
433.98	2828.86
434.19	2972.01
434.40	3399.42
434.60	3351.50
434.81	3183.57
435.02	2679.97
435.23	2542.55
435.44	2369.70
435.64	1956.01
435.85	1868.36
436.06	2043.26
436.27	2041.01
436.48	1878.60
436.68	1960.73
436.89	2492.58
437.10	2415.58
437.31	2109.41
437.52	2170.23
437.73	2259.93
437.93	2208.53
438.14	1979.16
438.35	1754.29
438.56	1989.19
438.77	1996.97
438.97	1988.37
439.18	1917.51
439.39	2480.09
439.60	2160.81
439.80	2124.56
440.01	2175.56
440.22	2193.17
440.43	2267.31
440.64	1891.09
440.84	1925.91
441.05	1901.74
441.26	2488.28
441.47	1906.45
441.68	2002.30
441.88	2416.60
442.09	2575.73
442.30	2694.31
442.51	2758.00
442.71	2669.32
442.92	2583.92
443.13	2233.51
443.34	2066.61
443.55	2047.97
443.75	2206.89
443.96	1856.48
444.17	1754.70
444.38	2153.44
444.58	1868.98
444.79	1915.47
445.00	1857.71
445.21	2000.25
445.41	1951.92
445.62	1653.94
445.83	1900.51
446.04	2029.33
446.24	1816.75
446.45	1661.11
446.66	1809.38
446.87	2072.13
447.07	1917.31
447.28	2057.18
447.49	1874.92
447.70	2223.89
447.90	2237.20
448.11	1945.16
448.32	1968.71
448.53	2233.31
448.73	2226.76
448.94	1816.75
449.15	1974.04
449.36	2041.62
449.56	2046.94
449.77	1805.90
449.98	1734.63
450.19	1998.61
450.39	2091.80
450.60	2056.98
450.81	2066.40
451.02	2200.13
451.22	2358.85
451.43	1855.25
451.64	1885.97
451.84	2017.86
452.05	2283.69
452.26	1888.43
452.47	1866.52
452.67	1940.86
452.88	2241.09
453.09	1763.30
453.30	1739.54
453.50	2166.14
453.71	2395.92
453.92	1971.17
454.12	2160.81
454.33	2116.17
454.54	2140.33
454.75	1883.72
454.95	1837.03
455.16	2119.24
455.37	2114.53
455.57	1920.59
455.78	1868.77
455.99	2008.85
456.19	2047.56
456.40	1790.13
456.61	1878.60
456.82	2015.00
457.02	2174.53
457.23	2066.81
457.44	2189.89
457.64	2147.70
457.85	2301.71
458.06	2053.09
458.26	2170.85
458.47	2195.63
458.68	2334.27
458.89	1974.04
459.09	2125.18
459.30	2444.05
459.51	2135.01
459.71	1771.90
459.92	1866.72
460.13	2356.39
460.33	2632.66
460.54	2146.07
460.75	2158.76
460.95	2156.10
461.16	2230.44
461.37	1956.83
461.57	1925.09
461.78	2077.66
461.99	1931.85
462.19	2122.92
462.40	1835.80
462.61	2388.55
462.81	2210.37
463.02	1803.85
463.23	1852.59
463.43	2146.27
463.64	1929.19
463.85	2959.31
464.05	1827.20
464.26	2516.95
464.47	2215.49
464.67	1990.83
464.88	1995.54
465.09	2055.14
465.29	2228.60
465.50	2200.13
465.71	2092.20
465.91	2078.07
466.12	2076.23
466.33	1961.95
466.53	1856.28
466.74	2281.85
466.94	2028.31
467.15	1923.66
467.36	2053.70
467.56	1909.73
467.77	2080.74
467.98	1908.09
468.18	1845.22
468.39	1954.38
468.60	2314.20
468.80	1854.85
469.01	1772.72
469.21	2119.65
469.42	2280.00
469.63	1912.19
469.83	1832.93
470.04	2217.75
470.25	2307.45
470.45	1952.53
470.66	1810.40
470.86	2097.32
471.07	1981.00
471.28	1961.75
471.48	1953.35
471.69	2062.92
471.90	2733.63
472.10	2107.97
472.31	2120.26
472.51	2205.25
472.72	2329.97
472.93	2240.07
473.13	2404.11
473.34	2526.78
473.54	2468.01
473.75	2176.17
473.96	2197.27
474.16	2125.79
474.37	2184.77
474.57	1998.00
474.78	1856.28
474.99	2130.71
475.19	2102.04
475.40	1846.04
475.60	1923.04
475.81	2540.71
476.02	2307.65
476.22	2242.12
476.43	2285.33
476.63	2155.69
476.84	2293.52
477.05	1794.64
477.25	1885.77
477.46	2540.91
477.66	2071.52
477.87	1815.11
478.08	1849.32
478.28	2189.07
478.49	1994.72
478.69	1823.72
478.90	1848.91
479.10	2106.54
479.31	2281.23
479.52	1931.85
479.72	2371.34
479.93	2872.69
480.13	2869.00
480.34	2839.30
480.54	2926.14
480.75	2506.92
480.96	2538.05
481.16	2044.08
481.37	2147.91
481.57	2330.79
481.78	2261.37
481.98	2214.88
482.19	2051.45
482.40	2377.49
482.60	2125.18
482.81	1970.76
483.01	1788.29
483.22	2140.95
483.42	2138.49
483.63	1919.77
483.83	1954.79
484.04	2120.88
484.24	2387.11
484.45	2233.31
484.66	2090.98
484.86	2308.27
485.07	2012.54
485.27	1961.34
485.48	1895.60
485.68	2293.72
485.89	1960.11
486.09	1967.89
486.30	1908.09
486.50	2061.08
486.71	2043.46
486.91	1977.11
487.12	2471.69
487.33	3202.00
487.53	3467.83
487.74	3129.09
487.94	3055.57
488.15	2737.11
488.35	2551.56
488.56	2213.24
488.76	2103.47
488.97	2266.28
489.17	2284.10
489.38	2075.41
489.58	2047.97
489.79	2224.71
489.99	2140.74
490.20	1945.16
490.40	2025.24
490.61	2114.53
490.81	1954.99
491.02	1932.46
491.22	1927.14
491.43	2159.99
491.63	2004.96
491.84	2023.60
492.04	1795.66
492.25	2139.72
492.45	2043.05
492.66	1939.22
492.86	1891.09
493.07	2062.92
493.27	2455.92
493.48	1823.51
493.68	1879.63
493.89	2023.80
494.09	2170.23
494.30	1882.90
494.50	2101.42
494.71	2104.70
494.91	1816.34
495.12	1884.13
495.32	1934.31
495.53	2056.57
495.73	1899.29
495.94	2115.76
496.14	1996.77
496.35	2574.91
496.55	2207.30
496.76	1993.49
496.96	2003.73
497.17	2068.65
497.37	2128.66
497.58	1901.13
497.78	1829.25
497.98	1999.84
498.19	2016.84
498.39	1899.90
498.60	1907.48
498.80	1773.54
499.01	2124.56
499.21	1808.77
499.42	1893.55
499.62	1979.16
499.83	2369.70
500.03	1862.01
500.24	2126.41
500.44	2464.32
500.64	2451.62
500.85	2150.78
501.05	2177.40
501.26	1959.09
501.46	2321.78
501.67	1903.79
501.87	1860.78
502.08	1913.01
502.28	2007.83
502.48	1976.49
502.69	2024.01
502.89	1824.94
503.10	1914.44
503.30	1919.56
503.51	1925.30
503.71	1836.41
503.92	2107.36
504.12	1935.94
504.32	1863.24
504.53	2149.75
504.73	2144.22
504.94	2046.33
505.14	2154.26
505.35	2253.99
505.55	2257.89
505.75	2119.03
505.96	2252.15
506.16	2568.97
506.37	2113.09
506.57	1915.67
506.78	2038.34
506.98	2244.57
507.18	1887.82
507.39	1840.92
507.59	1936.35
507.80	1959.29
508.00	2081.35
508.20	2092.61
508.41	1941.88
508.61	2239.86
508.82	2175.35
509.02	2037.52
509.22	1846.24
509.43	1883.52
509.63	1958.47
509.84	1903.38
510.04	1748.76
510.24	2258.09
510.45	2135.83
510.65	1795.66
510.86	1919.77
511.06	1886.79
511.26	2128.66
511.47	2034.66
511.67	1836.21
511.88	2099.58
512.08	2154.67
512.28	1795.04
512.49	1968.30
512.69	2079.51
512.90	2078.48
513.10	1927.75
513.30	1935.33
513.51	2175.35
513.71	2395.10
513.91	2072.75
514.12	2082.37
514.32	2283.08
514.53	2067.83
514.73	2066.20
514.93	1946.18
515.14	2085.45
515.34	2266.08
515.54	1934.92
515.75	2009.06
515.95	2190.71
516.15	2297.82
516.36	1969.12
516.56	1960.73
516.77	1744.46
516.97	2119.65
517.17	1913.01
517.38	2001.07
517.58	2274.47
517.78	1977.93
517.99	2039.57
518.19	1959.91
518.39	2272.63
518.60	2022.78
518.80	1882.08
519.00	1983.05
519.21	2002.30
519.41	2318.51
519.61	1843.99
519.82	1985.10
520.02	2059.85
520.22	2013.36
520.43	1882.08
520.63	1885.77
520.83	1908.30
521.04	1790.54
521.24	1990.01
521.44	1895.80
521.65	1920.18
521.85	2121.49
522.05	1836.21
522.26	1851.77
522.46	2307.04
522.66	2171.46
522.87	1883.93
523.07	2049.40
523.27	1934.51
523.48	2219.38
523.68	1921.20
523.88	1929.19
524.09	2199.11
524.29	2077.25
524.49	1764.53
524.70	1978.54
524.90	2253.58
525.10	2091.39
525.31	1795.86
525.51	1913.83
525.71	2161.43
525.91	2098.55
526.12	1871.23
526.32	1806.51
526.52	1952.53
526.73	1918.54
526.93	1954.17
527.13	1758.80
527.34	1981.20
527.54	2032.81
527.74	1888.23
527.94	1814.71
528.15	1883.11
528.35	1996.77
528.55	2002.09
528.76	1937.58
528.96	1782.55
529.16	2184.16
529.36	2018.07
529.57	1794.02
529.77	2194.19
529.97	1859.35
530.18	1963.80
530.38	1865.49
530.58	2071.11
530.78	2024.21
530.99	1871.84
531.19	1981.41
531.39	1926.32
531.60	2006.39
531.80	1935.13
532.00	2045.51
532.20	2063.53
532.41	1926.93
532.61	1870.41
532.81	1863.45
533.01	1977.93
533.22	2094.05
533.42	2035.89
533.62	1771.29
533.82	2225.73
534.03	2010.08
534.23	2007.01
534.43	1867.13
534.63	1952.74
534.84	2061.69
535.04	2009.26
535.24	1947.82
535.44	2456.13
535.65	1966.46
535.85	1875.73
536.05	1865.70
536.25	2026.47
536.46	1903.59
536.66	2079.10
536.86	1964.82
537.06	2137.06
537.27	2226.55
537.47	1981.82
537.67	1883.52
537.87	2246.21
538.08	2020.12
538.28	1817.78
538.48	1801.19
538.68	2016.84
538.88	2141.56
539.09	1749.78
539.29	1884.54
539.49	2147.30
539.69	2098.76
539.90	1996.77
540.10	1816.75
540.30	2247.24
540.50	1949.87
540.70	1773.54
540.91	1867.54
541.11	2151.19
541.31	2306.63
541.51	2013.97
541.72	2021.35
541.92	2096.71
542.12	1955.20
542.32	1927.14
542.52	1892.12
542.73	1921.20
542.93	2105.31
543.13	1919.97
543.33	2019.09
543.53	2128.66
543.74	2143.40
543.94	1914.24
544.14	2035.89
544.34	2252.15
544.54	2082.58
544.75	2062.30
544.95	2161.22
545.15	2230.03
545.35	2351.07
545.55	2083.19
545.75	1925.71
545.96	2393.26
546.16	1904.82
546.36	1969.33
546.56	1991.04
546.76	2222.66
546.97	2328.95
547.17	1951.71
547.37	2021.35
547.57	1972.19
547.77	2157.74
547.97	1980.59
548.18	1975.88
548.38	2005.37
548.58	2281.03
548.78	1901.54
548.98	2049.20
549.18	2249.90
549.39	2363.56
549.59	2104.29
549.79	2006.19
549.99	2300.69
550.19	2225.73
550.39	2112.89
550.60	1993.08
550.80	2074.18
551.00	2146.07
551.20	1908.50
551.40	1940.86
551.60	2119.44
551.80	2063.33
552.01	2024.01
552.21	1948.85
552.41	2079.71
552.61	2322.40
552.81	1996.97
553.01	1865.90
553.21	2116.99
553.42	1922.02
553.62	1916.69
553.82	1849.32
554.02	2260.34
554.22	2156.92
554.42	1841.94
554.62	2042.44
554.83	2331.61
555.03	2349.02
555.23	2067.83
555.43	2310.31
555.63	2207.92
555.83	2162.25
556.03	2086.27
556.23	1890.68
556.44	2129.68
556.64	2284.30
556.84	1755.93
557.04	1979.77
557.24	2098.14
557.44	2065.79
557.64	1997.18
557.84	1854.64
558.04	1984.89
558.25	2139.10
558.45	1843.38
558.65	1952.74
558.85	2037.73
559.05	1805.28
559.25	1895.80
559.45	2009.67
559.65	2408.62
559.85	2889.89
560.05	2094.05
560.26	2161.02
560.46	2149.34
560.66	2087.70
560.86	1998.20
561.06	1930.82
561.26	2289.42
561.46	2140.54
561.66	1939.84
561.86	2051.45
562.06	1899.90
562.26	2004.55
562.47	1950.49
562.67	1815.73
562.87	2114.94
563.07	1816.34
563.27	1945.98
563.47	1920.38
563.67	1954.79
563.87	2091.18
564.07	1908.71
564.27	1959.70
564.47	2077.46
564.67	2161.22
564.87	1955.61
565.08	2031.79
565.28	2002.50
565.48	2129.68
565.68	2021.35
565.88	2051.25
566.08	2348.61
566.28	2029.74
566.48	1818.39
566.68	1956.22
566.88	1993.49
567.08	2176.58
567.28	1949.26
567.48	1957.86
567.68	2112.48
567.88	1861.81
568.08	1980.39
568.28	2070.50
568.48	2028.10
568.68	2192.76
568.89	1986.94
569.09	1815.93
569.29	2135.21
569.49	2142.79
569.69	1854.44
569.89	1856.28
570.09	1764.94
570.29	1938.81
570.49	1813.07
570.69	1875.32
570.89	2148.93
571.09	2336.94
571.29	1828.63
571.49	2062.92
571.69	2086.27
571.89	2089.34
572.09	1916.90
572.29	1975.68
572.49	2169.00
572.69	2154.05
572.89	1975.68
573.09	1692.24
573.29	2066.40
573.49	2070.70
573.69	1928.98
573.89	2019.30
574.09	1946.39
574.29	2228.39
574.49	1921.61
574.69	1911.78
574.89	1868.16
575.09	1881.67
575.29	1840.30
575.49	1948.03
575.69	2079.51
575.89	1848.91
576.09	1941.27
576.29	1950.49
576.49	1891.30
576.69	1994.72
576.89	1908.71
577.09	1979.16
577.29	1820.03
577.49	2331.61
577.69	1885.77
577.89	2033.43
578.09	2024.83
578.29	1776.41
578.49	1937.99
578.69	1849.52
578.89	2164.29
579.09	2050.22
579.29	1834.78
579.49	2085.65
579.69	1969.94
579.89	2292.29
580.09	1741.39
580.29	1776.00
580.49	1932.05
580.69	1876.55
580.89	1872.05
581.09	1900.92
581.29	1951.10
581.49	2017.66
581.69	1807.54
581.89	1875.32
582.09	1897.24
582.28	1905.63
582.48	2054.93
582.68	2072.75
582.88	2250.51
583.08	2004.76
583.28	1943.52
583.48	1954.38
583.68	1900.11
583.88	2034.86
584.08	1944.34
584.28	1972.40
584.48	2345.13
584.68	2121.08
584.88	1959.91
585.08	2133.57
585.28	2178.01
585.48	2265.67
585.68	2011.92
585.87	2068.45
586.07	2111.05
586.27	2063.74
586.47	2044.49
586.67	1970.35
586.87	2054.32
587.07	1979.16
587.27	1829.45
587.47	2026.47
587.67	2357.62
587.87	2564.06
588.07	2138.69
588.27	2030.56
588.46	2307.86
588.66	2310.93
588.86	2032.61
589.06	2086.68
589.26	2248.67
589.46	2194.81
589.66	1890.89
589.86	1869.39
590.06	2030.36
590.26	2193.37
590.46	2012.33
590.66	2143.20
590.85	2075.82
591.05	2211.19
591.25	1959.29
591.45	2029.54
591.65	2206.89
591.85	2126.00
592.05	1931.03
592.25	2092.61
592.45	2273.45
592.64	2077.66
592.84	2000.66
593.04	1904.41
593.24	2480.70
593.44	1991.24
593.64	2023.19
593.84	2033.02
594.04	1984.07
594.24	2305.40
594.43	1904.20
594.63	1940.66
594.83	2180.88
595.03	2177.20
595.23	1871.84
595.43	1807.13
595.63	1911.37
595.83	2169.82
596.02	1725.21
596.22	1911.16
596.42	2063.33
596.62	2007.42
596.82	1903.59
597.02	2003.53
597.22	2233.51
597.41	2054.11
597.61	1905.43
597.81	2081.15
598.01	2178.42
598.21	1981.61
598.41	1865.29
598.61	1877.17
598.80	2072.54
599.00	2063.94
599.20	2101.22
599.40	1940.45
599.60	2036.91
599.80	2187.03
599.99	2105.52
600.19	1941.47
600.39	2078.69
600.59	2116.99
600.79	2049.40
600.99	1979.57
601.19	2322.60
601.38	2402.06
601.58	2025.65
601.78	1730.33
601.98	2172.28
602.18	2309.90
602.37	2513.27
602.57	2363.56
602.77	2610.75
602.97	2543.78
603.17	2537.64
603.37	2413.53
603.56	2577.57
603.76	2478.66
603.96	2327.72
604.16	2314.00
604.36	2495.65
604.56	2362.33
604.75	2073.77
604.95	2123.54
605.15	2385.68
605.35	2335.30
605.55	2028.51
605.74	2001.89
605.94	2291.68
606.14	2138.49
606.34	2016.84
606.54	2009.67
606.73	2002.30
606.93	2162.25
607.13	1899.90
607.33	1987.35
607.53	2260.34
607.72	2195.01
607.92	2023.19
608.12	2099.58
608.32	2007.01
608.51	2128.45
608.71	1846.04
608.91	2007.42
609.11	2153.85
609.31	2001.89
609.50	1956.83
609.70	2217.54
609.90	2243.14
610.10	2252.15
610.29	1968.30
610.49	1890.48
610.69	2208.73
610.89	2109.82
611.09	2034.25
611.28	2168.39
611.48	2216.93
611.68	2045.31
611.88	1916.69
612.07	1892.12
612.27	2190.71
612.47	1952.12
612.67	2002.30
612.86	2056.78
613.06	2034.45
613.26	1821.46
613.46	1900.11
613.65	1981.61
613.85	2519.00
614.05	2147.50
614.25	2090.57
614.44	1959.29
614.64	2056.98
614.84	1938.40
615.04	1896.21
615.23	1907.27
615.43	2122.92
615.63	2147.91
615.83	1892.73
616.02	1790.33
616.22	2179.65
616.42	1893.55
616.62	1886.59
616.81	2017.45
617.01	2142.99
617.21	2049.81
617.41	1873.89
617.60	1992.26
617.80	2128.86
618.00	2123.95
618.19	2038.75
618.39	1951.30
618.59	2107.77
618.79	2008.24
618.98	1741.39
619.18	1934.31
619.38	2367.25
619.57	1985.10
619.77	1919.56
619.97	1907.48
620.17	1910.35
620.36	1841.94
620.56	2054.32
620.76	1853.62
620.95	1858.94
621.15	1976.29
621.35	1851.36
621.54	1917.51
621.74	2047.76
621.94	1895.19
622.14	1822.28
622.33	1774.97
622.53	1982.64
622.73	1951.92
622.92	1767.81
623.12	1932.26
623.32	2321.99
623.51	2131.32
623.71	1808.56
623.91	2097.73
624.10	1886.79
624.30	2067.22
624.50	1800.78
624.69	1795.45
624.89	2618.53
625.09	1976.49
625.29	1714.76
625.48	1820.03
625.68	2016.02
625.88	2199.72
626.07	1983.66
626.27	1851.36
626.47	1932.46
626.66	1796.27
626.86	1926.32
627.06	1915.47
627.25	1973.63
627.45	2279.18
627.64	1899.29
627.84	2069.68
628.04	1910.96
628.23	2323.01
628.43	1825.97
628.63	1839.08
628.82	1931.03
629.02	2312.36
629.22	2028.92
629.41	2090.77
629.61	2066.61
629.81	2371.75
630.00	1928.16
630.20	1885.56
630.40	2061.08
630.59	2158.35
630.79	1959.50
630.98	1906.66
631.18	1990.22
631.38	2036.50
631.57	2068.04
631.77	1807.13
631.97	2038.75
632.16	2069.68
632.36	1919.56
632.56	1932.05
632.75	2035.27
632.95	2167.77
633.14	1778.87
633.34	2078.48
633.54	1713.95
633.73	1957.86
633.93	1893.76
634.12	1751.42
634.32	2464.32
634.52	2004.35
634.71	1791.56
634.91	1950.90
635.11	1841.74
635.30	1905.63
635.50	1974.65
635.69	1848.29
635.89	2332.23
636.09	2179.04
636.28	1864.47
636.48	1883.93
636.67	2152.42
636.87	2140.54
637.07	2008.24
637.26	1882.90
637.46	2101.63
637.65	2213.44
637.85	2046.74
638.04	1933.28
638.24	2010.08
638.44	2138.28
638.63	1979.77
638.83	1938.40
639.02	2101.42
639.22	2140.54
639.42	1905.43
639.61	1935.54
639.81	2070.91
640.00	2020.32
640.20	2061.89
640.39	2028.51
640.59	2437.08
640.79	2360.90
640.98	2238.43
641.18	2191.94
641.37	2275.29
641.57	2160.40
641.76	2153.03
641.96	1906.86
642.15	2153.64
642.35	2047.97
642.55	2078.89
642.74	1902.36
642.94	2187.03
643.13	2297.00
643.33	1933.28
643.52	1895.40
643.72	1980.80
643.91	2014.18
644.11	1883.52
644.31	1881.67
644.50	1923.45
644.70	2233.31
644.89	1946.59
645.09	2007.01
645.28	2038.96
645.48	2082.37
645.67	1862.83
645.87	1769.65
646.06	1982.43
646.26	2094.87
646.45	1740.16
646.65	1722.96
646.84	2345.54
647.04	1962.16
647.24	1810.40
647.43	1931.44
647.63	2070.09
647.82	2276.73
648.02	1814.30
648.21	1910.35
648.41	2267.92
648.60	1987.35
648.80	2074.39
648.99	1967.89
649.19	1941.27
649.38	1789.52
649.58	1941.47
649.77	2002.71
649.97	2208.73
650.16	2099.78
650.36	1727.67
650.55	2056.16
650.75	2079.92
650.94	2283.49
651.14	1948.64
651.33	2027.28
651.53	2290.45
651.72	1944.34
651.92	1949.05
652.11	1778.25
652.31	2145.66
652.50	2086.47
652.70	1967.89
652.89	1832.93
653.09	2273.25
653.28	2040.19
653.48	1734.42
653.67	1776.82
653.87	2546.65
654.06	2057.18
654.25	2165.73
654.45	1898.26
654.64	1964.41
654.84	2001.28
655.03	1748.97
655.23	2051.66
655.42	2137.67
655.62	2321.99
655.81	2057.39
656.01	1888.64
656.20	2188.46
656.40	2292.50
656.59	1994.11
656.79	2058.41
656.98	2082.37
657.17	2157.94
657.37	1935.33
657.56	1930.42
657.76	2068.86
657.95	2205.66
658.15	1624.86
658.34	1972.60
658.54	2016.63
658.73	1865.90
658.92	1910.75
659.12	1966.66
659.31	2139.31
659.51	1901.74
659.70	2012.33
659.90	1900.51
660.09	2199.72
660.29	2083.19
660.48	1879.42
660.67	2092.41
660.87	1931.03
661.06	2100.60
661.26	2028.10
661.45	2061.89
661.65	2110.02
661.84	1977.11
662.03	1872.87
662.23	1885.16
662.42	2345.33
662.62	1871.43
662.81	1849.32
663.00	1919.97
663.20	2091.18
663.39	2240.07
663.59	2182.93
663.78	2046.74
663.97	2148.52
664.17	2316.05
664.36	1872.05
664.56	1948.64
664.75	2248.87
664.94	2187.44
665.14	2059.03
665.33	2007.62
665.53	2092.41
665.72	2070.50
665.91	2099.99
666.11	2002.30
666.30	2087.49
666.50	2064.76
666.69	2082.37
666.88	2022.98
667.08	2237.41
667.27	2181.29
667.47	2137.67
667.66	2059.64
667.85	2323.22
668.05	2191.53
668.24	1990.22
668.43	2198.29
668.63	2075.21
668.82	2305.60
669.02	2111.25
669.21	1975.88
669.40	1904.20
669.60	2368.07
669.79	1802.21
669.98	2502.62
670.18	1893.96
670.37	1872.46
670.56	1904.41
670.76	1986.73
670.95	1978.54
671.15	2184.98
671.34	1972.19
671.53	1931.64
671.73	1920.38
671.92	1936.15
672.11	1810.81
672.31	1878.60
672.50	2062.30
672.69	1812.66
672.89	1693.26
673.08	1888.84
673.27	2130.09
673.47	2049.20
673.66	1963.59
673.85	1799.55
674.05	2111.25
674.24	2249.28
674.43	2198.08
674.63	2476.81
674.82	2941.91
675.01	2277.75
675.21	2464.12
675.40	2251.54
675.59	2269.15
675.79	2547.06
675.98	2141.15
676.17	2271.40
676.37	2280.82
676.56	2111.05
676.75	2061.08
676.95	2019.91
677.14	2026.47
677.33	2238.23
677.52	1815.93
677.72	1863.24
677.91	2069.47
678.10	1820.03
678.30	1819.21
678.49	1792.79
678.68	2352.91
678.88	1739.75
679.07	2043.26
679.26	1849.11
679.45	2297.00
679.65	2211.40
679.84	1728.49
680.03	1752.45
680.23	1947.62
680.42	2432.37
680.61	1779.28
680.81	1864.68
681.00	2001.07
681.19	2055.96
681.38	2010.29
681.58	1974.65
681.77	1958.68
681.96	2152.82
682.15	1820.64
682.35	1967.48
682.54	2068.86
682.73	1842.97
682.93	1836.00
683.12	1816.96
683.31	2124.56
683.50	2455.10
683.70	1849.32
683.89	1950.08
684.08	1851.77
684.27	2161.22
684.47	1755.93
684.66	1914.44
684.85	2332.23
685.04	2206.48
685.24	1865.49
685.43	1894.58
685.62	1769.85
685.81	2099.78
686.01	2133.16
686.20	2108.59
686.39	2180.47
686.58	2778.27
686.78	2444.05
686.97	2363.77
687.16	2438.11
687.35	2331.82
687.55	2156.10
687.74	2168.18
687.93	2068.45
688.12	2175.76
688.32	2121.70
688.51	1920.18
688.70	2159.17
688.89	1913.62
689.08	1818.39
689.28	1874.30
689.47	2027.69
689.66	2029.33
689.85	2011.92
690.05	1854.44
690.24	1916.69
690.43	2015.00
690.62	1956.42
690.81	1845.63
691.01	2017.86
691.20	1959.91
691.39	1795.45
691.58	1946.80
691.77	2277.14
691.97	2000.66
692.16	1988.99
692.35	1896.42
692.54	1942.09
692.73	2158.97
692.93	2061.69
693.12	2113.91
693.31	2227.58
693.50	2183.95
693.69	2123.54
693.89	1968.51
694.08	2306.63
694.27	2296.18
694.46	1953.35
694.65	2003.53
694.85	2194.40
695.04	2212.42
695.23	2349.02
695.42	3818.03
695.61	5151.26
695.80	6014.27
696.00	6789.22
696.19	7146.39
696.38	6212.92
696.57	5185.66
696.76	4954.45
696.95	4546.90
697.15	4535.43
697.34	4201.61
697.53	3614.87
697.72	3485.85
697.91	3153.67
698.10	3100.62
698.30	2488.49
698.49	2272.22
698.68	2242.53
698.87	2090.77
699.06	1883.31
699.25	1969.12
699.45	2222.46
699.64	2089.54
699.83	2094.05
700.02	1843.17
700.21	2098.14
700.40	1919.56
700.59	1884.75
700.79	1901.33
700.98	2112.48
701.17	1896.62
701.36	1853.62
701.55	1878.19
701.74	2225.73
701.93	1979.98
702.12	2147.30
702.32	2139.92
702.51	2549.11
702.70	2489.10
702.89	2262.60
703.08	2105.11
703.27	2410.05
703.46	2245.19
703.65	2015.61
703.85	1945.98
704.04	2013.56
704.23	2278.98
704.42	1896.01
704.61	1919.56
704.80	2270.99
704.99	1915.06
705.18	1971.78
705.37	2136.85
705.57	3219.61
705.76	4570.66
705.95	4905.70
706.14	5952.01
706.33	6477.73
706.52	6321.87
706.71	4828.50
706.90	4501.23
707.09	4369.34
707.28	4083.85
707.47	3603.81
707.67	3563.26
707.86	3211.42
708.05	3309.93
708.24	2772.74
708.43	2508.35
708.62	2327.93
708.81	2088.52
709.00	1934.72
709.19	1917.51
709.38	2170.64
709.57	1882.49
709.76	1962.98
709.96	1889.05
710.15	2266.08
710.34	2062.10
710.53	2066.61
710.72	1929.39
710.91	2190.92
711.10	2100.81
711.29	1993.29
711.48	1891.71
711.67	1877.58
711.86	2116.99
712.05	1807.54
712.24	1845.83
712.43	2147.50
712.62	2223.68
712.81	1904.82
713.00	2078.48
713.19	1843.79
713.39	2099.17
713.58	1947.21
713.77	2215.90
713.96	2440.97
714.15	2376.46
714.34	2341.24
714.53	2151.60
714.72	2599.28
714.91	2128.45
715.10	2193.58
715.29	2049.81
715.48	2673.42
715.67	2287.17
715.86	2092.20
716.05	2013.77
716.24	2054.73
716.43	1983.66
716.62	1832.73
716.81	1793.41
717.00	1973.22
717.19	2211.81
717.38	1894.58
717.57	1848.29
717.76	1785.83
717.95	2133.98
718.14	1902.77
718.33	1877.37
718.52	1737.09
718.71	1766.37
718.90	1817.16
719.09	1860.37
719.28	1990.01
719.47	2173.30
719.66	2028.72
719.85	2049.81
720.04	2036.70
720.23	2084.01
720.42	1941.88
720.61	2043.05
720.80	1835.59
720.99	2062.30
721.18	1906.25
721.37	1856.28
721.56	1972.81
721.75	2141.15
721.94	1835.80
722.13	1917.92
722.32	1982.84
722.51	2141.97
722.70	1981.82
722.89	2000.05
723.08	2008.85
723.27	2132.14
723.46	1971.17
723.65	1921.61
723.84	1920.59
724.03	2229.62
724.22	1805.28
724.41	1927.55
724.60	1975.06
724.79	2141.15
724.98	1982.23
725.16	1875.94
725.35	2110.64
725.54	1885.56
725.73	1933.28
725.92	2021.55
726.11	2254.20
726.30	2787.70
726.49	2649.87
726.68	2911.60
726.87	3195.24
727.06	3276.75
727.25	2642.49
727.44	2669.94
727.63	2628.36
727.82	2539.89
728.01	2478.86
728.20	2420.90
728.38	2598.46
728.57	2310.11
728.76	2170.23
728.95	2232.70
729.14	1973.42
729.33	1938.20
729.52	1764.73
729.71	1868.77
729.90	1897.65
730.09	2012.54
730.28	1938.20
730.47	1957.86
730.66	2303.96
730.84	2158.56
731.03	2073.16
731.22	2064.35
731.41	2117.80
731.60	2168.59
731.79	1812.86
731.98	1911.98
732.17	2183.13
732.36	2134.60
732.55	1909.53
732.73	1822.28
732.92	2256.25
733.11	2138.90
733.30	1875.12
733.49	1826.17
733.68	2146.07
733.87	2122.31
734.06	1863.65
734.25	1954.17
734.43	2072.54
734.62	2241.50
734.81	2123.95
735.00	2054.73
735.19	2141.15
735.38	2221.84
735.57	1916.90
735.76	2124.36
735.94	2236.38
736.13	2689.80
736.32	2455.31
736.51	2466.16
736.70	2931.05
736.89	3041.03
737.08	3209.58
737.27	4923.11
737.45	7252.68
737.64	8225.46
737.83	9463.25
738.02	9959.07
738.21	9335.67
738.40	7436.99
738.59	6716.72
738.77	6216.20
738.96	5813.77
739.15	5547.13
739.34	5055.82
739.53	4642.34
739.72	4469.90
739.90	4007.06
740.09	3226.37
740.28	2955.63
740.47	2812.07
740.66	2535.39
740.85	2126.41
741.03	2130.71
741.22	1995.34
741.41	2059.44
741.60	1872.66
741.79	2081.35
741.98	2293.72
742.16	2411.07
742.35	2055.96
742.54	2082.99
742.73	2498.73
742.92	2174.94
743.10	1997.38
743.29	2085.24
743.48	2588.02
743.67	2109.82
743.86	1916.69
744.05	1962.57
744.23	2010.90
744.42	2002.71
744.61	2032.61
744.80	1904.61
744.99	2070.91
745.17	1859.97
745.36	1861.60
745.55	2097.94
745.74	2128.66
745.93	2036.30
746.11	1961.75
746.30	1926.52
746.49	2315.84
746.68	1987.96
746.86	2060.26
747.05	2012.33
747.24	2232.90
747.43	2239.25
747.62	1906.04
747.80	1979.77
747.99	2359.67
748.18	2330.79
748.37	2133.16
748.56	2150.57
748.74	2356.39
748.93	2501.59
749.12	4131.98
749.31	8977.07
749.49	13012.38
749.68	15755.64
749.87	18089.71
750.06	19059.01
750.24	17888.39
750.43	17080.26
750.62	18484.35
750.81	19141.75
750.99	19643.91
751.18	19039.56
751.37	15808.07
751.56	13319.99
751.74	12835.85
751.93	11512.45
752.12	9384.20
752.31	8024.35
752.49	6940.57
752.68	6306.31
752.87	5177.26
753.06	4456.58
753.24	3889.50
753.43	3503.26
753.62	2721.14
753.81	2443.23
753.99	2596.82
754.18	2367.45
754.37	2039.98
754.55	2070.70
754.74	2423.98
754.93	1889.87
755.12	1961.75
755.30	1909.73
755.49	2246.42
755.68	2141.56
755.86	2059.64
756.05	1882.70
756.24	2298.03
756.43	1914.03
756.61	1892.12
756.80	2012.74
756.99	2294.13
757.17	2056.16
757.36	1895.40
757.55	1963.39
757.74	2129.89
757.92	2089.75
758.11	1879.01
758.30	1768.83
758.48	2022.37
758.67	1915.47
758.86	2028.92
759.04	1952.94
759.23	2068.65
759.42	2156.31
759.60	1987.76
759.79	2009.06
759.98	2039.16
760.16	1965.03
760.35	1927.14
760.54	1887.61
760.73	2106.34
760.91	1872.66
761.10	1977.93
761.29	2029.33
761.47	2086.06
761.66	2451.83
761.85	2084.22
762.03	2605.63
762.22	5209.62
762.41	13382.45
762.59	21816.81
762.78	26371.49
762.97	32317.15
763.15	34336.86
763.34	30371.17
763.52	21984.33
763.71	20640.45
763.90	18617.88
764.08	17500.10
764.27	15958.80
764.46	14693.77
764.64	12872.30
764.83	11459.82
765.02	9973.61
765.20	8529.18
765.39	6846.56
765.58	4968.17
765.76	3991.08
765.95	3320.58
766.13	2832.14
766.32	2420.29
766.51	2269.76
766.69	2967.10
766.88	2285.53
767.07	1939.43
767.25	1811.02
767.44	2252.56
767.62	2280.62
767.81	1918.33
768.00	1950.69
768.18	2088.93
768.37	1953.56
768.56	1780.09
768.74	1905.84
768.93	1838.26
769.11	2079.71
769.30	1961.13
769.49	1893.35
769.67	1964.41
769.86	1964.21
770.04	1894.17
770.23	1857.51
770.42	2238.63
770.60	2031.38
770.79	1851.16
770.97	2062.71
771.16	3203.23
771.35	5155.97
771.53	6808.47
771.72	7913.56
771.90	9290.20
772.09	9845.61
772.27	8512.38
772.46	6456.22
772.65	6560.46
772.83	5991.54
773.02	5699.09
773.20	5142.86
773.39	5062.78
773.58	4654.83
773.76	4059.28
773.95	3706.41
774.13	3578.83
774.32	3084.24
774.50	2597.03
774.69	2434.22
774.87	2319.94
775.06	2567.95
775.25	1957.24
775.43	1957.45
775.62	2125.59
775.80	2144.22
775.99	1994.52
776.17	1905.23
776.36	2081.97
776.54	2255.84
776.73	1964.82
776.92	2045.72
777.10	2227.58
777.29	2127.23
777.47	1878.60
777.66	1936.15
777.84	2064.35
778.03	2022.37
778.21	1864.88
778.40	1971.78
778.58	2082.58
778.77	2171.26
778.95	1794.02
779.14	1856.89
779.32	2290.24
779.51	2147.30
779.70	1851.36
779.88	1771.90
780.07	1937.17
780.25	2416.40
780.44	1896.01
780.62	2020.53
780.81	2101.22
780.99	2060.87
781.18	1872.25
781.36	1843.38
781.55	1975.88
781.73	2272.02
781.92	1778.46
782.10	1784.19
782.29	2071.11
782.47	2276.32
782.66	1890.07
782.84	1757.77
783.03	1926.93
783.21	2221.64
783.40	1881.47
783.58	1849.32
783.77	1925.71
783.95	1988.58
784.14	1814.09
784.32	1942.50
784.51	2165.11
784.69	1892.94
784.88	1762.28
785.06	1884.54
785.24	1830.68
785.43	2159.79
785.61	1966.46
785.80	1848.09
785.98	2141.77
786.17	2036.70
786.35	1823.92
786.54	2000.46
786.72	2167.37
786.91	2205.46
787.09	1935.94
787.28	1820.44
787.46	2039.16
787.65	2168.18
787.83	1796.27
788.01	1948.03
788.20	1887.20
788.38	2077.46
788.57	1910.75
788.75	1928.37
788.94	2341.44
789.12	2271.40
789.31	2009.67
789.49	2057.39
789.67	1989.40
789.86	2131.94
790.04	1881.06
790.23	1761.05
790.41	2400.42
790.60	2028.72
790.78	1912.19
790.96	1925.71
791.15	2170.44
791.33	2010.08
791.52	1944.55
791.70	1834.98
791.89	2050.43
792.07	2165.32
792.25	1964.41
792.44	1819.42
792.62	2214.06
792.81	2008.85
792.99	1966.66
793.17	1968.30
793.36	2099.37
793.54	2987.37
793.73	4353.78
793.91	6114.83
794.10	7373.51
794.28	8521.80
794.46	8634.03
794.65	8246.56
794.83	6494.52
795.01	6119.33
795.20	5875.62
795.38	5461.93
795.57	5199.79
795.75	5017.11
795.93	4448.19
796.12	4140.38
796.30	4012.79
796.49	3715.22
796.67	3154.08
796.85	3043.28
797.04	2814.93
797.22	2665.64
797.40	2224.09
797.59	2244.78
797.77	2292.70
797.96	2147.91
798.14	2026.47
798.32	2046.13
798.51	2273.45
798.69	2455.10
798.87	2054.93
799.06	2033.43
799.24	2028.72
799.42	2861.42
799.61	3843.83
799.79	4648.68
799.98	5706.66
800.16	6279.48
800.34	7955.74
800.53	9798.10
800.71	10369.28
800.89	12228.22
801.08	12424.82
801.26	12276.34
801.44	10120.04
801.63	8358.78
801.81	8088.86
801.99	7354.87
802.18	6872.16
802.36	6541.42
802.54	5891.60
802.73	5084.29
802.91	4766.24
803.09	4305.65
803.28	3896.47
803.46	3501.21
803.64	3377.31
803.83	2641.88
804.01	2401.86
804.19	2205.66
804.38	2426.23
804.56	2335.91
804.74	2121.08
804.92	2124.77
805.11	2011.72
805.29	2308.88
805.47	1985.10
805.66	1907.89
805.84	1951.51
806.02	2294.13
806.21	1986.94
806.39	2191.74
806.57	2291.06
806.76	2287.17
806.94	2087.70
807.12	2031.99
807.30	2127.23
807.49	2295.77
807.67	2204.02
807.85	2247.03
808.04	2354.55
808.22	2490.94
808.40	1936.97
808.58	1886.79
808.77	2229.21
808.95	2581.26
809.13	3092.02
809.31	5929.48
809.50	8972.15
809.68	10508.33
809.86	11913.03
810.05	13160.66
810.23	15351.16
810.41	24145.35
810.59	41575.61
810.78	51286.67
810.96	60375.14
811.14	64476.81
811.32	63572.84
811.51	51086.38
811.69	40687.20
811.87	40044.34
812.05	34988.11
812.24	32663.67
812.42	30092.03
812.60	26625.64
812.78	22595.85
812.97	19109.80
813.15	16869.12
813.33	14265.74
813.51	11893.99
813.70	9266.44
813.88	7193.29
814.06	5561.87
814.24	4259.78
814.42	3272.04
814.61	3012.77
814.79	2952.97
814.97	2261.57
815.15	2247.65
815.34	2350.86
815.52	2393.46
815.70	1991.65
815.88	2036.30
816.06	2007.62
816.25	2039.37
816.43	1941.88
816.61	2067.22
816.79	2297.62
816.98	1858.74
817.16	1844.20
817.34	1847.68
817.52	2060.46
817.70	2271.61
817.89	1911.57
818.07	1821.67
818.25	1985.30
818.43	2043.26
818.61	1892.73
818.80	1832.11
818.98	2275.91
819.16	2029.54
819.34	1795.66
819.52	2107.97
819.70	1852.59
819.89	1991.85
820.07	1763.30
820.25	1720.91
820.43	2047.56
820.61	2146.48
820.80	1894.58
820.98	1774.16
821.16	1757.77
821.34	1803.03
821.52	1867.75
821.70	1949.67
821.89	2026.26
822.07	1940.66
822.25	1920.99
822.43	1820.85
822.61	2263.42
822.79	2075.00
822.98	1881.88
823.16	1713.95
823.34	2038.34
823.52	2166.14
823.70	1965.03
823.88	1722.75
824.06	2100.40
824.25	1974.04
824.43	1982.84
824.61	1786.65
824.79	1998.00
824.97	2061.89
825.15	2170.03
825.33	2995.77
825.52	4308.72
825.70	4847.75
825.88	5326.97
826.06	5786.33
826.24	6091.48
826.42	5391.48
826.60	4332.07
826.78	4386.95
826.97	4013.61
827.15	4110.27
827.33	3564.49
827.51	3536.64
827.69	3286.79
827.87	3179.47
828.05	2893.37
828.23	2602.15
828.41	2857.12
828.60	2647.00
828.78	2149.75
828.96	2238.84
829.14	2120.26
829.32	2094.46
829.50	1935.33
829.68	1930.42
829.86	1968.30
830.04	2102.85
830.22	1983.87
830.41	1789.92
830.59	1982.84
830.77	2102.24
830.95	1821.46
831.13	1817.37
831.31	1867.75
831.49	2115.55
831.67	2008.44
831.85	1971.17
832.03	1920.79
832.21	2087.08
832.39	1749.37
832.57	1809.38
832.76	2130.09
832.94	1939.63
833.12	1701.66
833.30	1833.96
833.48	2165.73
833.66	2050.84
833.84	1819.42
834.02	1863.24
834.20	2114.73
834.38	2110.02
834.56	1706.78
834.74	1785.62
834.92	1792.59
835.10	2256.04
835.28	1899.08
835.46	1897.44
835.64	1962.16
835.82	1862.83
836.01	2118.42
836.19	2038.14
836.37	1911.57
836.55	1837.85
836.73	1821.05
836.91	1762.69
837.09	2109.00
837.27	2238.23
837.45	1745.48
837.63	1783.37
837.81	1834.78
837.99	2014.79
838.17	1911.78
838.35	1825.97
838.53	2374.82
838.71	2111.87
838.89	1855.05
839.07	1875.12
839.25	2082.17
839.43	2251.13
839.61	2591.70
839.79	4485.46
839.97	6677.61
840.15	7867.89
840.33	8849.48
840.51	9431.72
840.69	9165.68
840.87	7391.32
841.05	6540.39
841.23	7298.55
841.41	9608.45
841.59	13811.09
841.77	15516.23
841.95	17174.88
842.13	18324.81
842.31	17416.54
842.49	13752.52
842.67	11483.17
842.85	11401.45
843.03	9803.83
843.21	9246.37
843.39	8467.74
843.57	7671.90
843.75	6836.32
843.93	5731.85
844.11	5094.94
844.29	4736.34
844.47	4265.10
844.65	3965.69
844.83	3430.55
845.01	3086.29
845.19	2922.66
845.36	2404.72
845.54	2275.70
845.72	2252.56
845.90	2240.48
846.08	1915.87
846.26	1947.82
846.44	2086.88
846.62	2096.92
846.80	1939.22
846.98	1842.15
847.16	1982.43
847.34	2034.86
847.52	1797.71
847.70	1755.52
847.88	1965.03
848.06	2222.25
848.24	1961.54
848.41	1763.10
848.59	2152.21
848.77	2027.28
848.95	1838.87
849.13	1825.56
849.31	2114.73
849.49	2010.29
849.67	1781.94
849.85	1769.24
850.03	2019.30
850.21	1996.16
850.39	1762.69
850.57	1965.23
850.74	2240.89
850.92	2411.48
851.10	2830.91
851.28	3672.62
851.46	4388.80
851.64	5086.95
851.82	4912.05
852.00	4987.42
852.18	4598.51
852.36	3960.98
852.53	3684.30
852.71	3555.68
852.89	3565.31
853.07	3407.82
853.25	3022.80
853.43	2805.92
853.61	2866.54
853.79	2713.97
853.97	2351.89
854.14	2305.60
854.32	2592.73
854.50	2435.24
854.68	2114.12
854.86	1990.83
855.04	1979.98
855.22	2145.45
855.40	1760.23
855.57	1821.46
855.75	2104.90
855.93	2009.47
856.11	1694.28
856.29	1813.27
856.47	1851.36
856.65	2001.28
856.82	1765.76
857.00	1718.86
857.18	1928.16
857.36	1887.00
857.54	1905.63
857.72	1975.68
857.89	2064.15
858.07	1986.94
858.25	1998.20
858.43	1717.43
858.61	1928.98
858.79	1956.01
858.97	1778.46
859.14	1886.59
859.32	1946.80
859.50	1929.39
859.68	1910.75
859.86	1808.56
860.03	2007.62
860.21	2066.61
860.39	1820.23
860.57	1949.46
860.75	2042.64
860.93	2279.59
861.10	2040.19
861.28	1798.32
861.46	2033.02
861.64	2064.56
861.82	1867.13
861.99	1951.10
862.17	2145.86
862.35	2129.89
862.53	1893.55
862.71	1857.92
862.88	2006.60
863.06	2065.17
863.24	1834.57
863.42	1786.65
863.60	1938.40
863.77	2060.87
863.95	1665.61
864.13	1858.74
864.31	1916.08
864.49	2093.84
864.66	1753.27
864.84	1774.16
865.02	2007.21
865.20	2414.76
865.37	1902.77
865.55	1808.36
865.73	1872.05
865.91	2299.46
866.09	2291.88
866.26	2317.69
866.44	2598.05
866.62	2456.13
866.80	2187.44
866.97	2169.21
867.15	2210.58
867.33	2251.95
867.51	2197.27
867.68	2096.71
867.86	2081.56
868.04	2036.70
868.22	1794.43
868.39	1900.92
868.57	2103.47
868.75	2270.58
868.93	1810.40
869.10	1848.29
869.28	2316.66
869.46	2209.35
869.64	1886.79
869.81	1833.75
869.99	2007.01
870.17	1990.83
870.35	1761.46
870.52	1788.90
870.70	2116.99
870.88	1867.95
871.05	1746.10
871.23	1642.27
871.41	1945.57
871.59	1969.12
871.76	1799.96
871.94	1755.72
872.12	1990.63
872.29	1777.84
872.47	1792.38
872.65	1734.02
872.83	1990.83
873.00	2164.50
873.18	1814.30
873.36	1781.94
873.53	2080.12
873.71	1744.25
873.89	1703.71
874.06	1802.21
874.24	2027.49
874.42	2162.86
874.60	1949.46
874.77	1883.11
874.95	1834.37
875.13	2127.02
875.30	1800.78
875.48	1769.45
875.66	2168.18
875.83	1862.01
876.01	1831.09
876.19	1921.81
876.36	1799.75
876.54	1974.86
876.72	1767.60
876.89	1896.01
877.07	2065.38
877.25	1671.55
877.42	1864.88
877.60	1846.45
877.78	2240.68
877.95	1898.88
878.13	1739.14
878.31	1919.36
878.48	2085.24
878.66	2060.46
878.84	1782.76
879.01	1817.16
879.19	2024.42
879.37	2059.44
879.54	1802.83
879.72	1698.38
879.90	1709.23
880.07	2069.68
880.25	1552.16
880.42	1942.50
880.60	1987.76
880.78	2052.68
880.95	1783.99
881.13	1837.85
881.31	1930.21
881.48	1895.80
881.66	1740.57
881.83	1887.61
882.01	1849.32
882.19	1747.74
882.36	1859.76
882.54	1804.67
882.72	2082.78
882.89	1981.82
883.07	1758.18
883.24	1779.48
883.42	2074.39
883.60	1956.63
883.77	1718.66
883.95	1788.70
884.12	2114.94
884.30	1985.10
884.48	1944.34
884.65	1854.23
884.83	1962.36
885.00	2012.33
885.18	1701.04
885.36	1810.40
885.53	2054.93
885.71	2166.96
885.88	1719.88
886.06	1796.27
886.23	2054.73
886.41	1910.35
886.59	1764.94
886.76	1746.10
886.94	2064.97
887.11	2397.35
887.29	1835.80
887.47	1706.78
887.64	2131.73
887.82	2175.35
887.99	1670.53
888.17	1806.31
888.34	1915.87
888.52	1795.86
888.69	1802.42
888.87	1721.93
889.05	1902.36
889.22	1883.72
889.40	1795.66
889.57	1998.61
889.75	2198.29
889.92	1906.04
890.10	1713.74
890.27	1824.33
890.45	1814.50
890.62	1693.87
890.80	1730.12
890.98	1666.43
891.15	2172.69
891.33	2103.26
891.50	1748.76
891.68	1687.32
891.85	2076.23
892.03	2050.84
892.20	1763.10
892.38	1716.40
892.55	2061.49
892.73	2058.00
892.90	1683.84
893.08	1797.09
893.25	1921.61
893.43	1872.05
893.60	1870.21
893.78	1614.21
893.95	2018.27
894.13	1920.38
894.30	1739.75
894.48	1795.25
894.65	2073.16
894.83	1984.28
895.00	1629.16
895.18	1656.60
895.35	2098.55
895.53	2056.57
895.70	1694.49
895.88	1901.54
896.05	2004.96
896.23	1749.58
896.40	1780.30
896.58	1830.06
896.75	2051.04
896.93	2147.50
897.10	1762.89
897.28	1673.80
897.45	1984.89
897.63	2048.17
897.80	1889.87
897.98	1769.45
898.15	1992.47
898.33	1843.79
898.50	1859.76
898.67	1806.72
898.85	1923.86
899.02	2027.90
899.20	2016.43
899.37	1805.69
899.55	1959.29
899.72	2135.21
899.90	1753.47
900.07	1740.16
900.25	2055.34
900.42	2116.78
900.59	1764.53
900.77	1918.95
900.94	2025.03
901.12	1982.02
901.29	1793.61
901.47	1927.34
901.64	2046.33
901.82	1949.67
901.99	1612.57
902.16	1738.93
902.34	2134.60
902.51	1988.58
902.69	1754.90
902.86	1844.81
903.03	2490.74
903.21	1948.64
903.38	1796.48
903.56	1765.55
903.73	2123.95
903.91	1893.55
904.08	1722.55
904.25	1634.07
904.43	1840.30
904.60	2090.16
904.78	1779.68
904.95	1734.42
905.12	1906.66
905.30	2233.51
905.47	1892.53
905.65	1933.08
905.82	1915.06
905.99	2039.37
906.17	1813.07
906.34	1763.92
906.52	1829.45
906.69	2043.05
906.86	1876.55
907.04	1870.61
907.21	2104.29
907.38	2107.77
907.56	1743.23
907.73	1760.23
907.91	2180.68
908.08	2136.65
908.25	1793.82
908.43	1701.25
908.60	2048.17
908.77	2023.60
908.95	1828.02
909.12	1748.56
909.30	2089.95
909.47	1778.46
909.64	1835.18
909.82	1989.40
909.99	1931.44
910.16	1978.13
910.34	1771.70
910.51	1800.37
910.68	2026.26
910.86	1984.28
911.03	1926.32
911.20	2713.35
911.38	5129.55
911.55	8214.61
911.72	9581.22
911.90	10699.41
912.07	11706.80
912.24	11374.42
912.42	8552.11
912.59	6084.31
912.76	5793.70
912.94	4855.73
913.11	4199.36
913.28	3753.93
913.46	3634.73
913.63	3530.08
913.80	3511.04
913.98	3038.57
914.15	3251.36
914.32	3185.62
914.49	2869.41
914.67	2651.71
914.84	2912.62
915.01	2973.65
915.19	2692.87
915.36	2443.02
915.53	2601.94
915.71	2411.69
915.88	2141.56
916.05	1961.13
916.22	2216.52
916.40	2058.41
916.57	1758.18
916.74	1935.33
916.92	2213.65
917.09	1873.69
917.26	1768.83
917.43	1709.85
917.61	1918.74
917.78	1737.09
917.95	1725.00
918.13	1710.26
918.30	2340.21
918.47	1960.73
918.64	1780.50
918.82	1736.47
918.99	1971.17
919.16	2245.39
919.33	1854.44
919.51	1831.91
919.68	1976.29
919.85	2150.16
920.02	1701.66
920.20	1831.91
920.37	2203.41
920.54	2076.64
920.71	1748.76
920.89	1793.82
921.06	2265.87
921.23	1871.02
921.40	1919.56
921.58	2546.44
921.75	3567.15
921.92	3172.51
922.09	3379.97
922.27	3348.84
922.44	3316.48
922.61	2908.53
922.78	2369.09
922.96	2298.64
923.13	2270.38
923.30	2451.83
923.47	1983.25
923.64	2051.04
923.82	2262.80
923.99	2212.83
924.16	2075.00
924.33	1910.96
924.50	2128.66
924.68	2369.30
924.85	1874.71
925.02	1958.06
925.19	2240.27
925.36	2120.67
925.54	1962.57
925.71	1911.16
925.88	2510.40
926.05	1967.69
926.22	1756.34
926.40	1873.69
926.57	2015.20
926.74	2077.46
926.91	1774.16
927.08	1930.82
927.26	2118.42
927.43	1962.57
927.60	1748.15
927.77	1789.31
927.94	2192.76
928.11	2155.90
928.29	1657.83
928.46	1839.69
928.63	1861.40
928.80	1915.47
928.97	1874.30
929.14	1756.95
929.32	2290.24
929.49	1977.11
929.66	1732.79
929.83	1679.13
930.00	1890.68
930.17	1976.29
930.35	1716.81
930.52	1742.00
930.69	2175.97
930.86	1796.68
931.03	1849.93
931.20	1590.66
931.37	2129.89
931.55	1916.90
931.72	1829.25
931.89	1675.44
932.06	1801.60
932.23	2190.51
932.40	1891.71
932.57	1907.68
932.74	2127.23
932.92	2135.21
933.09	1909.53
933.26	1538.02
933.43	1882.29
933.60	1977.31
933.77	1840.51
933.94	1866.11
934.11	1905.84
934.29	1992.06
934.46	1744.25
934.63	1904.41
934.80	1799.55
934.97	1995.13
935.14	1886.18
935.31	1725.41
935.48	1896.83
935.65	2040.19
935.82	1833.75
936.00	1726.03
936.17	2196.86
936.34	1911.16
936.51	1883.11
936.68	1678.92
936.85	1979.77
937.02	1981.20
937.19	1889.66
937.36	1783.37
937.53	2018.68
937.70	2052.47
937.87	1774.16
938.05	1899.70
938.22	1978.34
938.39	1806.51
938.56	1788.08
938.73	1689.16
938.90	1893.76
939.07	1844.20
939.24	1855.46
939.41	1640.01
939.58	1993.49
939.75	2002.09
939.92	1723.37
940.09	2002.09
940.26	1923.66
940.43	2053.70
940.60	1755.52
940.77	1765.35
940.95	2007.62
941.12	2064.15
941.29	1752.24
941.46	1781.32
941.63	2132.75
941.80	2185.80
941.97	1689.98
942.14	1643.49
942.31	2034.86
942.48	1931.85
942.65	1874.30
942.82	1792.38
942.99	2026.26
943.16	1951.71
943.33	1667.46
943.50	1743.23
943.67	2045.92
943.84	2117.19
944.01	1756.95
944.18	1716.81
944.35	2146.89
944.52	1812.25
944.69	1823.10
944.86	1664.38
945.03	2063.12
945.20	2326.70
945.37	1614.41
945.54	1812.45
945.71	2170.64
945.88	2219.59
946.05	1714.15
946.22	1690.39
946.39	2145.86
946.56	1923.25
946.73	1645.34
946.90	1722.55
947.07	1849.11
947.24	1936.15
947.41	1622.40
947.58	1854.64
947.75	2040.60
947.92	1993.08
948.09	1564.44
948.26	1670.53
948.43	1974.86
948.60	2260.96
948.77	1742.21
948.94	1776.20
949.11	2033.22
949.27	1994.93
949.44	1737.70
949.61	1667.46
949.78	1978.54
949.95	2110.23
950.12	1684.25
950.29	1648.41
950.46	1879.01
950.63	2113.50
950.80	1729.51
950.97	1786.03
951.14	2083.81
951.31	1924.07
951.48	1693.87
951.65	1663.77
951.82	2237.00
951.99	1972.40
952.15	1665.41
952.32	1760.23
952.49	1816.14
952.66	1854.64
952.83	1731.35
953.00	1684.25
953.17	1903.18
953.34	2065.79
953.51	1802.01
953.68	1791.97
953.85	2105.31
954.02	2081.56
954.18	1789.11
954.35	1759.41
954.52	1813.48
954.69	1973.83
954.86	1655.78
955.03	1778.66
955.20	2047.97
955.37	1931.23
955.54	1726.44
955.71	1719.06
955.87	2004.96
956.04	2239.04
956.21	1732.38
956.38	1700.02
956.55	1948.23
956.72	2344.31
956.89	1818.80
957.06	1707.60
957.23	1870.00
957.39	2128.86
957.56	1764.94
957.73	1686.91
957.90	1632.64
958.07	2242.32
958.24	1758.59
958.41	1781.53
958.57	2073.77
958.74	1938.81
958.91	1685.48
959.08	1701.25
959.25	2051.25
959.42	1904.82
959.59	1802.62
959.75	1754.49
959.92	2114.94
960.09	2096.10
960.26	1725.21
960.43	1802.42
960.60	1988.37
960.76	1906.25
960.93	1642.06
961.10	1834.16
961.27	2086.06
961.44	1911.78
961.61	1665.82
961.77	1672.58
961.94	1968.51
962.11	2081.97
962.28	1742.82
962.45	1668.68
962.62	1887.61
962.78	2085.45
962.95	1639.60
963.12	1727.46
963.29	2080.94
963.46	2395.92
963.62	1820.85
963.79	1740.77
963.96	2366.84
964.13	1901.95
964.30	1831.70
964.46	1757.16
964.63	1849.73
964.80	2512.04
964.97	1930.01
965.14	2304.78
965.30	2568.56
965.47	2703.52
965.64	2517.36
965.81	2419.47
965.98	2635.74
966.14	2334.68
966.31	1998.20
966.48	1976.09
966.65	2358.24
966.81	2206.89
966.98	1939.22
967.15	1948.64
967.32	2085.86
967.49	1967.89
967.65	1743.03
967.82	1731.97
967.99	2037.52
968.16	1827.40
968.32	2007.42
968.49	1812.04
968.66	2002.30
968.83	2255.02
968.99	1920.79
969.16	1784.60
969.33	2222.25
969.50	2116.17
969.66	1940.86
969.83	2031.38
970.00	2099.58
970.17	2066.81
970.33	1783.17
970.50	1699.40
970.67	2203.20
970.84	2175.56
971.00	1725.41
971.17	1657.42
971.34	2072.95
971.50	1970.56
971.67	1848.50
971.84	1748.97
972.01	1770.67
972.17	1667.66
972.34	1644.93
972.51	1905.63
972.67	2137.67
972.84	1993.08
973.01	1700.43
973.18	1722.96
973.34	2101.42
973.51	1810.81
973.68	1776.20
973.84	1786.85
974.01	1922.43
974.18	2223.89
974.34	1826.79
974.51	1863.86
974.68	1812.66
974.85	2246.62
975.01	1832.11
975.18	1745.69
975.35	1947.82
975.51	1799.96
975.68	1635.71
975.85	1889.66
976.01	1838.05
976.18	2138.90
976.35	1746.71
976.51	1776.82
976.68	2203.41
976.85	2122.11
977.01	1805.49
977.18	1853.00
977.35	2070.50
977.51	1804.67
977.68	1614.62
977.85	1689.57
978.01	2153.44
978.18	2101.42
978.35	1859.35
978.51	1871.64
978.68	2165.73
978.85	2266.08
979.01	1808.97
979.18	1843.38
979.34	1966.66
979.51	1993.90
979.68	1733.61
979.84	1798.73
980.01	2366.22
980.18	1978.54
980.34	1725.00
980.51	1822.28
980.67	2071.93
980.84	2070.29
981.01	1780.91
981.17	1840.10
981.34	1710.26
981.51	2054.73
981.67	1701.04
981.84	1859.76
982.00	2059.85
982.17	1948.44
982.34	1603.15
982.50	1498.91
982.67	2210.17
982.83	1868.16
983.00	1655.37
983.17	1534.75
983.33	2088.31
983.50	1724.39
983.66	1647.59
983.83	1544.37
984.00	1897.03
984.16	1950.90
984.33	1541.92
984.49	1541.10
984.66	1802.62
984.83	2058.00
984.99	1593.32
985.16	1561.17
985.32	2072.13
985.49	2062.51
985.65	1680.97
985.82	1566.29
985.99	2176.38
986.15	1964.41
986.32	1655.58
986.48	1616.67
986.65	1888.43
986.81	2070.09
986.98	1565.06
987.14	1618.92
987.31	1975.27
987.48	1718.86
987.64	1509.97
987.81	1522.46
987.97	2287.58
988.14	1787.67
988.30	1562.60
988.47	1446.28
988.63	1994.31
988.80	1781.53
988.96	1662.34
989.13	1659.88
989.30	1893.96
989.46	2064.97
989.63	1505.05
989.79	1523.28
989.96	1948.64
990.12	2179.86
990.29	1595.37
990.45	1638.17
990.62	1957.04
990.78	2149.14
990.95	1667.05
991.11	1598.44
991.28	1864.27
991.44	1979.77
991.61	1478.02
991.77	1658.85
991.94	1963.59
992.10	2138.90
992.27	1637.15
992.43	1625.06
992.60	2013.36
992.76	1893.14
992.93	1759.00
993.09	1544.99
993.26	2086.47
993.42	2217.13
993.59	1600.90
993.75	1516.73
993.92	1840.71
994.08	1829.04
994.25	1648.61
994.41	1553.79
994.58	2029.95
994.74	2162.65
994.91	1563.42
995.07	1668.28
995.24	1905.23
995.40	1939.43
995.56	1723.98
995.73	1694.69
995.89	2203.61
996.06	1912.80
996.22	1549.08
996.39	1520.00
996.55	1900.72
996.72	2003.32
996.88	1500.14
997.05	1550.93
997.21	2240.27
997.37	2016.02
997.54	1654.96
997.70	1594.34
997.87	1979.36
998.03	1926.52
998.20	1493.38
998.36	1493.79
998.52	2029.13
998.69	2067.83
998.85	1515.09
999.02	1602.33
999.18	2076.44
999.35	2073.98
999.51	1645.95
999.67	1601.92
999.84	1781.12
1000.00	2026.06
1000.17	1669.71
1000.33	1575.50
1000.49	1839.28
1000.66	1906.66
1000.82	1572.64
1000.99	1650.25
1001.15	2115.76
1001.31	1898.88
1001.48	1622.20
1001.64	1660.90
1001.81	1891.09
1001.97	2247.44
1002.13	1599.46
1002.30	1603.15
1002.46	2145.45
1002.63	1889.46
1002.79	1682.41
1002.95	1601.10
1003.12	2102.65
1003.28	1966.87
1003.45	1561.78
1003.61	1530.65
1003.77	1973.42
1003.94	1738.11
1004.10	1589.43
1004.26	1668.68
1004.43	2016.02
1004.59	2207.92
1004.75	1576.53
1004.92	1555.02
1005.08	1856.69
1005.25	1970.35
1005.41	1579.80
1005.57	1643.70
1005.74	2093.84
1005.90	1852.39
1006.06	1705.75
1006.23	1577.35
1006.39	2041.82
1006.55	2370.11
1006.72	1734.63
1006.88	1530.45
1007.04	1799.75
1007.21	1886.18
1007.37	1601.31
1007.53	1586.97
1007.70	2160.81
1007.86	2065.58
1008.02	1652.92
1008.19	1530.45
1008.35	1994.72
1008.51	1802.83
1008.68	1579.39
1008.84	1530.24
1009.00	1824.13
1009.17	2105.72
1009.33	1728.69
1009.49	1688.96
1009.65	1796.07
1009.82	1985.10
1009.98	1665.00
1010.14	1488.05
1010.31	2065.58
1010.47	2028.10
1010.63	1656.60
1010.80	1635.71
1010.96	2014.59
1011.12	1912.19
1011.28	1620.35
1011.45	1562.19
1011.61	2375.23
1011.77	1800.78
1011.94	1563.01
1012.10	1551.13
1012.26	1771.90
1012.42	1874.51
1012.59	1656.60
1012.75	1614.82
1012.91	1885.56
1013.07	2060.46
1013.24	1548.47
1013.40	1558.91
1013.56	1976.49
1013.72	1948.03
1013.89	1658.45
1014.05	1692.03
1014.21	2252.77
1014.37	2340.62
1014.54	1631.00
1014.70	1558.50
1014.86	1931.23
1015.02	1784.40
1015.19	1594.96
1015.35	1544.17
1015.51	1930.42
1015.67	1913.01
1015.84	1576.94
1016.00	1588.61
1016.16	2111.46
1016.32	2059.64
1016.49	1560.76
1016.65	1558.50
1016.81	1911.37
1016.97	2012.95
1017.14	1706.37
1017.30	1602.95
1017.46	1836.82
1017.62	1988.58
1017.78	1666.02
1017.95	1554.00
1018.11	2092.41
1018.27	2301.10
1018.43	1734.22
1018.59	1678.11
1018.76	2059.23
1018.92	2342.47
1019.08	1566.49
1019.24	1606.84
1019.40	2144.63
1019.57	1978.13
1019.73	1687.73
1019.89	1607.66
1020.05	1981.20
1020.21	2254.61
1020.38	1561.58
1020.54	1755.72
1020.70	2037.93
1020.86	2034.45
1021.02	1581.65
1021.18	1591.89
1021.35	1868.36
1021.51	2002.50
1021.67	1740.16
1021.83	1625.06
1021.99	1967.69
1022.15	1983.25
1022.32	1662.34
1022.48	1630.59
1022.64	2183.54
1022.80	2171.05
1022.96	1680.15
1023.12	1523.69
1023.29	2095.69
1023.45	2015.82
1023.61	1586.56
1023.77	1801.60
1023.93	1985.92
1024.09	1817.16
1024.25	1568.74
1024.42	1543.96
1024.58	1863.65
1024.74	1972.81
1024.90	1597.42
1025.06	1654.96
1025.22	1861.40
1025.38	2191.94
1025.54	1541.71
1025.71	1698.79
1025.87	2050.22
1026.03	2004.14
1026.19	1537.41
1026.35	1760.23
1026.51	2025.85
1026.67	1930.21
1026.83	1635.51
1026.99	1698.99
1027.16	2035.89
1027.32	1905.43
1027.48	1603.35
1027.64	1586.56
1027.80	2031.18
1027.96	1954.79
1028.12	1603.97
1028.28	1577.96
1028.44	1999.02
1028.60	2181.09
1028.77	1734.22
1028.93	1622.40
1029.09	1856.48
1029.25	1783.78
1029.41	1659.47
1029.57	1701.66
1029.73	1993.08
1029.89	2170.64
1030.05	1748.76
1030.21	1685.27
1030.37	2305.40
1030.53	2034.25
1030.69	1647.39
1030.85	1538.23
1031.02	1815.73
1031.18	1940.25
1031.34	1603.35
1031.50	1683.43
1031.66	1827.20
1031.82	2181.91
1031.98	1655.99
1032.14	1556.25
1032.30	1805.08
1032.46	2067.42
1032.62	1730.74
1032.78	1539.66
1032.94	1853.82
1033.10	1884.13
1033.26	1687.73
1033.42	1723.98
1033.58	2277.14
1033.74	1875.12
1033.90	1597.83
1034.06	1791.77
1034.22	2305.60
1034.38	2102.85
1034.54	1646.36
1034.70	1648.00
1034.86	2244.78
>>>>>End Processed Spectral Data<<<<<
