SpectraSuite Data File
++++++++++++++++++++++++++++++++++++
Date: Thu Mar 30 16:22:53 PDT 2017
User: UCSD _CER
Dark Spectrum Present: No
Reference Spectrum Present: No
Number of Sampled Component Spectra: 1
Spectrometers: USB4C00073
Integration Time (usec): 250000 (USB4C00073)
Spectra Averaged: 10 (USB4C00073)
Boxcar Smoothing: 0 (USB4C00073)
Correct for Electrical Dark: No (USB4C00073)
Strobe/Lamp Enabled: No (USB4C00073)
Correct for Detector Non-linearity: No (USB4C00073)
Correct for Stray Light: No (USB4C00073)
Number of Pixels in Processed Spectrum: 3648
>>>>>Begin Processed Spectral Data<<<<<
345.37	1268.31
345.58	1268.31
345.80	1268.31
346.01	1276.91
346.22	1280.80
346.43	1970.15
346.65	1795.66
346.86	2113.09
347.07	2107.16
347.28	1804.47
347.50	1812.45
347.71	1910.55
347.92	1727.26
348.13	1809.18
348.35	1698.38
348.56	1960.93
348.77	1777.23
348.98	1806.51
349.20	1643.90
349.41	1916.90
349.62	1953.15
349.83	1858.12
350.05	1740.98
350.26	1943.93
350.47	2088.11
350.68	1785.83
350.90	1720.70
351.11	2083.81
351.32	2023.39
351.53	1813.07
351.75	1711.08
351.96	1941.88
352.17	1896.62
352.38	1848.09
352.60	1844.61
352.81	1924.89
353.02	2135.83
353.23	1782.35
353.44	1787.88
353.66	1852.80
353.87	1874.51
354.08	1880.24
354.29	1806.51
354.51	1873.69
354.72	1916.28
354.93	1802.21
355.14	1766.58
355.35	1767.60
355.57	2067.63
355.78	1831.50
355.99	1892.73
356.20	1934.10
356.42	1927.75
356.63	1913.01
356.84	1865.29
357.05	2030.77
357.26	2205.87
357.48	1894.37
357.69	1842.76
357.90	1953.97
358.11	1852.80
358.32	1808.36
358.54	1836.21
358.75	1865.29
358.96	1987.76
359.17	1802.83
359.38	1819.83
359.60	2006.80
359.81	1915.47
360.02	1833.55
360.23	1776.41
360.44	1859.76
360.66	2060.87
360.87	1752.65
361.08	1746.92
361.29	1956.42
361.50	1924.89
361.72	1791.15
361.93	1822.08
362.14	1925.91
362.35	1728.49
362.56	1925.50
362.77	1732.99
362.99	2002.30
363.20	1931.03
363.41	1902.56
363.62	1714.76
363.83	2008.03
364.05	2041.62
364.26	1725.41
364.47	1785.62
364.68	2053.29
364.89	1838.46
365.10	1721.73
365.32	1822.69
365.53	1804.06
365.74	1836.41
365.95	1801.60
366.16	1684.04
366.37	1904.20
366.59	1888.64
366.80	1814.71
367.01	1691.42
367.22	2159.17
367.43	2273.86
367.64	1794.23
367.86	1802.21
368.07	2001.28
368.28	2087.29
368.49	1730.53
368.70	1850.54
368.91	1848.29
369.12	1901.13
369.34	1709.23
369.55	1740.98
369.76	1905.23
369.97	1842.97
370.18	1719.88
370.39	1726.03
370.60	1748.35
370.82	1776.41
371.03	1802.01
371.24	1765.35
371.45	1995.54
371.66	1978.75
371.87	1787.67
372.08	1740.57
372.30	1777.84
372.51	2001.28
372.72	1875.53
372.93	1780.91
373.14	2075.62
373.35	1797.30
373.56	1717.63
373.78	1804.47
373.99	2020.32
374.20	2292.91
374.41	1810.20
374.62	1819.83
374.83	2102.85
375.04	1865.90
375.25	1789.52
375.47	1760.64
375.68	1860.37
375.89	2008.44
376.10	1800.78
376.31	1893.55
376.52	1986.12
376.73	1969.12
376.94	1818.39
377.15	1765.76
377.37	1917.10
377.58	1875.94
377.79	1698.99
378.00	1727.46
378.21	1919.77
378.42	1971.37
378.63	1831.50
378.84	1884.54
379.05	2015.20
379.27	1922.22
379.48	1890.68
379.69	1766.78
379.90	2033.63
380.11	1680.56
380.32	1797.09
380.53	1890.28
380.74	2074.59
380.95	1923.45
381.16	1806.72
381.37	1796.48
381.59	2090.36
381.80	2041.82
382.01	1762.28
382.22	1710.67
382.43	1964.00
382.64	1932.46
382.85	1769.04
383.06	1885.16
383.27	2025.03
383.48	1881.88
383.69	1847.27
383.91	1763.92
384.12	1987.14
384.33	1970.97
384.54	1786.03
384.75	1688.35
384.96	2265.87
385.17	2017.45
385.38	1781.94
385.59	1766.17
385.80	1987.55
386.01	2065.79
386.22	1894.99
386.43	1825.56
386.64	2210.37
386.86	1926.52
387.07	1902.56
387.28	1688.14
387.49	1830.68
387.70	2077.25
387.91	1861.60
388.12	1755.52
388.33	1960.52
388.54	1847.88
388.75	1777.43
388.96	1865.09
389.17	1850.13
389.38	1880.44
389.59	1897.24
389.80	1832.73
390.01	1903.18
390.22	1839.08
390.43	1888.43
390.64	1677.49
390.86	1941.27
391.07	2048.79
391.28	1805.69
391.49	1835.39
391.70	1735.45
391.91	1825.35
392.12	1799.75
392.33	1781.73
392.54	1907.27
392.75	1871.23
392.96	1875.32
393.17	1754.70
393.38	2181.50
393.59	2055.75
393.80	1770.67
394.01	1917.72
394.22	2060.26
394.43	2320.96
394.64	1908.30
394.85	2050.84
395.06	2018.68
395.27	1988.78
395.48	1865.09
395.69	1741.59
395.90	1912.80
396.11	1923.45
396.32	1763.92
396.53	1915.06
396.74	1893.96
396.95	2001.68
397.16	1768.83
397.37	1682.61
397.58	2027.49
397.79	1917.10
398.00	1825.56
398.21	1788.08
398.42	1925.91
398.63	2184.77
398.84	1804.47
399.05	1781.73
399.26	2068.24
399.47	1970.15
399.68	1660.49
399.89	1754.90
400.10	1786.65
400.31	1848.70
400.52	1822.28
400.73	1773.13
400.94	1726.85
401.15	1953.15
401.36	1791.36
401.57	1851.57
401.78	2037.93
401.99	2028.10
402.20	1710.05
402.41	1919.36
402.62	2082.17
402.83	1901.13
403.04	1766.58
403.25	1968.10
403.46	2018.07
403.67	2217.54
403.88	1996.77
404.09	1995.75
404.30	2026.06
404.51	2029.54
404.72	1864.06
404.93	1985.51
405.14	1866.72
405.35	1922.84
405.56	1815.32
405.77	1779.07
405.98	1937.58
406.19	1932.87
406.40	1737.91
406.61	1805.49
406.82	1812.66
407.03	2222.25
407.24	1702.27
407.45	1777.23
407.66	1956.63
407.87	1978.54
408.08	1825.76
408.29	1873.69
408.49	1976.09
408.70	1912.80
408.91	1817.98
409.12	1878.81
409.33	1793.20
409.54	2080.12
409.75	1793.20
409.96	1768.22
410.17	2001.89
410.38	1878.60
410.59	1776.61
410.80	1899.90
411.01	1901.13
411.22	1892.32
411.43	1853.82
411.64	1751.22
411.85	1785.83
412.06	1810.81
412.27	1649.84
412.47	1784.40
412.68	1908.30
412.89	1946.39
413.10	1793.61
413.31	1731.56
413.52	2139.31
413.73	2157.33
413.94	1773.75
414.15	1942.50
414.36	1878.60
414.57	1840.10
414.78	1876.55
414.99	2369.50
415.19	2976.52
415.40	3168.62
415.61	3383.24
415.82	3188.69
416.03	3023.83
416.24	2735.06
416.45	2349.22
416.66	2041.42
416.87	1865.70
417.08	2075.62
417.29	1865.49
417.50	2011.72
417.70	2170.23
417.91	2210.37
418.12	2229.42
418.33	2315.23
418.54	2512.45
418.75	2688.16
418.96	2809.61
419.17	3208.96
419.38	3884.59
419.59	3920.02
419.79	3823.76
420.00	3608.73
420.21	3452.47
420.42	2710.69
420.63	2325.67
420.84	2146.89
421.05	2013.15
421.26	1945.16
421.47	1753.68
421.67	2050.02
421.88	1798.73
422.09	1781.53
422.30	1957.86
422.51	1816.55
422.72	2115.76
422.93	2010.29
423.14	1815.32
423.35	1717.63
423.55	1721.73
423.76	1825.35
423.97	1836.82
424.18	1730.33
424.39	1959.29
424.60	2117.60
424.81	1922.43
425.02	2157.54
425.22	2313.80
425.43	2374.21
425.64	2559.76
425.85	2567.95
426.06	2863.06
426.27	2721.96
426.48	2765.78
426.68	2765.37
426.89	2818.62
427.10	2872.89
427.31	2371.96
427.52	2081.35
427.73	2171.46
427.94	2096.71
428.14	1942.50
428.35	1841.12
428.56	2101.42
428.77	2029.74
428.98	1929.80
429.19	2131.32
429.40	2276.52
429.60	2368.48
429.81	2421.52
430.02	2347.59
430.23	2212.01
430.44	2175.97
430.65	1915.06
430.85	1933.90
431.06	2005.17
431.27	1720.29
431.48	1808.56
431.69	1832.93
431.90	1918.74
432.10	1927.34
432.31	1894.99
432.52	2037.32
432.73	2716.02
432.94	2724.41
433.15	2613.82
433.35	2486.23
433.56	2577.16
433.77	2318.10
433.98	2276.52
434.19	2103.67
434.40	2153.23
434.60	2038.96
434.81	1910.14
435.02	1932.26
435.23	1944.14
435.44	1871.43
435.64	1700.84
435.85	1766.78
436.06	1883.93
436.27	1858.53
436.48	1750.81
436.68	1771.49
436.89	2138.90
437.10	1982.64
437.31	1829.04
437.52	1905.43
437.73	1920.79
437.93	1916.28
438.14	1870.41
438.35	1681.79
438.56	1821.67
438.77	1873.07
438.97	1939.43
439.18	1771.70
439.39	2041.62
439.60	1751.22
439.80	1731.35
440.01	1806.51
440.22	1839.90
440.43	1988.78
440.64	1728.69
440.84	1842.97
441.05	1793.61
441.26	2260.55
441.47	1855.05
441.68	1779.48
441.88	1872.25
442.09	1881.67
442.30	1977.52
442.51	1862.42
442.71	1851.36
442.92	1936.56
443.13	1744.25
443.34	1765.96
443.55	1790.54
443.75	1976.70
443.96	1776.00
444.17	1766.99
444.38	2046.54
444.58	1819.21
444.79	1870.61
445.00	1832.52
445.21	1905.23
445.41	1864.88
445.62	1638.17
445.83	1895.19
446.04	1934.92
446.24	1764.33
446.45	1633.87
446.66	1783.37
446.87	1976.49
447.07	1858.74
447.28	1974.86
447.49	1837.23
447.70	2032.20
447.90	2065.17
448.11	1802.21
448.32	1897.44
448.53	2079.10
448.73	2062.30
448.94	1808.56
449.15	1938.20
449.36	1904.41
449.56	1937.17
449.77	1783.99
449.98	1761.46
450.19	1930.82
450.39	2054.93
450.60	2077.87
450.81	2095.48
451.02	2124.77
451.22	2261.37
451.43	1906.45
451.64	1925.91
451.84	1989.81
452.05	2203.41
452.26	1967.69
452.47	1888.23
452.67	1892.53
452.88	2104.08
453.09	1778.46
453.30	1760.43
453.50	2022.37
453.71	2114.12
453.92	1822.28
454.12	1901.13
454.33	1837.03
454.54	1928.78
454.75	1747.53
454.95	1758.39
455.16	1943.11
455.37	2004.76
455.57	1846.45
455.78	1804.67
455.99	1916.28
456.19	1934.92
456.40	1746.92
456.61	1855.25
456.82	1932.46
457.02	2002.71
457.23	1865.49
457.44	1987.96
457.64	1815.93
457.85	1995.54
458.06	1845.22
458.26	2031.18
458.47	1922.84
458.68	2067.42
458.89	1838.87
459.09	2037.73
459.30	2266.69
459.51	2002.91
459.71	1813.89
459.92	1843.99
460.13	2024.01
460.33	2224.91
460.54	1798.94
460.75	1840.30
460.95	1794.02
461.16	1987.76
461.37	1816.96
461.57	1890.28
461.78	1935.74
461.99	1779.48
462.19	2088.31
462.40	1847.27
462.61	2435.24
462.81	2112.27
463.02	1808.36
463.23	1808.97
463.43	2046.74
463.64	1883.72
463.85	2794.04
464.05	1836.62
464.26	2347.18
464.47	2145.04
464.67	2000.87
464.88	1919.77
465.09	1850.34
465.29	1958.06
465.50	1952.12
465.71	1849.32
465.91	1839.28
466.12	1918.74
466.33	1888.23
466.53	1821.87
466.74	2075.82
466.94	1884.54
467.15	1851.36
467.36	2006.60
467.56	1785.42
467.77	1963.59
467.98	1868.77
468.18	1829.86
468.39	1871.43
468.60	2155.90
468.80	1868.98
469.01	1771.70
469.21	1985.51
469.42	2125.18
469.63	1945.37
469.83	1910.55
470.04	2147.91
470.25	2245.19
470.45	1984.28
470.66	1857.51
470.86	2016.63
471.07	1938.81
471.28	1971.37
471.48	2016.63
471.69	1975.06
471.90	2402.88
472.10	1825.15
472.31	1841.12
472.51	1840.30
472.72	1817.57
472.93	1779.48
473.13	1960.11
473.34	1945.78
473.54	1895.60
473.75	1868.57
473.96	2034.04
474.16	1940.45
474.37	2032.20
474.57	1995.13
474.78	1889.87
474.99	2050.22
475.19	2030.36
475.40	1853.62
475.60	1790.95
475.81	2136.44
476.02	1965.03
476.22	1966.46
476.43	2098.35
476.63	1987.76
476.84	2184.57
477.05	1789.72
477.25	1833.14
477.46	2323.01
477.66	1975.88
477.87	1740.36
478.08	1859.97
478.28	2057.80
478.49	1919.36
478.69	1796.07
478.90	1835.39
479.10	2010.90
479.31	2123.95
479.52	1935.54
479.72	1959.29
479.93	2022.98
480.13	1847.27
480.34	1821.05
480.54	1931.03
480.75	1798.32
480.96	2090.36
481.16	1801.60
481.37	1930.01
481.57	2017.66
481.78	1966.46
481.98	2026.26
482.19	1881.06
482.40	2186.00
482.60	2046.94
482.81	1974.45
483.01	1923.45
483.22	2114.12
483.42	2150.57
483.63	2009.06
483.83	1949.26
484.04	1898.88
484.24	2031.58
484.45	1915.67
484.66	1754.70
484.86	1974.04
485.07	1830.88
485.27	1928.98
485.48	1826.58
485.68	2103.67
485.89	1863.45
486.09	1961.95
486.30	1838.26
486.50	1964.62
486.71	2004.76
486.91	2054.52
487.12	2126.82
487.33	2367.66
487.53	2390.18
487.74	2186.82
487.94	2087.29
488.15	2233.92
488.35	2335.71
488.56	2200.95
488.76	2161.43
488.97	2171.87
489.17	2159.58
489.38	2008.24
489.58	1966.05
489.79	2035.48
489.99	2040.60
490.20	1936.15
490.40	1999.02
490.61	2035.07
490.81	1887.00
491.02	1894.99
491.22	1970.97
491.43	2071.73
491.63	1965.03
491.84	2024.62
492.04	1798.94
492.25	2031.59
492.45	1913.42
492.66	1875.73
492.86	1745.89
493.07	1910.14
493.27	2243.14
493.48	1744.87
493.68	1890.28
493.89	1934.92
494.09	2043.87
494.30	1838.26
494.50	2097.32
494.71	2059.44
494.91	1869.59
495.12	2009.67
495.32	2108.18
495.53	2072.54
495.73	1811.84
495.94	1875.73
496.14	1750.19
496.35	2187.85
496.55	1933.69
496.76	1872.25
496.96	1940.25
497.17	1956.83
497.37	2020.94
497.58	1859.76
497.78	1817.16
497.98	1941.06
498.19	1938.20
498.39	1953.76
498.60	1961.34
498.80	1821.67
499.01	2072.13
499.21	1822.08
499.42	1889.66
499.62	1916.08
499.83	2209.14
500.03	1763.30
500.24	1924.27
500.44	2103.47
500.64	2081.15
500.85	1869.39
501.05	1985.92
501.26	1789.72
501.46	2113.09
501.67	1831.50
501.87	1787.67
502.08	1786.85
502.28	1917.51
502.48	1965.23
502.69	2055.14
502.89	1833.96
503.10	1905.23
503.30	1956.63
503.51	1935.13
503.71	1814.50
503.92	2083.40
504.12	2024.62
504.32	2012.33
504.53	2202.39
504.73	2254.20
504.94	2192.96
505.14	2315.64
505.35	2331.41
505.55	2350.04
505.75	2255.63
505.96	2350.04
506.16	2412.51
506.37	2087.49
506.57	1968.51
506.78	2073.16
506.98	2210.58
507.18	1892.12
507.39	1904.00
507.59	1987.76
507.80	1941.68
508.00	2069.88
508.20	2122.72
508.41	1979.16
508.61	2197.06
508.82	2127.02
509.02	2025.24
509.22	1824.54
509.43	1838.26
509.63	1847.88
509.84	1900.51
510.04	1790.95
510.24	2129.07
510.45	2048.79
510.65	1795.25
510.86	1930.01
511.06	1851.57
511.26	2107.97
511.47	2052.27
511.67	1919.56
511.88	2075.82
512.08	2107.97
512.28	1800.16
512.49	1980.59
512.69	1975.68
512.90	1978.75
513.10	1863.45
513.30	1931.44
513.51	2005.17
513.71	2135.62
513.91	1949.46
514.12	1954.38
514.32	2162.65
514.53	2039.78
514.73	2176.99
514.93	2114.94
515.14	2241.71
515.34	2509.38
515.54	2417.83
515.75	2528.42
515.95	2691.65
516.15	2702.09
516.36	2321.58
516.56	2250.92
516.77	1906.86
516.97	2175.15
517.17	2027.49
517.38	2138.49
517.58	2291.47
517.78	2186.00
517.99	2423.16
518.19	2554.84
518.39	2804.69
518.60	2669.53
518.80	2482.14
519.00	2391.82
519.21	2211.81
519.41	2362.33
519.61	1992.47
519.82	2082.58
520.02	2048.99
520.22	2063.12
520.43	2011.31
520.63	2035.68
520.83	1992.67
521.04	1951.51
521.24	2295.98
521.44	2392.85
521.65	2506.30
521.85	2759.84
522.05	2491.35
522.26	2309.70
522.46	2496.27
522.66	2272.22
522.87	2008.85
523.07	2165.32
523.27	2030.36
523.48	2271.20
523.68	2094.66
523.88	2062.30
524.09	2220.20
524.29	2163.88
524.49	2041.01
524.70	2365.20
524.90	2535.39
525.10	2445.89
525.31	2133.98
525.51	2029.74
525.71	2192.15
525.91	2107.97
526.12	1895.19
526.32	1801.80
526.52	1915.67
526.73	1901.95
526.93	1962.36
527.13	1794.64
527.34	1954.58
527.54	2023.19
527.74	1940.66
527.94	1917.72
528.15	1901.54
528.35	2001.68
528.55	2031.79
528.76	1968.71
528.96	1767.81
529.16	2098.55
529.36	2020.94
529.57	1795.45
529.77	2090.77
529.97	1838.87
530.18	1992.26
530.38	1883.11
530.58	2044.49
530.78	1978.34
530.99	1898.47
531.19	1997.38
531.39	1885.56
531.60	1991.24
531.80	1916.90
532.00	2039.78
532.20	1974.86
532.41	1875.53
532.61	1873.69
532.81	1893.55
533.01	1908.91
533.22	1999.23
533.42	1982.84
533.62	1727.46
533.82	2101.01
534.03	1919.97
534.23	1959.29
534.43	1848.91
534.63	1887.61
534.84	1950.90
535.04	1940.45
535.24	1896.42
535.44	2288.40
535.65	1894.37
535.85	1853.00
536.05	1813.27
536.25	1944.55
536.46	1867.54
536.66	2115.96
536.86	1990.22
537.06	2134.39
537.27	2205.46
537.47	2037.93
537.67	1922.02
537.87	2168.18
538.08	1955.40
538.28	1845.22
538.48	1858.12
538.68	1962.77
538.88	2099.78
539.09	1833.14
539.29	1952.33
539.49	2093.84
539.69	1980.80
539.90	1999.23
540.10	1840.71
540.30	2182.93
540.50	1981.00
540.70	1891.30
540.91	2022.37
541.11	2222.66
541.31	2384.45
541.51	2232.29
541.72	2319.94
541.92	2362.74
542.12	2159.38
542.32	2072.75
542.52	2012.95
542.73	1992.88
542.93	2074.18
543.13	1989.60
543.33	2129.07
543.53	2265.67
543.74	2282.87
543.94	2173.92
544.14	2348.00
544.34	2533.54
544.54	2444.05
544.75	2571.02
544.95	2725.85
545.15	2614.64
545.35	2598.46
545.55	2408.21
545.75	2164.09
545.96	2447.32
546.16	2030.56
546.36	2076.64
546.56	2082.37
546.76	2219.79
546.97	2290.86
547.17	2010.08
547.37	2026.26
547.57	1926.93
547.77	2078.48
547.97	1978.13
548.18	2009.67
548.38	2064.35
548.58	2669.73
548.78	2861.63
548.98	3297.23
549.18	3721.16
549.39	3925.96
549.59	3492.61
549.79	3083.01
549.99	3116.39
550.19	2882.31
550.39	2683.04
550.60	2418.04
550.80	2388.14
551.00	2355.37
551.20	2129.27
551.40	2047.97
551.60	2135.42
551.80	2115.55
552.01	2166.14
552.21	2062.51
552.41	2127.02
552.61	2295.57
552.81	2041.01
553.01	1907.07
553.21	2081.56
553.42	1876.76
553.62	1911.98
553.82	1899.90
554.02	2192.35
554.22	2064.15
554.42	1854.23
554.62	2029.33
554.83	2444.25
555.03	2828.04
555.23	2836.03
555.43	3325.90
555.63	3331.84
555.83	3136.87
556.03	2739.16
556.23	2529.45
556.44	2676.49
556.64	2757.18
556.84	2332.84
557.04	2544.19
557.24	2509.38
557.44	2367.04
557.64	2245.60
557.84	2044.69
558.04	2068.86
558.25	2192.35
558.45	1972.19
558.65	2090.57
558.85	2130.91
559.05	1944.75
559.25	2131.12
559.45	2251.33
559.65	2713.35
559.85	3321.40
560.05	2810.22
560.26	2967.92
560.46	3017.07
560.66	2741.82
560.86	2491.15
561.06	2348.20
561.26	2552.18
561.46	2343.90
561.66	2156.10
561.86	2229.01
562.06	2081.97
562.26	2113.30
562.47	2018.48
562.67	1919.15
562.87	2106.75
563.07	1858.74
563.27	2078.69
563.47	2076.03
563.67	2025.85
563.87	2174.53
564.07	2120.26
564.27	2306.42
564.47	2365.81
564.67	2474.77
564.87	2380.97
565.08	2421.93
565.28	2264.64
565.48	2336.73
565.68	2236.18
565.88	2179.24
566.08	2321.37
566.28	2046.74
566.48	1853.41
566.68	1955.81
566.88	1948.44
567.08	2063.94
567.28	1974.24
567.48	2003.32
567.68	2119.03
567.88	1976.90
568.08	2185.18
568.28	2267.31
568.48	2128.45
568.68	2304.99
568.89	2126.61
569.09	1904.00
569.29	2160.40
569.49	2134.39
569.69	1897.24
569.89	1875.94
570.09	1743.85
570.29	1870.21
570.49	1790.33
570.69	1861.60
570.89	2058.21
571.09	2179.45
571.29	1747.53
571.49	2056.37
571.69	1962.57
571.89	1963.39
572.09	1833.14
572.29	1843.58
572.49	2012.33
572.69	1997.38
572.89	1987.76
573.09	1857.92
573.29	2153.23
573.49	2241.50
573.69	2222.66
573.89	2272.43
574.09	2044.28
574.29	2223.27
574.49	1954.99
574.69	1890.68
574.89	1858.53
575.09	1868.16
575.29	1833.96
575.49	1911.57
575.69	1977.93
575.89	1802.01
576.09	1923.86
576.29	1965.44
576.49	1905.84
576.69	2027.90
576.89	1995.54
577.09	2043.05
577.29	1848.09
577.49	2254.81
577.69	1926.32
577.89	2041.21
578.09	1975.68
578.29	1815.52
578.49	1961.95
578.69	1850.75
578.89	2108.79
579.09	1970.15
579.29	1867.75
579.49	2087.90
579.69	1976.49
579.89	2275.29
580.09	1806.72
580.29	1787.06
580.49	1904.20
580.69	1814.71
580.89	1900.52
581.09	1885.77
581.29	1872.87
581.49	1894.37
581.69	1802.21
581.89	1806.10
582.09	1812.04
582.28	1853.41
582.48	2063.74
582.68	2193.99
582.88	2254.81
583.08	2118.62
583.28	2063.53
583.48	2077.87
583.68	1953.15
583.88	2009.88
584.08	1987.55
584.28	1949.46
584.48	2212.01
584.68	2012.13
584.88	1916.28
585.08	2104.49
585.28	2114.12
585.48	2176.38
585.68	2052.68
585.87	2079.92
586.07	2074.59
586.27	1979.36
586.47	2039.16
586.67	1978.13
586.87	1987.55
587.07	1919.15
587.27	1869.59
587.47	2059.85
587.67	2407.80
587.87	2828.45
588.07	2737.52
588.27	2723.80
588.46	3005.80
588.66	3033.66
588.86	2655.19
589.06	2555.66
589.26	2490.94
589.46	2374.41
589.66	2057.18
589.86	2008.65
590.06	2097.53
590.26	2363.15
590.46	2302.12
590.66	2462.68
590.85	2436.06
591.05	2503.03
591.25	2216.93
591.45	2199.31
591.65	2334.89
591.85	2321.17
592.05	2335.50
592.25	2493.61
592.45	2579.62
592.64	2430.32
592.84	2322.81
593.04	2144.84
593.24	2538.87
593.44	2176.79
593.64	2242.53
593.84	2260.96
594.04	2180.06
594.24	2378.31
594.43	2036.70
594.63	2044.28
594.83	2175.97
595.03	2132.75
595.23	1875.32
595.43	1815.52
595.63	1866.11
595.83	2091.39
596.02	1753.27
596.22	1986.32
596.42	2073.77
596.62	2034.25
596.82	1958.06
597.02	2111.25
597.22	2206.48
597.41	2036.30
597.61	1965.03
597.81	2153.64
598.01	2200.75
598.21	2058.41
598.41	2087.08
598.61	2026.87
598.80	2131.73
599.00	2160.81
599.20	2257.27
599.40	2093.84
599.60	2132.14
599.80	2231.06
599.99	2249.08
600.19	2046.94
600.39	2117.60
600.59	2169.21
600.79	2078.69
600.99	2099.99
601.19	2272.02
601.38	2333.46
601.58	2130.09
601.78	1930.21
601.98	2497.70
602.18	3548.11
602.37	4406.61
602.57	4791.63
602.77	5327.18
602.97	5557.37
603.17	5152.28
603.37	4874.37
603.56	4846.52
603.76	4662.82
603.96	4493.65
604.16	4193.01
604.36	3819.26
604.56	3477.25
604.75	3013.38
604.95	2937.40
605.15	2916.92
605.35	2721.75
605.55	2502.00
605.74	2394.69
605.94	2462.89
606.14	2305.19
606.34	2193.37
606.54	2096.30
606.73	2011.31
606.93	2090.36
607.13	1926.32
607.33	2002.50
607.53	2191.94
607.72	2110.43
607.92	2011.72
608.12	2086.06
608.32	1984.69
608.51	2117.60
608.71	1980.80
608.91	2173.30
609.11	2296.59
609.31	2226.55
609.50	2406.98
609.70	2622.83
609.90	2594.37
610.10	2583.10
610.29	2466.98
610.49	2297.82
610.69	2397.35
610.89	2243.96
611.09	2194.60
611.28	2259.73
611.48	2258.91
611.68	2081.56
611.88	2019.50
612.07	1976.29
612.27	2164.91
612.47	1994.11
612.67	2051.66
612.86	2105.31
613.06	1987.14
613.26	1823.31
613.46	2033.22
613.65	2159.38
613.85	2574.71
614.05	2351.48
614.25	2349.22
614.44	2255.43
614.64	2234.13
614.84	2197.88
615.04	2152.42
615.23	2170.64
615.43	2289.83
615.63	2224.09
615.83	2055.96
616.02	2079.10
616.22	2442.00
616.42	2363.15
616.62	2430.12
616.81	2562.01
617.01	2626.11
617.21	2453.26
617.41	2231.06
617.60	2240.89
617.80	2264.64
618.00	2208.12
618.19	2133.57
618.39	2097.12
618.59	2081.35
618.79	1989.60
618.98	1779.28
619.18	1902.97
619.38	2216.52
619.57	1894.58
619.77	1908.71
619.97	1915.67
620.17	1954.58
620.36	2002.30
620.56	2349.84
620.76	2196.04
620.95	2230.24
621.15	2331.20
621.35	2231.06
621.54	2212.83
621.74	2227.58
621.94	2077.05
622.14	1969.53
622.33	1904.00
622.53	2015.20
622.73	1957.04
622.92	1801.80
623.12	1950.69
623.32	2187.64
623.51	2020.73
623.71	1799.96
623.91	2076.03
624.10	1871.84
624.30	1984.89
624.50	1843.99
624.69	1802.83
624.89	2417.42
625.09	1915.67
625.29	1729.30
625.48	1803.65
625.68	1930.82
625.88	2047.76
626.07	1923.25
626.27	1780.09
626.47	1849.32
626.66	1742.82
626.86	1873.69
627.06	1899.29
627.25	1921.81
627.45	2135.42
627.64	1907.27
627.84	2059.03
628.04	1811.43
628.23	2171.46
628.43	1813.68
628.63	1913.83
628.82	2008.03
629.02	2359.06
629.22	2226.14
629.41	2323.42
629.61	2227.37
629.81	2534.98
630.00	2208.73
630.20	2258.50
630.40	2418.45
630.59	2380.76
630.79	2202.59
630.98	2129.68
631.18	2132.14
631.38	2080.33
631.57	2162.25
631.77	1859.35
631.97	2003.94
632.16	1989.19
632.36	1936.76
632.56	1936.15
632.75	1919.56
632.95	2028.10
633.14	1795.04
633.34	2044.69
633.54	1696.95
633.73	1838.87
633.93	1838.46
634.12	1727.87
634.32	2259.11
634.52	1902.36
634.71	1760.02
634.91	1928.37
635.11	1759.41
635.30	1806.72
635.50	1943.73
635.69	1838.87
635.89	2237.00
636.09	2140.33
636.28	1934.92
636.48	1964.00
636.67	2108.79
636.87	2114.12
637.07	2058.00
637.26	1950.69
637.46	2109.20
637.65	2228.39
637.85	2103.06
638.04	2070.50
638.24	2081.15
638.44	2116.58
638.63	2008.85
638.83	1946.59
639.02	2045.72
639.22	2065.79
639.42	1922.43
639.61	1922.02
639.81	1955.20
640.00	1909.73
640.20	1988.78
640.39	2078.48
640.59	2571.63
640.79	2668.30
640.98	2791.59
641.18	2829.47
641.37	2914.46
641.57	2609.32
641.76	2554.02
641.96	2245.39
642.15	2389.16
642.35	2270.99
642.55	2227.37
642.74	2024.62
642.94	2217.75
643.13	2207.71
643.33	1947.62
643.52	1881.06
643.72	1844.61
643.91	1925.50
644.11	1818.19
644.31	1814.30
644.50	1820.64
644.70	2081.15
644.89	1882.08
645.09	1944.75
645.28	1918.95
645.48	1977.72
645.67	1840.92
645.87	1749.17
646.06	1927.14
646.26	2008.44
646.45	1735.65
646.65	1708.01
646.84	2152.01
647.04	1883.93
647.24	1778.66
647.43	1949.26
647.63	1952.53
647.82	2109.20
648.02	1770.26
648.21	1813.07
648.41	2085.45
648.60	1870.21
648.80	1999.84
648.99	1924.68
649.19	1829.66
649.38	1737.09
649.58	1919.36
649.77	1905.84
649.97	2044.28
650.16	1983.25
650.36	1695.51
650.55	1988.37
650.75	1981.20
650.94	2097.73
651.14	1888.84
651.33	1932.05
651.53	2129.68
651.72	1839.28
651.92	1891.09
652.11	1705.55
652.31	1966.46
652.50	1957.04
652.70	1949.67
652.89	1801.19
653.09	2158.56
653.28	1934.72
653.48	1769.24
653.67	1819.01
653.87	2345.54
654.06	1997.18
654.25	2067.42
654.45	1869.39
654.64	1905.84
654.84	1915.87
655.03	1677.90
655.23	2012.54
655.42	2004.35
655.62	2147.50
655.81	1903.18
656.01	1799.96
656.20	2020.94
656.40	2116.37
656.59	1933.28
656.79	2042.23
656.98	1962.98
657.17	2038.14
657.37	1907.48
657.56	1826.99
657.76	1975.47
657.95	2018.27
658.15	1574.07
658.34	1861.81
658.54	1914.85
658.73	1776.61
658.92	1881.06
659.12	1931.85
659.31	2045.51
659.51	1893.55
659.70	2110.43
659.90	2002.71
660.09	2206.69
660.29	2097.94
660.48	1902.15
660.67	2148.11
660.87	1924.89
661.06	2053.70
661.26	2041.01
661.45	2012.54
661.65	2014.79
661.84	1877.78
662.03	1873.07
662.23	1856.48
662.42	2169.62
662.62	1803.03
662.81	1797.50
663.00	1846.24
663.20	1946.80
663.39	1991.44
663.59	1988.78
663.78	1852.18
663.97	1821.67
664.17	2013.97
664.36	1740.98
664.56	1797.91
664.75	2008.85
664.94	2020.53
665.14	1948.64
665.33	1953.97
665.53	2027.28
665.72	2038.55
665.91	2126.61
666.11	2023.39
666.30	2017.86
666.50	1984.69
666.69	1974.04
666.88	1911.78
667.08	1994.93
667.27	1947.21
667.47	1975.27
667.66	1919.56
667.85	2062.30
668.05	1944.96
668.24	1852.18
668.43	2074.80
668.63	1880.24
668.82	2069.06
669.02	2010.08
669.21	1919.97
669.40	1806.51
669.60	2182.11
669.79	1793.82
669.98	2378.10
670.18	1825.56
670.37	1798.12
670.56	1897.85
670.76	1946.59
670.95	1959.91
671.15	2070.29
671.34	2036.70
671.53	2006.19
671.73	1940.25
671.92	1897.44
672.11	1835.39
672.31	1888.23
672.50	1979.98
672.69	1818.19
672.89	1672.78
673.08	1862.01
673.27	1996.77
673.47	1949.46
673.66	1937.79
673.85	1817.37
674.05	2147.30
674.24	2557.71
674.43	2766.40
674.63	3255.66
674.82	3666.68
675.01	3194.22
675.21	3247.05
675.40	2916.92
675.59	2803.26
675.79	2998.43
675.98	2613.82
676.17	2710.90
676.37	2588.02
676.56	2347.59
676.75	2300.07
676.95	2170.64
677.14	2073.57
677.33	2201.77
677.52	1863.24
677.72	1931.64
677.91	2002.09
678.10	1781.12
678.30	1821.67
678.49	1801.80
678.68	2190.71
678.88	1723.37
679.07	1992.88
679.26	1864.68
679.45	2132.55
679.65	2074.18
679.84	1709.44
680.03	1744.25
680.23	1865.70
680.42	2228.80
680.61	1762.48
680.81	1834.78
681.00	1938.61
681.19	1962.98
681.38	2000.87
681.58	2003.12
681.77	1911.98
681.96	2044.69
682.15	1906.45
682.35	1993.29
682.54	2039.78
682.73	1825.97
682.93	1849.93
683.12	1842.15
683.31	2017.66
683.50	2271.40
683.70	1851.57
683.89	1931.64
684.08	1821.67
684.27	2056.57
684.47	1777.84
684.66	1940.66
684.85	2187.64
685.04	2069.47
685.24	1836.41
685.43	1902.56
685.62	1752.45
685.81	2032.81
686.01	2247.24
686.20	2389.98
686.39	2542.76
686.58	3116.39
686.78	2930.64
686.97	2869.61
687.16	2713.35
687.35	2611.77
687.55	2453.06
687.74	2493.40
687.93	2360.49
688.12	2385.27
688.32	2364.18
688.51	2153.44
688.70	2249.69
688.89	2003.12
689.08	1924.89
689.28	1948.85
689.47	2039.98
689.66	2003.73
689.85	2027.49
690.05	1879.22
690.24	1867.54
690.43	1975.68
690.62	1955.61
690.81	1858.74
691.01	1946.18
691.20	1878.81
691.39	1811.63
691.58	1934.10
691.77	2160.61
691.97	1967.48
692.16	1954.38
692.35	1932.46
692.54	1904.82
692.73	2169.21
692.93	2211.40
693.12	2269.76
693.31	2342.88
693.50	2335.71
693.69	2276.11
693.89	2134.19
694.08	2352.30
694.27	2344.72
694.46	2071.52
694.65	2131.12
694.85	2215.29
695.04	2222.66
695.23	2215.90
695.42	2925.73
695.61	3593.78
695.80	3981.87
696.00	4395.96
696.19	4585.20
696.38	4007.87
696.57	3578.62
696.76	3442.64
696.95	3198.93
697.15	3254.84
697.34	3107.18
697.53	2708.85
697.72	2651.71
697.91	2481.11
698.10	2534.16
698.30	2167.16
698.49	2109.61
698.68	2105.31
698.87	2002.50
699.06	1894.99
699.25	1965.03
699.45	2090.98
699.64	1991.85
699.83	2025.03
700.02	1845.22
700.21	1978.95
700.40	1880.44
700.59	1889.25
700.79	1870.00
700.98	1971.78
701.17	1849.73
701.36	1838.46
701.55	1859.97
701.74	2187.03
701.93	2283.49
702.12	2732.60
702.32	2918.15
702.51	3319.55
702.70	3355.60
702.89	3014.81
703.08	2662.56
703.27	2859.78
703.46	2688.98
703.65	2513.47
703.85	2364.79
704.04	2320.14
704.23	2471.90
704.42	2154.67
704.61	2102.65
704.80	2276.11
704.99	1928.98
705.18	2000.46
705.37	2027.08
705.57	2603.17
705.76	3516.98
705.95	3830.73
706.14	4509.63
706.33	4860.03
706.52	4924.14
706.71	3994.15
706.90	3579.64
707.09	3519.84
707.28	3334.91
707.47	3010.51
707.67	3019.53
707.86	2748.37
708.05	2825.38
708.24	2490.74
708.43	2347.38
708.62	2179.45
708.81	2016.63
709.00	1852.39
709.19	1873.69
709.38	2075.41
709.57	1899.70
709.76	2070.91
709.96	2031.18
710.15	2314.00
710.34	2144.43
710.53	2227.78
710.72	2071.93
710.91	2194.40
711.10	2137.46
711.29	2099.17
711.48	1976.09
711.67	1954.99
711.86	2113.09
712.05	1942.29
712.24	1949.46
712.43	2131.73
712.62	2167.37
712.81	1993.70
713.00	2084.22
713.19	1829.45
713.39	2019.09
713.58	1879.22
713.77	2043.87
713.96	2138.90
714.15	2083.81
714.34	2063.94
714.53	1964.82
714.72	2306.63
714.91	2001.68
715.10	2102.65
715.29	2024.62
715.48	2527.19
715.67	2243.55
715.86	2121.29
716.05	2051.66
716.24	2005.58
716.43	1977.31
716.62	1903.79
716.81	1841.12
717.00	1960.93
717.19	2168.59
717.38	1980.59
717.57	1931.64
717.76	1784.19
717.95	2044.28
718.14	1930.82
718.33	1885.56
718.52	1717.02
718.71	1726.64
718.90	1768.22
719.09	1859.15
719.28	1918.95
719.47	2093.43
719.66	2157.74
719.85	2200.75
720.04	2196.04
720.23	2293.72
720.42	2184.77
720.61	2227.58
720.80	1990.01
720.99	2144.43
721.18	2043.46
721.37	1994.72
721.56	2027.28
721.75	2127.63
721.94	1889.46
722.13	1975.06
722.32	1960.11
722.51	2091.59
722.70	1934.72
722.89	1959.29
723.08	1933.69
723.27	2036.70
723.46	1955.61
723.65	1876.35
723.84	1863.04
724.03	2084.22
724.22	1778.87
724.41	1954.58
724.60	1855.87
724.79	2011.72
724.98	1958.27
725.16	1872.46
725.35	1994.93
725.54	1813.48
725.73	1952.53
725.92	1973.83
726.11	2092.00
726.30	2396.74
726.49	2275.70
726.68	2465.14
726.87	2573.48
727.06	2663.79
727.25	2270.38
727.44	2346.36
727.63	2264.23
727.82	2230.85
728.01	2228.19
728.20	2248.06
728.38	2331.00
728.57	2098.35
728.76	2052.88
728.95	2119.65
729.14	1829.25
729.33	1843.17
729.52	1745.89
729.71	1837.64
729.90	1835.59
730.09	1993.49
730.28	2058.00
730.47	2121.49
730.66	2365.40
730.84	2272.43
731.03	2249.28
731.22	2236.79
731.41	2204.43
731.60	2208.73
731.79	1897.44
731.98	1982.02
732.17	2148.52
732.36	2109.61
732.55	1999.43
732.73	1881.06
732.92	2149.96
733.11	2010.49
733.30	1894.99
733.49	1785.42
733.68	2033.22
733.87	1985.51
734.06	1938.81
734.25	2162.04
734.43	2349.84
734.62	2572.25
734.81	2591.91
735.00	2649.46
735.19	2508.56
735.38	2439.75
735.57	2214.88
735.76	2398.38
735.94	2585.56
736.13	3235.79
736.32	3399.83
736.51	3548.52
736.70	3987.60
736.89	4058.46
737.08	3902.40
737.27	4416.24
737.45	5587.06
737.64	5927.44
737.83	6552.07
738.02	6771.40
738.21	6478.34
738.40	5495.52
738.59	4943.80
738.77	4689.85
738.96	4318.55
739.15	4056.62
739.34	3814.96
739.53	3499.77
739.72	3386.52
739.90	3120.29
740.09	2681.41
740.28	2562.42
740.47	2509.99
740.66	2355.57
740.85	2095.28
741.03	2118.42
741.22	1971.78
741.41	2069.68
741.60	1940.45
741.79	2107.97
741.98	2289.42
742.16	2365.61
742.35	2221.43
742.54	2269.97
742.73	2640.24
742.92	2432.58
743.10	2285.12
743.29	2370.11
743.48	2626.11
743.67	2191.53
743.86	2081.56
744.05	2068.24
744.23	2050.43
744.42	2053.09
744.61	2065.79
744.80	1973.63
744.99	1962.98
745.17	1840.10
745.36	1813.07
745.55	1977.72
745.74	1941.47
745.93	1850.95
746.11	1847.27
746.30	1820.23
746.49	2043.05
746.68	1829.25
746.86	1901.13
747.05	1891.30
747.24	2039.78
747.43	2088.52
747.62	1904.00
747.80	1977.31
747.99	2224.30
748.18	2216.93
748.37	2109.20
748.56	2112.89
748.74	2206.89
748.93	2119.85
749.12	2397.76
749.31	3321.40
749.49	4088.36
749.68	4570.25
749.87	5050.91
750.06	5226.01
750.24	5344.79
750.43	5821.56
750.62	6520.73
750.81	6937.70
750.99	7367.98
751.18	7342.99
751.37	6215.99
751.56	5383.50
751.74	5485.07
751.93	5195.70
752.12	4280.66
752.31	3971.63
752.49	3640.47
752.68	3578.01
752.87	3165.75
753.06	2885.59
753.24	2653.55
753.43	2614.85
753.62	2238.63
753.81	2123.33
753.99	2329.15
754.18	2129.68
754.37	1920.59
754.55	1990.42
754.74	2187.85
754.93	1772.93
755.12	1900.11
755.30	1886.18
755.49	2089.95
755.68	1949.05
755.86	1958.27
756.05	1805.90
756.24	2132.96
756.43	1791.77
756.61	1812.25
756.80	1958.06
756.99	2070.70
757.17	1930.21
757.36	1822.08
757.55	1927.96
757.74	2011.92
757.92	1963.59
758.11	1792.18
758.30	1729.92
758.48	1908.30
758.67	1786.65
758.86	1934.31
759.04	1808.36
759.23	1895.40
759.42	1943.93
759.60	1836.62
759.79	1902.77
759.98	1887.00
760.16	1846.24
760.35	1798.73
760.54	1760.43
760.73	1931.44
760.91	1797.09
761.10	1939.84
761.29	1958.06
761.47	1941.47
761.66	2257.07
761.85	1986.32
762.03	2198.29
762.22	3184.59
762.41	6310.00
762.59	9933.67
762.78	11702.91
762.97	14214.54
763.15	15111.55
763.34	13689.03
763.52	10379.31
763.71	9670.30
763.90	8967.24
764.08	8375.58
764.27	7796.00
764.46	7290.15
764.64	6382.70
764.83	5807.63
765.02	5223.55
765.20	4630.05
765.39	4030.20
765.58	3199.95
765.76	2849.34
765.95	2543.78
766.13	2310.31
766.32	2192.76
766.51	2137.67
766.69	2618.74
766.88	2105.11
767.07	1874.10
767.25	1802.21
767.44	2130.09
767.62	2135.83
767.81	1876.35
768.00	1969.74
768.18	1960.32
768.37	1898.26
768.56	1793.41
768.74	1909.32
768.93	1825.97
769.11	2009.06
769.30	1941.68
769.49	1878.81
769.67	1921.20
769.86	1868.16
770.04	1894.99
770.23	1903.38
770.42	2102.44
770.60	1936.15
770.79	1840.71
770.97	1895.80
771.16	2503.03
771.35	3427.28
771.53	4292.54
771.72	4890.34
771.90	5565.76
772.09	5919.24
772.27	5368.55
772.46	4259.78
772.65	4295.00
772.83	4020.16
773.02	3880.08
773.20	3514.93
773.39	3539.71
773.58	3321.60
773.76	2879.24
773.95	2821.69
774.13	2709.87
774.32	2415.37
774.50	2178.63
774.69	2144.22
774.87	2053.09
775.06	2281.23
775.25	1873.28
775.43	1909.12
775.62	1957.04
775.80	2022.57
775.99	1975.06
776.17	1845.22
776.36	1942.70
776.54	2074.39
776.73	1900.31
776.92	1970.97
777.10	2064.97
777.29	2004.55
777.47	1839.49
777.66	1877.17
777.84	1940.66
778.03	1895.40
778.21	1828.63
778.40	1970.15
778.58	1977.11
778.77	2087.70
778.95	1787.47
779.14	1842.97
779.32	2134.80
779.51	2045.10
779.70	1880.65
779.88	1788.08
780.07	1847.68
780.25	2237.20
780.44	1863.65
780.62	2000.46
780.81	1985.51
780.99	1974.04
781.18	1829.45
781.36	1853.82
781.55	1906.25
781.73	2072.54
781.92	1750.81
782.10	1792.38
782.29	1965.85
782.47	2103.88
782.66	1924.48
782.84	1729.30
783.03	1819.21
783.21	2036.70
783.40	1846.86
783.58	1832.11
783.77	1833.96
783.95	1899.70
784.14	1800.57
784.32	1903.79
784.51	2077.66
784.69	1856.28
784.88	1780.71
785.06	1951.30
785.24	1842.15
785.43	2105.72
785.61	2016.63
785.80	1853.21
785.98	2052.06
786.17	1998.20
786.35	1853.82
786.54	1981.61
786.72	2062.30
786.91	2092.41
787.09	1908.91
787.28	1803.03
787.46	1956.42
787.65	2041.82
787.83	1797.09
788.01	1957.04
788.20	1894.37
788.38	2015.20
788.57	1960.93
788.75	2012.54
788.94	2266.28
789.12	2113.50
789.31	1983.87
789.49	2070.09
789.67	1923.86
789.86	2043.46
790.04	1897.44
790.23	1819.62
790.41	2299.87
790.60	1974.65
790.78	1954.58
790.96	1961.95
791.15	2066.61
791.33	1983.87
791.52	1934.51
791.70	1857.51
791.89	1953.76
792.07	2040.60
792.25	1907.68
792.44	1779.07
792.62	2071.32
792.81	1871.64
792.99	1928.37
793.17	1857.92
793.36	1864.88
793.54	2386.09
793.73	2957.68
793.91	3650.30
794.10	4295.20
794.28	4869.05
794.46	4827.47
794.65	4713.40
794.83	3905.07
795.01	3693.51
795.20	3750.04
795.38	3438.74
795.57	3340.24
795.75	3270.40
795.93	2994.74
796.12	2879.24
796.30	2854.46
796.49	2697.99
796.67	2389.98
796.85	2419.88
797.04	2271.40
797.22	2235.77
797.40	1927.75
797.59	2044.69
797.77	2023.60
797.96	1905.84
798.14	1876.76
798.32	1902.56
798.51	2059.23
798.69	2205.25
798.87	1922.43
799.06	1890.28
799.24	1821.05
799.42	2302.94
799.61	2698.61
799.79	3029.36
799.98	3570.43
800.16	3758.02
800.34	4577.21
800.53	5553.07
800.71	5920.47
800.89	6892.03
801.08	7001.19
801.26	7084.33
801.44	5969.42
801.63	5068.11
801.81	4975.74
801.99	4593.59
802.18	4333.09
802.36	4112.53
802.54	3886.02
802.73	3406.39
802.91	3319.14
803.09	3099.60
803.28	2934.74
803.46	2725.44
803.64	2718.06
803.83	2199.11
804.01	2083.19
804.19	2022.37
804.38	2204.84
804.56	2145.25
804.74	2041.21
804.92	2066.40
805.11	1942.50
805.29	2164.70
805.47	1945.37
805.66	1862.01
805.84	1860.58
806.02	2106.75
806.21	1934.72
806.39	2081.35
806.57	2116.58
806.76	2099.17
806.94	1976.90
807.12	1937.79
807.30	1975.27
807.49	2094.46
807.67	2061.28
807.85	2148.73
808.04	2158.56
808.22	2341.24
808.40	1865.49
808.58	1888.23
808.77	2067.42
808.95	2266.49
809.13	2462.07
809.31	4001.94
809.50	5587.06
809.68	6465.64
809.86	7154.78
810.05	7777.16
810.23	8429.23
810.41	10547.86
810.59	16571.96
810.78	20314.83
810.96	23346.23
811.14	25251.25
811.32	24670.45
811.51	20105.11
811.69	16218.89
811.87	16034.57
812.05	14062.79
812.24	13261.62
812.42	12225.35
812.60	10930.42
812.78	9367.61
812.97	8038.69
813.15	7353.44
813.33	6338.87
813.51	5563.10
813.70	4542.39
813.88	3778.71
814.06	3258.93
814.24	2795.07
814.42	2338.99
814.61	2306.42
814.79	2389.16
814.97	1930.21
815.15	1985.10
815.34	2038.34
815.52	2105.93
815.70	1867.95
815.88	1876.14
816.06	1841.74
816.25	1902.15
816.43	1813.89
816.61	1990.63
816.79	2159.38
816.98	1819.42
817.16	1918.54
817.34	1880.85
817.52	2074.59
817.70	2218.36
817.89	1931.23
818.07	1839.28
818.25	1961.54
818.43	1981.41
818.61	1922.84
818.80	1870.82
818.98	2183.95
819.16	1964.21
819.34	1792.18
819.52	2123.54
819.70	1830.47
819.89	1943.32
820.07	1766.78
820.25	1752.24
820.43	1950.49
820.61	2056.98
820.80	1893.14
820.98	1779.68
821.16	1720.29
821.34	1754.70
821.52	1862.83
821.70	1919.97
821.89	1933.90
822.07	1894.58
822.25	1888.02
822.43	1809.79
822.61	2089.95
822.79	1947.41
822.98	1834.78
823.16	1683.43
823.34	1939.22
823.52	2038.75
823.70	1974.65
823.88	1705.75
824.06	1978.34
824.25	1898.67
824.43	2013.77
824.61	1856.69
824.79	1979.77
824.97	2053.70
825.15	2170.44
825.33	2531.70
825.52	3153.46
825.70	3421.34
825.88	3621.83
826.06	3934.56
826.24	3969.78
826.42	3677.74
826.60	3179.88
826.78	3201.79
826.97	2930.85
827.15	3059.67
827.33	2678.95
827.51	2737.93
827.69	2496.68
827.87	2485.41
828.05	2434.01
828.23	2217.75
828.41	2342.88
828.60	2284.10
828.78	1939.63
828.96	2053.29
829.14	1928.98
829.32	1948.03
829.50	1881.47
829.68	1871.43
829.86	1869.80
830.04	2015.61
830.22	1943.32
830.41	1777.23
830.59	1887.61
830.77	1984.89
830.95	1824.54
831.13	1818.19
831.31	1823.72
831.49	2043.67
831.67	2000.25
831.85	1996.97
832.03	1854.03
832.21	2015.00
832.39	1807.74
832.57	1817.98
832.76	2062.71
832.94	1948.44
833.12	1734.02
833.30	1891.09
833.48	2072.75
833.66	1968.71
833.84	1801.19
834.02	1899.49
834.20	2018.07
834.38	2018.68
834.56	1735.04
834.74	1796.89
834.92	1772.52
835.10	2156.51
835.28	1917.72
835.46	1875.53
835.64	1917.10
835.82	1825.97
836.01	2098.14
836.19	2000.87
836.37	1856.89
836.55	1813.27
836.73	1788.70
836.91	1744.66
837.09	1984.07
837.27	2085.24
837.45	1748.97
837.63	1819.83
837.81	1798.53
837.99	1943.32
838.17	1941.68
838.35	1896.01
838.53	2345.74
838.71	2129.48
838.89	1980.80
839.07	1970.76
839.25	2082.99
839.43	2161.02
839.61	2285.94
839.79	3379.15
839.97	4512.08
840.15	5183.20
840.33	5641.33
840.51	6093.73
840.69	5819.51
840.87	4908.16
841.05	4485.67
841.23	4711.97
841.41	5820.94
841.59	7956.36
841.77	8908.87
841.95	9550.09
842.13	10302.31
842.31	9872.64
842.49	7999.57
842.67	6899.20
842.85	6740.68
843.03	5901.84
843.21	5632.12
843.39	5300.55
843.57	4835.46
843.75	4454.54
843.93	3939.06
844.11	3553.02
844.29	3368.50
844.47	3077.28
844.65	3065.40
844.83	2685.71
845.01	2474.15
845.19	2454.49
845.36	2176.17
845.54	2141.77
845.72	2033.63
845.90	2052.27
846.08	1838.67
846.26	1915.26
846.44	2005.17
846.62	1978.75
846.80	1924.68
846.98	1833.34
847.16	1882.90
847.34	1935.74
847.52	1756.75
847.70	1799.35
847.88	1863.04
848.06	2085.86
848.24	1927.34
848.41	1745.28
848.59	2019.71
848.77	1936.76
848.95	1838.05
849.13	1830.27
849.31	1999.23
849.49	1929.60
849.67	1803.85
849.85	1773.75
850.03	1921.61
850.21	1913.83
850.39	1811.43
850.57	1933.49
850.74	2102.65
850.92	2124.36
851.10	2286.15
851.28	2635.33
851.46	3013.18
851.64	3428.09
851.82	3292.31
852.00	3274.50
852.18	3175.58
852.36	2885.18
852.53	2681.61
852.71	2662.15
852.89	2615.46
853.07	2567.74
853.25	2320.14
853.43	2211.60
853.61	2301.51
853.79	2247.03
853.97	2065.38
854.14	2004.96
854.32	2226.96
854.50	2125.38
854.68	1924.48
854.86	1897.24
855.04	1844.20
855.22	2038.34
855.40	1760.43
855.57	1842.76
855.75	1979.98
855.93	1981.61
856.11	1685.48
856.29	1777.43
856.47	1809.18
856.65	1942.09
856.82	1786.85
857.00	1733.20
857.18	1876.96
857.36	1862.22
857.54	1882.70
857.72	1970.15
857.89	1979.77
858.07	1904.61
858.25	2003.32
858.43	1732.58
858.61	1867.75
858.79	1889.05
858.97	1787.67
859.14	1893.14
859.32	1892.73
859.50	1867.95
859.68	1919.15
859.86	1862.01
860.03	1987.14
860.21	2031.79
860.39	1884.34
860.57	1956.42
860.75	1964.00
860.93	2183.54
861.10	2046.13
861.28	1869.39
861.46	1998.82
861.64	2043.67
861.82	1921.20
861.99	1977.11
862.17	2065.79
862.35	2043.46
862.53	1888.84
862.71	1874.71
862.88	1958.27
863.06	1979.98
863.24	1836.82
863.42	1798.32
863.60	1858.12
863.77	1953.56
863.95	1710.46
864.13	1866.52
864.31	1868.98
864.49	1981.20
864.66	1749.78
864.84	1798.73
865.02	1875.53
865.20	2217.54
865.37	1883.93
865.55	1804.06
865.73	1791.77
865.91	2074.59
866.09	2108.79
866.26	2092.20
866.44	2250.92
866.62	2117.19
866.80	1984.07
866.97	2033.43
867.15	2020.73
867.33	2078.28
867.51	2058.41
867.68	2000.87
867.86	1959.50
868.04	1895.80
868.22	1762.48
868.39	1869.80
868.57	1982.43
868.75	2123.95
868.93	1751.22
869.10	1832.93
869.28	2156.51
869.46	2073.36
869.64	1851.36
869.81	1845.02
869.99	1946.39
870.17	1887.41
870.35	1791.97
870.52	1794.64
870.70	2007.62
870.88	1830.88
871.05	1765.14
871.23	1652.71
871.41	1859.97
871.59	1898.47
871.76	1822.69
871.94	1784.40
872.12	1907.68
872.29	1730.33
872.47	1803.03
872.65	1756.95
872.83	1909.94
873.00	2050.22
873.18	1857.51
873.36	1801.19
873.53	2003.32
873.71	1732.38
873.89	1803.24
874.06	1869.59
874.24	1962.36
874.42	2068.45
874.60	1978.95
874.77	1875.32
874.95	1818.19
875.13	2030.77
875.30	1814.91
875.48	1856.48
875.66	2148.73
875.83	1871.64
876.01	1888.64
876.19	2009.47
876.36	1789.92
876.54	1942.70
876.72	1790.54
876.89	1918.33
877.07	1997.59
877.25	1711.69
877.42	1894.58
877.60	1849.73
877.78	2110.02
877.95	1858.53
878.13	1793.41
878.31	1902.36
878.48	2007.01
878.66	1979.36
878.84	1797.91
879.01	1858.12
879.19	1942.91
879.37	1964.82
879.54	1824.74
879.72	1751.83
879.90	1693.87
880.07	1986.12
880.25	1606.22
880.42	1934.51
880.60	1903.38
880.78	1969.94
880.95	1848.70
881.13	1836.62
881.31	1876.55
881.48	1815.11
881.66	1786.65
881.83	1864.68
882.01	1778.87
882.19	1731.97
882.36	1868.77
882.54	1822.69
882.72	1959.09
882.89	1918.74
883.07	1739.75
883.24	1806.72
883.42	1977.93
883.60	1910.75
883.77	1766.37
883.95	1825.56
884.12	2028.31
884.30	2011.92
884.48	2046.74
884.65	1961.34
884.83	2038.55
885.00	2059.64
885.18	1809.38
885.36	1886.18
885.53	2035.27
885.71	2084.22
885.88	1770.26
886.06	1833.34
886.23	1968.30
886.41	1863.86
886.59	1797.71
886.76	1798.94
886.94	1945.57
887.11	2245.19
887.29	1859.35
887.47	1709.44
887.64	2017.04
887.82	2058.00
887.99	1680.77
888.17	1846.04
888.34	1834.16
888.52	1748.35
888.69	1874.30
888.87	1759.61
889.05	1828.63
889.22	1846.04
889.40	1774.77
889.57	1943.32
889.75	2071.52
889.92	1859.97
890.10	1761.87
890.27	1819.42
890.45	1786.03
890.62	1674.42
890.80	1726.23
890.98	1688.96
891.15	2055.55
891.33	1990.42
891.50	1772.93
891.68	1712.51
891.85	1958.88
892.03	1938.61
892.20	1785.01
892.38	1752.24
892.55	1975.06
892.73	1970.15
892.90	1746.51
893.08	1751.42
893.25	1838.46
893.43	1832.32
893.60	1935.33
893.78	1648.61
893.95	1935.13
894.13	1853.82
894.30	1775.38
894.48	1820.23
894.65	1963.80
894.83	1892.32
895.00	1680.56
895.18	1678.52
895.35	1987.14
895.53	1962.77
895.70	1742.62
895.88	1915.06
896.05	1956.22
896.23	1753.27
896.40	1822.08
896.58	1870.00
896.75	1968.30
896.93	2100.19
897.10	1775.79
897.28	1747.12
897.45	1921.61
897.63	1964.41
897.80	1949.05
897.98	1832.52
898.15	1922.63
898.33	1769.65
898.50	1874.30
898.67	1836.41
898.85	1824.94
899.02	1955.40
899.20	2002.30
899.37	1831.50
899.55	1901.33
899.72	2056.78
899.90	1777.23
900.07	1780.91
900.25	1924.27
900.42	2024.21
900.59	1772.52
900.77	1921.40
900.94	1943.11
901.12	1908.30
901.29	1799.14
901.47	1928.98
901.64	1949.67
901.82	1880.65
901.99	1628.14
902.16	1768.63
902.34	2009.47
902.51	1916.28
902.69	1803.44
902.86	1860.17
903.03	2321.78
903.21	1878.40
903.38	1841.74
903.56	1787.47
903.73	1999.23
903.91	1831.29
904.08	1731.97
904.25	1665.41
904.43	1796.68
904.60	1983.66
904.78	1808.15
904.95	1752.45
905.12	1864.68
905.30	2110.02
905.47	1942.91
905.65	1968.51
905.82	1890.48
905.99	1994.52
906.17	1917.10
906.34	1846.45
906.52	1889.05
906.69	2087.70
906.86	2056.57
907.04	1933.69
907.21	2103.67
907.38	2079.30
907.56	1849.11
907.73	1843.38
907.91	2113.50
908.08	2038.34
908.25	1789.92
908.43	1790.95
908.60	1961.54
908.77	1927.34
908.95	1811.84
909.12	1775.59
909.30	2020.53
909.47	1735.24
909.64	1860.17
909.82	1963.18
909.99	1842.97
910.16	1905.23
910.34	1783.99
910.51	1833.14
910.68	1926.93
910.86	1904.82
911.03	1787.47
911.20	2019.50
911.38	2883.74
911.55	4054.16
911.72	4508.81
911.90	4721.80
912.07	5191.81
912.24	5111.93
912.42	4114.57
912.59	3253.20
912.76	3225.35
912.94	2907.91
913.11	2610.14
913.28	2452.85
913.46	2318.30
913.63	2401.45
913.80	2534.16
913.98	2214.67
914.15	2364.99
914.32	2349.84
914.49	2161.63
914.67	2065.79
914.84	2195.63
915.01	2239.66
915.19	2112.48
915.36	2009.06
915.53	2149.55
915.71	2076.03
915.88	1970.15
916.05	1861.19
916.22	2036.09
916.40	1936.35
916.57	1768.83
916.74	1912.19
916.92	2077.66
917.09	1755.11
917.26	1775.38
917.43	1748.76
917.61	1834.16
917.78	1706.78
917.95	1700.43
918.13	1736.06
918.30	2155.69
918.47	1921.20
918.64	1801.60
918.82	1820.23
918.99	1976.70
919.16	2207.71
919.33	1963.59
919.51	1923.86
919.68	1998.20
919.85	2153.03
920.02	1757.77
920.20	1841.53
920.37	2102.44
920.54	2023.80
920.71	1794.23
920.89	1823.10
921.06	2140.33
921.23	1829.04
921.40	1834.57
921.58	2179.65
921.75	2784.62
921.92	2384.86
922.09	2501.80
922.27	2537.64
922.44	2493.20
922.61	2348.41
922.78	2102.65
922.96	2058.62
923.13	2016.43
923.30	2132.35
923.47	1829.86
923.64	1892.94
923.82	2023.60
923.99	1995.13
924.16	1974.65
924.33	1820.85
924.50	1976.29
924.68	2141.36
924.85	1790.33
925.02	1841.74
925.19	2020.73
925.36	1947.00
925.54	1910.35
925.71	1882.70
925.88	2311.95
926.05	1880.85
926.22	1752.04
926.40	1854.23
926.57	1922.43
926.74	1980.18
926.91	1786.24
927.08	1969.12
927.26	1996.56
927.43	1893.14
927.60	1768.83
927.77	1845.22
927.94	2090.16
928.11	2050.02
928.29	1679.95
928.46	1877.99
928.63	1859.15
928.80	1870.41
928.97	1895.80
929.14	1752.45
929.32	2181.91
929.49	1891.71
929.66	1798.32
929.83	1663.97
930.00	1842.15
930.17	1940.45
930.35	1708.62
930.52	1780.09
930.69	2061.69
930.86	1739.34
931.03	1859.35
931.20	1636.33
931.37	2007.21
931.55	1865.49
931.72	1842.76
931.89	1719.06
932.06	1755.11
932.23	2080.74
932.40	1924.27
932.57	1903.38
932.74	2031.99
932.92	2029.74
933.09	1950.08
933.26	1581.44
933.43	1848.09
933.60	1932.05
933.77	1826.38
933.94	1900.31
934.11	1845.22
934.29	1904.41
934.46	1736.06
934.63	1899.49
934.80	1743.23
934.97	1900.31
935.14	1852.80
935.31	1708.01
935.48	1819.01
935.65	1950.28
935.82	1893.55
936.00	1737.70
936.17	2078.89
936.34	1873.07
936.51	1925.09
936.68	1722.55
936.85	1933.08
937.02	1876.55
937.19	1913.01
937.36	1840.30
937.53	1942.70
937.70	1994.11
937.87	1855.66
938.05	1886.59
938.22	1888.84
938.39	1758.80
938.56	1826.17
938.73	1752.86
938.90	1851.57
939.07	1784.40
939.24	1851.36
939.41	1678.11
939.58	1930.01
939.75	1961.54
939.92	1783.37
940.09	1970.35
940.26	1855.05
940.43	2001.89
940.60	1796.89
940.77	1805.90
940.95	1930.42
941.12	1965.44
941.29	1781.32
941.46	1837.85
941.63	2024.83
941.80	2054.73
941.97	1688.96
942.14	1719.06
942.31	1975.27
942.48	1858.74
942.65	1886.59
942.82	1814.09
942.99	1974.24
943.16	1884.75
943.33	1727.26
943.50	1770.47
943.67	1959.91
943.84	2010.29
944.01	1803.85
944.18	1739.14
944.35	2032.81
944.52	1813.89
944.69	1824.74
944.86	1711.69
945.03	1982.84
945.20	2219.79
945.37	1693.06
945.54	1847.68
945.71	2061.08
945.88	2145.66
946.05	1754.09
946.22	1747.74
946.39	2048.58
946.56	1897.65
946.73	1713.74
946.90	1744.05
947.07	1847.27
947.24	1861.60
947.41	1671.96
947.58	1901.74
947.75	1972.40
947.92	1948.85
948.09	1589.63
948.26	1703.30
948.43	1903.79
948.60	2120.67
948.77	1761.05
948.94	1789.72
949.11	1988.17
949.27	1924.89
949.44	1770.26
949.61	1742.41
949.78	1913.83
949.95	2017.25
950.12	1724.59
950.29	1701.45
950.46	1823.72
950.63	2008.85
950.80	1752.24
950.97	1817.16
951.14	2013.36
951.31	1842.15
951.48	1788.08
951.65	1727.05
951.82	2122.92
951.99	1909.94
952.15	1685.07
952.32	1782.76
952.49	1819.62
952.66	1823.51
952.83	1763.71
953.00	1729.51
953.17	1856.89
953.34	1970.15
953.51	1821.26
953.68	1801.80
953.85	1987.35
954.02	2008.44
954.18	1817.78
954.35	1797.30
954.52	1784.80
954.69	1883.93
954.86	1654.96
955.03	1811.43
955.20	1955.20
955.37	1853.41
955.54	1760.84
955.71	1753.47
955.87	1931.85
956.04	2078.48
956.21	1794.84
956.38	1730.12
956.55	1873.89
956.72	2196.65
956.89	1813.27
957.06	1749.17
957.23	1798.32
957.39	2018.27
957.56	1772.11
957.73	1718.04
957.90	1639.40
958.07	2117.60
958.24	1840.71
958.41	1782.96
958.57	1989.19
958.74	1895.60
958.91	1728.49
959.08	1741.18
959.25	1963.18
959.42	1863.65
959.59	1829.04
959.75	1762.28
959.92	2005.78
960.09	2001.68
960.26	1748.56
960.43	1822.69
960.60	1922.22
960.76	1845.02
960.93	1712.51
961.10	1854.85
961.27	1994.93
961.44	1847.68
961.61	1713.74
961.77	1699.61
961.94	1895.40
962.11	1989.81
962.28	1781.12
962.45	1711.69
962.62	1846.65
962.78	1994.72
962.95	1700.22
963.12	1777.23
963.29	1950.90
963.46	2228.60
963.62	1845.02
963.79	1782.76
963.96	2177.81
964.13	1813.68
964.30	1874.51
964.46	1769.65
964.63	1779.89
964.80	2230.44
964.97	1689.78
965.14	1978.54
965.30	2087.08
965.47	2193.17
965.64	2097.12
965.81	2054.52
965.98	2237.20
966.14	2014.79
966.31	1882.90
966.48	1858.12
966.65	2085.86
966.81	2004.55
966.98	1865.70
967.15	1865.09
967.32	1939.02
967.49	1851.98
967.65	1706.98
967.82	1670.32
967.99	1904.82
968.16	1718.66
968.32	1977.93
968.49	1805.49
968.66	1868.57
968.83	2110.43
968.99	1861.60
969.16	1762.07
969.33	2076.64
969.50	1959.09
969.66	1889.25
969.83	2033.02
970.00	1958.68
970.17	1941.88
970.33	1791.56
970.50	1727.67
970.67	2068.86
970.84	2041.21
971.00	1730.53
971.17	1692.24
971.34	1969.12
971.50	1873.89
971.67	1911.78
971.84	1828.84
972.01	1750.81
972.17	1635.30
972.34	1711.90
972.51	1860.99
972.67	2002.91
972.84	1921.40
973.01	1706.57
973.18	1769.65
973.34	1984.28
973.51	1768.42
973.68	1773.34
973.84	1805.90
974.01	1874.30
974.18	2079.30
974.34	1859.56
974.51	1842.56
974.68	1773.13
974.85	2127.63
975.01	1898.26
975.18	1788.08
975.35	1868.77
975.51	1783.17
975.68	1686.30
975.85	1920.18
976.01	1803.24
976.18	2048.58
976.35	1791.56
976.51	1763.92
976.68	2087.08
976.85	2029.33
977.01	1828.22
977.18	1854.85
977.35	1949.67
977.51	1753.68
977.68	1634.07
977.85	1721.11
978.01	2028.10
978.18	1983.05
978.35	1851.36
978.51	1849.73
978.68	2034.25
978.85	2082.58
979.01	1798.12
979.18	1838.05
979.34	1858.74
979.51	1915.47
979.68	1743.03
979.84	1793.20
980.01	2201.36
980.18	1895.40
980.34	1741.80
980.51	1848.29
980.67	1996.97
980.84	1996.77
981.01	1804.26
981.17	1852.39
981.34	1676.67
981.51	1971.58
981.67	1740.77
981.84	1896.83
982.00	1929.80
982.17	1864.68
982.34	1670.94
982.50	1604.79
982.67	2078.69
982.83	1833.14
983.00	1724.80
983.17	1610.11
983.33	2008.44
983.50	1702.68
983.66	1711.28
983.83	1611.75
984.00	1850.75
984.16	1888.23
984.33	1599.67
984.49	1608.88
984.66	1772.52
984.83	1973.83
984.99	1653.73
985.16	1608.88
985.32	1964.21
985.49	1956.63
985.65	1754.49
985.82	1612.78
985.99	2050.02
986.15	1898.88
986.32	1690.19
986.48	1678.11
986.65	1822.08
986.81	1942.29
986.98	1625.88
987.14	1709.64
987.31	1892.12
987.48	1683.84
987.64	1563.62
987.81	1555.23
987.97	2149.96
988.14	1777.43
988.30	1648.82
988.47	1504.03
988.63	1931.64
988.80	1747.53
988.96	1688.35
989.13	1738.52
989.30	1838.87
989.46	1974.86
989.63	1591.07
989.79	1595.78
989.96	1853.21
990.12	2062.71
990.29	1625.06
990.45	1682.20
990.62	1876.35
990.78	2039.98
990.95	1738.11
991.11	1622.40
991.28	1816.55
991.44	1889.25
991.61	1556.05
991.77	1692.65
991.94	1858.33
992.10	2005.17
992.27	1725.21
992.43	1664.18
992.60	1926.32
992.76	1812.25
992.93	1794.84
993.09	1607.66
993.26	1981.00
993.42	2078.48
993.59	1664.79
993.75	1549.08
993.92	1777.43
994.08	1800.78
994.25	1712.51
994.41	1628.95
994.58	1954.79
994.74	2067.63
994.91	1622.40
995.07	1719.88
995.24	1851.16
995.40	1853.62
995.56	1772.31
995.73	1737.50
995.89	2087.08
996.06	1890.68
996.22	1646.98
996.39	1574.27
996.55	1854.44
996.72	1926.11
996.88	1587.18
997.05	1621.58
997.21	2110.84
997.37	1947.82
997.54	1704.52
997.70	1674.01
997.87	1925.91
998.03	1881.47
998.20	1566.29
998.36	1583.28
998.52	1934.51
998.69	1989.19
998.85	1576.73
999.02	1666.84
999.18	1989.81
999.35	1992.26
999.51	1667.46
999.67	1677.49
999.84	1747.53
1000.00	1926.32
1000.17	1718.45
1000.33	1614.62
1000.49	1815.11
1000.66	1847.06
1000.82	1632.03
1000.99	1714.97
1001.15	2024.01
1001.31	1852.59
1001.48	1666.64
1001.64	1701.86
1001.81	1823.92
1001.97	2122.51
1002.13	1645.13
1002.30	1654.35
1002.46	2040.60
1002.63	1833.96
1002.79	1715.58
1002.95	1658.85
1003.12	1995.54
1003.28	1939.43
1003.45	1636.33
1003.61	1601.31
1003.77	1881.06
1003.94	1694.49
1004.10	1672.17
1004.26	1721.11
1004.43	1917.72
1004.59	2089.54
1004.75	1659.06
1004.92	1634.48
1005.08	1831.91
1005.25	1926.11
1005.41	1658.24
1005.57	1739.95
1005.74	2034.45
1005.90	1854.03
1006.06	1740.57
1006.23	1678.72
1006.39	1960.32
1006.55	2237.20
1006.72	1801.19
1006.88	1609.50
1007.04	1768.22
1007.21	1877.17
1007.37	1688.96
1007.53	1677.90
1007.70	2084.22
1007.86	1980.18
1008.02	1704.52
1008.19	1629.77
1008.35	1909.53
1008.51	1751.83
1008.68	1665.61
1008.84	1583.49
1009.00	1763.10
1009.17	1982.43
1009.33	1791.36
1009.49	1723.16
1009.65	1776.61
1009.82	1905.43
1009.98	1712.72
1010.14	1554.61
1010.31	1974.04
1010.47	1955.81
1010.63	1717.63
1010.80	1700.84
1010.96	1932.46
1011.12	1851.36
1011.28	1652.30
1011.45	1647.59
1011.61	2189.07
1011.77	1759.00
1011.94	1635.10
1012.10	1582.67
1012.26	1752.86
1012.42	1797.30
1012.59	1705.75
1012.75	1671.96
1012.91	1831.29
1013.07	1984.89
1013.24	1618.30
1013.40	1648.00
1013.56	1890.68
1013.72	1887.00
1013.89	1723.78
1014.05	1724.18
1014.21	2132.96
1014.37	2198.90
1014.54	1706.57
1014.70	1606.22
1014.86	1836.21
1015.02	1720.29
1015.19	1688.76
1015.35	1599.87
1015.51	1846.45
1015.67	1800.16
1015.84	1629.36
1016.00	1657.42
1016.16	2013.15
1016.32	1968.71
1016.49	1638.17
1016.65	1610.73
1016.81	1854.44
1016.97	1917.31
1017.14	1765.96
1017.30	1636.12
1017.46	1804.06
1017.62	1883.72
1017.78	1703.50
1017.95	1605.81
1018.11	1961.13
1018.27	2178.63
1018.43	1758.18
1018.59	1702.48
1018.76	1963.59
1018.92	2220.82
1019.08	1624.86
1019.24	1689.98
1019.40	2052.06
1019.57	1904.20
1019.73	1720.91
1019.89	1684.04
1020.05	1928.16
1020.21	2111.46
1020.38	1623.83
1020.54	1802.21
1020.70	1958.47
1020.86	1942.29
1021.02	1646.36
1021.18	1641.65
1021.35	1799.35
1021.51	1938.20
1021.67	1756.54
1021.83	1654.14
1021.99	1847.06
1022.15	1915.87
1022.32	1729.51
1022.48	1725.62
1022.64	2060.67
1022.80	2066.20
1022.96	1711.28
1023.12	1598.44
1023.29	1996.77
1023.45	1939.84
1023.61	1624.86
1023.77	1799.96
1023.93	1922.22
1024.09	1771.08
1024.25	1605.81
1024.42	1609.70
1024.58	1802.01
1024.74	1901.95
1024.90	1661.52
1025.06	1717.63
1025.22	1804.67
1025.38	2084.83
1025.54	1599.05
1025.71	1736.68
1025.87	1950.90
1026.03	1937.58
1026.19	1626.09
1026.35	1778.66
1026.51	1936.15
1026.67	1869.18
1026.83	1689.78
1026.99	1781.73
1027.16	1930.42
1027.32	1894.99
1027.48	1659.26
1027.64	1624.65
1027.80	1931.85
1027.96	1905.43
1028.12	1652.71
1028.28	1633.66
1028.44	1918.74
1028.60	2085.86
1028.77	1781.53
1028.93	1700.02
1029.09	1838.26
1029.25	1724.59
1029.41	1705.96
1029.57	1747.94
1029.73	1869.59
1029.89	2064.97
1030.05	1776.82
1030.21	1712.10
1030.37	2150.78
1030.53	1925.50
1030.69	1669.71
1030.85	1594.34
1031.02	1759.61
1031.18	1876.55
1031.34	1677.90
1031.50	1743.64
1031.66	1763.10
1031.82	2036.91
1031.98	1722.75
1032.14	1615.03
1032.30	1764.94
1032.46	1966.87
1032.62	1800.78
1032.78	1592.30
1032.94	1787.88
1033.10	1817.98
1033.26	1709.44
1033.42	1742.00
1033.58	2130.09
1033.74	1819.42
1033.90	1666.02
1034.06	1827.40
1034.22	2163.88
1034.38	2016.23
1034.54	1683.02
1034.70	1713.74
1034.86	2080.74
>>>>>End Processed Spectral Data<<<<<
