SpectraSuite Data File
++++++++++++++++++++++++++++++++++++
Date: Thu Mar 30 14:17:40 PDT 2017
User: UCSD _CER
Dark Spectrum Present: No
Reference Spectrum Present: No
Number of Sampled Component Spectra: 1
Spectrometers: USB4C00073
Integration Time (usec): 380000 (USB4C00073)
Spectra Averaged: 10 (USB4C00073)
Boxcar Smoothing: 0 (USB4C00073)
Correct for Electrical Dark: No (USB4C00073)
Strobe/Lamp Enabled: No (USB4C00073)
Correct for Detector Non-linearity: No (USB4C00073)
Correct for Stray Light: No (USB4C00073)
Number of Pixels in Processed Spectrum: 3648
>>>>>Begin Processed Spectral Data<<<<<
345.37	1237.79
345.58	1237.79
345.80	1237.79
346.01	1240.25
346.22	1198.68
346.43	2039.37
346.65	1882.08
346.86	2398.38
347.07	2363.97
347.28	1824.13
347.50	1814.09
347.71	2095.69
347.92	1840.10
348.13	1785.01
348.35	1757.36
348.56	2092.82
348.77	1909.73
348.98	1828.63
349.20	1664.38
349.41	2096.51
349.62	2241.71
349.83	1891.91
350.05	1803.24
350.26	2136.03
350.47	2298.23
350.68	1777.23
350.90	1711.49
351.11	2345.95
351.32	2283.28
351.53	1836.82
351.75	1770.67
351.96	2129.89
352.17	2060.46
352.38	1884.75
352.60	1863.45
352.81	2098.14
353.02	2369.30
353.23	1783.99
353.44	1799.35
353.66	2002.09
353.87	2037.11
354.08	1870.41
354.29	1796.27
354.51	1981.41
354.72	2009.06
354.93	1764.94
355.14	1781.53
355.35	1805.90
355.57	2212.01
355.78	1823.51
355.99	1873.89
356.20	2085.04
356.42	2040.39
356.63	1917.10
356.84	1787.67
357.05	2219.79
357.26	2440.56
357.48	1924.07
357.69	1846.45
357.90	2124.97
358.11	1999.23
358.32	1811.43
358.54	1874.92
358.75	2024.83
358.96	2205.25
359.17	1796.68
359.38	1823.92
359.60	2186.41
359.81	2051.25
360.02	1829.25
360.23	1761.87
360.44	1942.29
360.66	2218.56
360.87	1793.61
361.08	1783.78
361.29	2153.44
361.50	2110.43
361.72	1813.68
361.93	1866.52
362.14	2083.81
362.35	1826.79
362.56	1956.83
362.77	1696.54
362.99	2177.61
363.20	2089.95
363.41	1888.64
363.62	1682.41
363.83	2165.52
364.05	2232.08
364.26	1772.93
364.47	1784.80
364.68	2263.21
364.89	1941.47
365.10	1738.11
365.32	1846.24
365.53	1945.98
365.74	1990.42
365.95	1802.62
366.16	1694.69
366.37	2069.06
366.59	2010.08
366.80	1820.44
367.01	1701.04
367.22	2435.03
367.43	2573.48
367.64	1870.82
367.86	1816.14
368.07	2163.68
368.28	2287.99
368.49	1720.09
368.70	1860.58
368.91	2033.43
369.12	2065.99
369.34	1757.77
369.55	1694.49
369.76	2076.23
369.97	2014.79
370.18	1712.72
370.39	1790.54
370.60	1856.48
370.82	1906.86
371.03	1823.92
371.24	1775.38
371.45	2207.71
371.66	2201.98
371.87	1815.52
372.08	1840.92
372.30	1962.98
372.51	2262.80
372.72	1986.53
372.93	1798.32
373.14	2368.48
373.35	1976.70
373.56	1746.51
373.78	1826.99
373.99	2212.83
374.20	2572.04
374.41	1794.64
374.62	1788.70
374.83	2339.19
375.04	2026.47
375.25	1849.32
375.47	1853.21
375.68	1993.29
375.89	2200.95
376.10	1831.09
376.31	1898.06
376.52	2171.05
376.73	2149.55
376.94	1873.89
377.15	1766.17
377.37	2075.21
377.58	2044.49
377.79	1719.88
378.00	1771.90
378.21	2150.98
378.42	2178.22
378.63	1857.92
378.84	1912.19
379.05	2292.91
379.27	2107.56
379.48	1940.04
379.69	1790.95
379.90	2272.63
380.11	1770.67
380.32	1814.71
380.53	1949.26
380.74	2321.17
380.95	2075.82
381.16	1856.89
381.37	1853.21
381.59	2330.79
381.80	2250.51
382.01	1778.87
382.22	1733.61
382.43	2156.92
382.64	2087.08
382.85	1742.21
383.06	1843.58
383.27	2180.47
383.48	2029.33
383.69	1873.89
383.91	1767.60
384.12	2204.64
384.33	2188.87
384.54	1888.02
384.75	1798.73
384.96	2637.37
385.17	2275.91
385.38	1830.47
385.59	1778.46
385.80	2228.80
386.01	2335.50
386.22	1926.73
386.43	1814.30
386.64	2468.21
386.86	2050.22
387.07	1920.38
387.28	1716.40
387.49	1996.36
387.70	2280.82
387.91	1952.33
388.12	1840.51
388.33	2153.44
388.54	1968.71
388.75	1784.60
388.96	1866.31
389.17	1995.54
389.38	2063.74
389.59	1898.06
389.80	1912.39
390.01	2071.93
390.22	1987.35
390.43	1924.89
390.64	1701.04
390.86	2164.29
391.07	2250.72
391.28	1816.34
391.49	1873.48
391.70	1883.11
391.91	1960.52
392.12	1831.91
392.33	1915.26
392.54	2120.67
392.75	2075.21
392.96	1909.12
393.17	1825.15
393.38	2472.10
393.59	2265.05
393.80	1713.13
394.01	1831.09
394.22	2057.18
394.43	2372.57
394.64	1745.69
394.85	1894.58
395.06	2054.93
395.27	2112.68
395.48	1812.25
395.69	1717.84
395.90	2036.70
396.11	2066.61
396.32	1801.60
396.53	1918.95
396.74	2043.05
396.95	2239.45
397.16	1792.18
397.37	1683.23
397.58	2214.88
397.79	2088.11
398.00	1874.92
398.21	1864.88
398.42	2139.72
398.63	2449.78
398.84	1804.06
399.05	1790.95
399.26	2294.75
399.47	2161.63
399.68	1666.84
399.89	1751.01
400.10	1886.18
400.31	2006.60
400.52	1872.05
400.73	1809.99
400.94	1874.92
401.15	2138.28
401.36	1857.51
401.57	1885.77
401.78	2287.58
401.99	2260.14
402.20	1765.14
402.41	1984.69
402.62	2341.03
402.83	2062.30
403.04	1792.38
403.25	2022.57
403.46	2117.80
403.67	2294.95
403.88	1798.73
404.09	1773.13
404.30	1951.71
404.51	1942.29
404.72	1757.57
404.93	1961.75
405.14	1942.09
405.35	2083.60
405.56	1858.53
405.77	1764.94
405.98	2111.66
406.19	2063.53
406.40	1748.35
406.61	1836.62
406.82	1981.00
407.03	2462.89
407.24	1758.80
407.45	1866.11
407.66	2117.60
407.87	2254.20
408.08	1918.74
408.29	1896.62
408.49	2177.20
408.70	2068.04
408.91	1809.38
409.12	1943.93
409.33	1931.44
409.54	2291.47
409.75	1763.92
409.96	1804.06
410.17	2232.70
410.38	2062.71
410.59	1786.65
410.80	1934.10
411.01	2072.54
411.22	2047.76
411.43	1909.94
411.64	1777.84
411.85	1924.68
412.06	1957.45
412.27	1633.46
412.47	1773.34
412.68	2077.66
412.89	2160.40
413.10	1840.30
413.31	1711.90
413.52	2398.79
413.73	2395.30
413.94	1808.36
414.15	1975.88
414.36	1980.18
414.57	1923.66
414.78	1712.92
414.99	1753.47
415.19	2148.93
415.40	2081.76
415.61	1961.54
415.82	1867.75
416.03	2156.72
416.24	2132.75
416.45	1812.04
416.66	1737.70
416.87	1848.29
417.08	2170.85
417.29	1772.72
417.50	1874.30
417.70	2154.46
417.91	2112.27
418.12	1858.94
418.33	1799.96
418.54	2141.36
418.75	2208.94
418.96	1919.97
419.17	1858.12
419.38	2272.63
419.59	2141.15
419.79	1900.52
420.00	1813.27
420.21	2534.16
420.42	2093.64
420.63	1818.19
420.84	1881.06
421.05	2093.23
421.26	2077.66
421.47	1742.62
421.67	2147.70
421.88	1942.91
422.09	1875.12
422.30	2074.39
422.51	1854.03
422.72	2409.44
422.93	2226.96
423.14	1882.49
423.35	1715.17
423.55	1865.49
423.76	1958.06
423.97	1838.87
424.18	1716.61
424.39	2016.84
424.60	2248.46
424.81	1819.83
425.02	1914.24
425.22	1992.26
425.43	2009.47
425.64	2006.19
425.85	1868.36
426.06	2441.18
426.27	2238.63
426.48	1939.84
426.68	1906.04
426.89	2195.83
427.10	2396.53
427.31	1832.52
427.52	1784.40
427.73	2194.60
427.94	2124.15
428.14	1986.32
428.35	1868.77
428.56	2328.95
428.77	2236.79
428.98	1877.58
429.19	1857.71
429.40	1997.38
429.60	2012.74
429.81	1965.44
430.02	1887.41
430.23	2046.13
430.44	2209.35
430.65	1782.76
430.85	1837.85
431.06	2175.15
431.27	1839.28
431.48	1869.18
431.69	1876.35
431.90	2065.17
432.10	2070.70
432.31	1911.78
432.52	1826.38
432.73	2531.49
432.94	2351.07
433.15	2002.71
433.35	1807.95
433.56	2302.53
433.77	2089.34
433.98	2095.28
434.19	1984.69
434.40	2290.24
434.60	2286.76
434.81	2110.23
435.02	2030.15
435.23	2157.33
435.44	2079.71
435.64	1770.67
435.85	1798.53
436.06	2051.04
436.27	2042.03
436.48	1773.54
436.68	1807.54
436.89	2398.38
437.10	2229.42
437.31	1942.91
437.52	2035.89
437.73	2201.98
437.93	2169.41
438.14	1937.58
438.35	1745.69
438.56	2010.90
438.77	2067.42
438.97	2019.71
439.18	1828.02
439.39	2280.41
439.60	1883.31
439.80	1798.73
440.01	1876.35
440.22	2007.62
440.43	2192.76
440.64	1792.18
440.84	1895.60
441.05	1892.73
441.26	2554.64
441.47	1940.66
441.68	1913.83
441.88	2221.02
442.09	2252.56
442.30	2228.60
442.51	2231.06
442.71	2244.78
442.92	2290.65
443.13	1969.94
443.34	1909.94
443.55	1986.32
443.75	2232.29
443.96	1815.32
444.17	1793.61
444.38	2264.44
444.58	1930.62
444.79	1938.61
445.00	1894.99
445.21	2076.23
445.41	2018.89
445.62	1688.76
445.83	1965.23
446.04	2076.03
446.24	1842.56
446.45	1682.82
446.66	1837.85
446.87	2131.12
447.07	1981.82
447.28	2059.85
447.49	1837.23
447.70	2239.25
447.90	2223.68
448.11	1870.82
448.32	1952.12
448.53	2311.13
448.73	2315.02
448.94	1831.91
449.15	1999.23
449.36	2101.42
449.56	2146.68
449.77	1853.41
449.98	1741.18
450.19	2012.95
450.39	1998.00
450.60	1934.72
450.81	1919.56
451.02	2079.51
451.22	2336.73
451.43	1811.43
451.64	1830.68
451.84	1995.95
452.05	2284.51
452.26	1839.28
452.47	1881.26
452.67	2022.57
452.88	2327.72
453.09	1780.50
453.30	1784.80
453.50	2232.29
453.71	2427.05
453.92	1970.15
454.12	2120.26
454.33	2169.62
454.54	2189.89
454.75	1898.06
454.95	1832.11
455.16	2113.50
455.37	2170.85
455.57	1986.53
455.78	1866.72
455.99	2078.07
456.19	2076.03
456.40	1796.68
456.61	1875.73
456.82	2064.15
457.02	2248.46
457.23	2063.33
457.44	2177.81
457.64	2174.33
457.85	2309.29
458.06	1988.58
458.26	2085.24
458.47	2098.14
458.68	2293.72
458.89	1837.23
459.09	2009.06
459.30	2417.83
459.51	2087.29
459.71	1734.83
459.92	1824.33
460.13	2232.29
460.33	2472.51
460.54	1925.09
460.75	1930.62
460.95	1907.89
461.16	2183.13
461.37	1862.22
461.57	1864.06
461.78	2082.78
461.99	1879.01
462.19	2087.70
462.40	1806.31
462.61	2675.06
462.81	2269.35
463.02	1786.85
463.23	1832.11
463.43	2202.39
463.64	1986.53
463.85	3085.47
464.05	1826.17
464.26	2616.48
464.47	2310.11
464.67	2046.74
464.88	1996.97
465.09	2057.18
465.29	2269.15
465.50	2171.05
465.71	2057.80
465.91	2112.07
466.12	2121.08
466.33	1963.39
466.53	1845.63
466.74	2357.01
466.94	2065.79
467.15	1923.25
467.36	2060.26
467.56	1928.16
467.77	2107.16
467.98	1898.67
468.18	1877.37
468.39	1998.41
468.60	2384.65
468.80	1872.87
469.01	1788.08
469.21	2144.63
469.42	2283.69
469.63	1893.76
469.83	1784.80
470.04	2182.73
470.25	2309.49
470.45	1981.41
470.66	1866.72
470.86	2097.12
471.07	2026.26
471.28	1940.66
471.48	1952.94
471.69	2122.72
471.90	2854.05
472.10	2106.54
472.31	2083.60
472.51	2223.07
472.72	2210.78
472.93	1989.40
473.13	2080.74
473.34	2248.46
473.54	2171.67
473.75	2002.30
473.96	2115.76
474.16	2094.66
474.37	2172.69
474.57	1978.75
474.78	1825.76
474.99	2142.38
475.19	2122.51
475.40	1888.23
475.60	1904.20
475.81	2524.74
476.02	2284.92
476.22	2191.94
476.43	2260.14
476.63	2204.23
476.84	2362.13
477.05	1801.60
477.25	1866.52
477.46	2624.68
477.66	2109.61
477.87	1827.61
478.08	1867.13
478.28	2239.66
478.49	2042.23
478.69	1852.18
478.90	1877.17
479.10	2188.05
479.31	2402.27
479.52	1962.98
479.72	2011.31
479.93	2241.30
480.13	2079.10
480.34	1914.65
480.54	2008.03
480.75	2009.47
480.96	2314.82
481.16	1834.16
481.37	1983.46
481.57	2214.67
481.78	2137.67
481.98	2104.08
482.19	1985.30
482.40	2396.94
482.60	2186.00
482.81	2004.14
483.01	1798.73
483.22	2189.48
483.42	2206.28
483.63	1971.78
483.83	1935.54
484.04	2034.86
484.24	2253.99
484.45	2066.81
484.66	1847.68
484.86	2199.72
485.07	1956.63
485.27	1920.99
485.48	1825.56
485.68	2307.86
485.89	1980.39
486.09	1999.02
486.30	1881.88
486.50	2101.83
486.71	2085.86
486.91	1959.50
487.12	2234.74
487.33	2763.73
487.53	2910.37
487.74	2558.73
487.94	2498.52
488.15	2464.94
488.35	2352.71
488.56	2067.83
488.76	1961.75
488.97	2170.23
489.17	2229.83
489.38	2038.96
489.58	1952.94
489.79	2205.25
489.99	2178.22
490.20	1914.03
490.40	2007.62
490.61	2152.82
490.81	2002.30
491.02	1939.63
491.22	1947.82
491.43	2223.48
491.63	2089.95
491.84	2041.82
492.04	1804.87
492.25	2187.64
492.45	2045.10
492.66	1861.81
492.86	1813.27
493.07	2039.78
493.27	2437.90
493.48	1766.37
493.68	1866.52
493.89	2027.69
494.09	2206.07
494.30	1885.97
494.50	2142.18
494.71	2166.14
494.91	1850.95
495.12	1880.44
495.32	1982.43
495.53	2105.31
495.73	1932.26
495.94	2132.35
496.14	1987.35
496.35	2601.33
496.55	2229.62
496.76	1975.88
496.96	2018.27
497.17	2098.55
497.37	2198.08
497.58	1936.56
497.78	1818.39
497.98	2042.44
498.19	2068.86
498.39	1900.31
498.60	1931.03
498.80	1812.66
499.01	2176.99
499.21	1799.35
499.42	1942.09
499.62	2047.97
499.83	2426.02
500.03	1803.65
500.24	2012.95
500.44	2325.47
500.64	2285.94
500.85	1877.17
501.05	2019.71
501.26	1828.22
501.46	2301.92
501.67	1832.32
501.87	1804.47
502.08	1957.45
502.28	2028.51
502.48	1982.23
502.69	1998.00
502.89	1828.02
503.10	1958.06
503.30	1976.49
503.51	1955.61
503.71	1845.02
503.92	2155.28
504.12	1942.70
504.32	1861.40
504.53	2165.11
504.73	2152.21
504.94	2018.07
505.14	2110.84
505.35	2176.99
505.55	2147.50
505.75	1915.47
505.96	2090.36
506.16	2381.17
506.37	2000.46
506.57	1830.47
506.78	1981.20
506.98	2242.73
507.18	1852.18
507.39	1825.35
507.59	1878.60
507.80	1997.79
508.00	2083.40
508.20	2079.30
508.41	1902.15
508.61	2269.35
508.82	2219.38
509.02	2053.91
509.22	1817.16
509.43	1908.50
509.63	1987.14
509.84	1928.78
510.04	1746.71
510.24	2315.43
510.45	2190.10
510.65	1820.64
510.86	1932.26
511.06	1926.93
511.26	2186.82
511.47	2060.87
511.67	1859.35
511.88	2185.39
512.08	2240.27
512.28	1825.56
512.49	1988.37
512.69	2106.13
512.90	2116.37
513.10	1894.99
513.30	1955.61
513.51	2145.66
513.71	2338.78
513.91	1972.19
514.12	1977.72
514.32	2220.41
514.53	1970.97
514.73	2022.98
514.93	1918.54
515.14	2076.64
515.34	2299.66
515.54	1884.54
515.75	1946.80
515.95	2159.99
516.15	2273.04
516.36	1952.12
516.56	1963.59
516.77	1726.44
516.97	2179.86
517.17	1935.13
517.38	2008.24
517.58	2274.06
517.78	2022.98
517.99	1988.78
518.19	1893.35
518.39	2261.57
518.60	1968.92
518.80	1813.68
519.00	1982.23
519.21	2047.56
519.41	2403.91
519.61	1837.64
519.82	2017.66
520.02	2083.40
520.22	2033.43
520.43	1890.89
520.63	1934.31
520.83	1972.81
521.04	1848.29
521.24	1976.29
521.44	1914.65
521.65	1933.49
521.85	2191.53
522.05	1876.35
522.26	1876.76
522.46	2387.32
522.66	2200.95
522.87	1915.26
523.07	2059.03
523.27	1990.22
523.48	2291.88
523.68	1925.30
523.88	2003.53
524.09	2258.30
524.29	2132.14
524.49	1786.24
524.70	2000.25
524.90	2293.93
525.10	2151.60
525.31	1825.97
525.51	1814.09
525.71	2204.43
525.91	2145.25
526.12	1919.97
526.32	1832.11
526.52	1974.04
526.73	1960.93
526.93	1952.53
527.13	1786.03
527.34	2022.16
527.54	2092.00
527.74	1921.81
527.94	1806.92
528.15	1892.94
528.35	2089.34
528.55	2042.23
528.76	1948.23
528.96	1797.50
529.16	2205.46
529.36	2020.12
529.57	1836.62
529.77	2288.61
529.97	1904.00
530.18	2032.61
530.38	1931.23
530.58	2166.96
530.78	2077.05
530.99	1903.79
531.19	1993.29
531.39	1957.86
531.60	2050.63
531.80	1948.64
532.00	2078.48
532.20	2115.55
532.41	1940.86
532.61	1877.37
532.81	1850.95
533.01	2038.55
533.22	2129.68
533.42	2062.51
533.62	1812.86
533.82	2295.57
534.03	2024.62
534.23	2015.20
534.43	1869.59
534.63	1985.10
534.84	2101.22
535.04	1994.72
535.24	1958.68
535.44	2529.65
535.65	1979.16
535.85	1888.84
536.05	1855.66
536.25	2064.15
536.46	1921.61
536.66	2061.28
536.86	1957.24
537.06	2149.75
537.27	2299.66
537.47	1985.51
537.67	1905.84
537.87	2315.84
538.08	2054.73
538.28	1825.97
538.48	1835.59
538.68	2066.20
538.88	2159.58
539.09	1766.58
539.29	1919.15
539.49	2221.43
539.69	2146.48
539.90	2000.87
540.10	1835.18
540.30	2284.92
540.50	1981.20
540.70	1776.82
540.91	1864.68
541.11	2181.70
541.31	2361.72
541.51	1991.04
541.72	1986.32
541.92	2104.90
542.12	1941.47
542.32	1940.45
542.52	1890.89
542.73	1952.33
542.93	2153.64
543.13	1891.50
543.33	2035.89
543.53	2192.35
543.74	2165.73
543.94	1902.36
544.14	1972.19
544.34	2246.21
544.54	2059.03
544.75	1995.54
544.95	2101.63
545.15	2173.51
545.35	2339.19
545.55	2045.31
545.75	1889.87
545.96	2458.18
546.16	1974.45
546.36	1943.32
546.56	1964.62
546.76	2254.20
546.97	2339.80
547.17	1955.61
547.37	2036.09
547.57	1987.14
547.77	2190.92
547.97	1995.75
548.18	2005.17
548.38	2063.12
548.58	2304.78
548.78	1873.89
548.98	1953.97
549.18	2218.36
549.39	2323.83
549.59	2001.89
549.79	1958.88
549.99	2330.79
550.19	2230.44
550.39	2085.24
550.60	1975.06
550.80	2124.77
551.00	2151.19
551.20	1909.53
551.40	1928.98
551.60	2168.59
551.80	2102.44
552.01	2013.97
552.21	1960.93
552.41	2133.78
552.61	2387.52
552.81	2016.43
553.01	1870.00
553.21	2150.78
553.42	1939.43
553.62	1924.68
553.82	1854.03
554.02	2343.08
554.22	2231.06
554.42	1832.93
554.62	2043.87
554.83	2329.97
555.03	2301.51
555.23	1962.77
555.43	2151.60
555.63	2099.17
555.83	2104.29
556.03	2002.09
556.23	1804.87
556.44	2064.56
556.64	2250.92
556.84	1691.83
557.04	1904.00
557.24	2098.96
557.44	2079.51
557.64	2006.80
557.84	1850.13
558.04	2011.92
558.25	2195.83
558.45	1859.35
558.65	1951.51
558.85	2094.05
559.05	1774.36
559.25	1919.56
559.45	2018.27
559.65	2422.95
559.85	2887.43
560.05	1965.23
560.26	2000.05
560.46	2037.52
560.66	1957.04
560.86	1869.39
561.06	1853.00
561.26	2283.49
561.46	2191.53
561.66	1896.01
561.86	2033.84
562.06	1956.63
562.26	2021.96
562.47	2003.53
562.67	1847.68
562.87	2148.73
563.07	1843.79
563.27	1968.92
563.47	1961.54
563.67	1993.29
563.87	2184.98
564.07	1874.10
564.27	1897.65
564.47	2068.45
564.67	2111.87
564.87	1906.86
565.08	1969.12
565.28	1940.25
565.48	2145.66
565.68	1980.39
565.88	2061.69
566.08	2398.79
566.28	2099.58
566.48	1835.39
566.68	1957.45
566.88	2041.82
567.08	2208.12
567.28	1954.38
567.48	1936.97
567.68	2150.78
567.88	1878.81
568.08	1963.18
568.28	2086.06
568.48	2027.28
568.68	2237.82
568.89	1989.60
569.09	1804.26
569.29	2206.28
569.49	2214.06
569.69	1865.70
569.89	1874.10
570.09	1788.29
570.29	1986.73
570.49	1837.03
570.69	1912.60
570.89	2213.24
571.09	2404.93
571.29	1835.59
571.49	2096.92
571.69	2132.75
571.89	2169.21
572.09	1919.36
572.29	1998.20
572.49	2192.76
572.69	2171.46
572.89	1945.98
573.09	1692.03
573.29	2011.31
573.49	2049.61
573.69	1930.21
573.89	1992.67
574.09	1975.06
574.29	2279.80
574.49	1917.72
574.69	1856.07
574.89	1863.45
575.09	1930.42
575.29	1822.69
575.49	1916.90
575.69	2136.85
575.89	1872.66
576.09	1960.93
576.29	1967.89
576.49	1920.79
576.69	2050.22
576.89	1911.37
577.09	1965.44
577.29	1829.25
577.49	2371.34
577.69	1886.79
577.89	2069.06
578.09	2069.27
578.29	1811.22
578.49	1948.64
578.69	1878.81
578.89	2225.32
579.09	2061.28
579.29	1871.64
579.49	2065.58
579.69	1991.65
579.89	2354.96
580.09	1711.28
580.29	1777.02
580.49	1962.36
580.69	1896.42
580.89	1883.52
581.09	1895.60
581.29	1980.39
581.49	2031.38
581.69	1844.20
581.89	1864.06
582.09	1937.79
582.28	1924.89
582.48	2041.62
582.68	2078.48
582.88	2277.55
583.08	1996.77
583.28	1932.46
583.48	1960.73
583.68	1909.32
583.88	2041.21
584.08	1957.24
584.28	1966.87
584.48	2434.42
584.68	2138.49
584.88	1923.86
585.08	2128.04
585.28	2208.73
585.48	2276.73
585.68	1995.54
585.87	2049.61
586.07	2156.10
586.27	2061.49
586.47	2013.56
586.67	1932.05
586.87	2069.06
587.07	2002.91
587.27	1822.90
587.47	2003.12
587.67	2349.63
587.87	2506.51
588.07	1977.31
588.27	1908.30
588.46	2205.25
588.66	2206.48
588.86	1900.52
589.06	2011.11
589.26	2188.66
589.46	2148.32
589.66	1849.52
589.86	1842.76
590.06	2011.72
590.26	2113.91
590.46	1863.86
590.66	2009.88
590.85	1932.05
591.05	2062.92
591.25	1831.91
591.45	1915.47
591.65	2138.69
591.85	2057.59
592.05	1877.78
592.25	1998.82
592.45	2203.41
592.64	2009.06
592.84	1931.23
593.04	1867.95
593.24	2463.50
593.44	1978.13
593.64	1956.83
593.84	2022.78
594.04	2004.96
594.24	2325.88
594.43	1911.57
594.63	1943.73
594.83	2219.59
595.03	2189.69
595.23	1872.66
595.43	1809.59
595.63	1944.96
595.83	2215.08
596.02	1717.84
596.22	1919.36
596.42	2103.47
596.62	2069.06
596.82	1924.27
597.02	1968.51
597.22	2276.11
597.41	2101.83
597.61	1892.73
597.81	2043.67
598.01	2166.34
598.21	1983.66
598.41	1830.68
598.61	1818.80
598.80	2053.50
599.00	2099.99
599.20	2076.03
599.40	1935.13
599.60	2027.08
599.80	2172.28
599.99	2064.56
600.19	1888.02
600.39	2054.73
600.59	2156.72
600.79	2008.03
600.99	1954.99
601.19	2357.21
601.38	2386.91
601.58	2005.17
601.78	1697.97
601.98	2119.85
602.18	2096.92
602.37	2167.16
602.57	1961.95
602.77	2176.99
602.97	2069.06
603.17	2111.87
603.37	2038.14
603.56	2220.41
603.76	2146.07
603.96	1976.49
604.16	1993.29
604.36	2297.62
604.56	2203.00
604.75	1856.28
604.95	1958.06
605.15	2300.89
605.35	2220.20
605.55	1889.66
605.74	1853.62
605.94	2253.38
606.14	2060.05
606.34	1958.68
606.54	1983.66
606.73	1975.68
606.93	2190.92
607.13	1884.95
607.33	2003.94
607.53	2302.94
607.72	2259.32
607.92	2028.31
608.12	2075.41
608.32	2027.08
608.51	2159.38
608.71	1846.45
608.91	2005.17
609.11	2154.26
609.31	2019.71
609.50	1949.67
609.70	2152.82
609.90	2215.08
610.10	2213.04
610.29	1919.97
610.49	1824.54
610.69	2153.23
610.89	2088.31
611.09	1950.08
611.28	2111.46
611.48	2234.33
611.68	2038.14
611.88	1924.07
612.07	1855.87
612.27	2220.41
612.47	1954.58
612.67	1974.65
612.86	2068.04
613.06	2106.54
613.26	1810.20
613.46	1873.28
613.65	1988.37
613.85	2518.18
614.05	2181.29
614.25	2070.09
614.44	1933.08
614.64	2073.77
614.84	1978.13
615.04	1849.52
615.23	1908.30
615.43	2146.48
615.63	2125.79
615.83	1850.13
616.02	1802.42
616.22	2164.70
616.42	1865.70
616.62	1848.50
616.81	1940.66
617.01	2085.24
617.21	2028.31
617.41	1818.19
617.60	1965.23
617.80	2149.55
618.00	2171.05
618.19	2038.14
618.39	1935.94
618.59	2174.33
618.79	2073.77
618.98	1817.98
619.18	1948.03
619.38	2459.00
619.57	2045.51
619.77	1942.50
619.97	1912.19
620.17	1971.99
620.36	1867.95
620.56	2113.50
620.76	1824.94
620.95	1897.44
621.15	1958.88
621.35	1846.24
621.54	1952.12
621.74	2071.52
621.94	1964.62
622.14	1837.23
622.33	1807.95
622.53	2033.22
622.73	2026.26
622.92	1816.34
623.12	1934.72
623.32	2407.80
623.51	2173.10
623.71	1835.39
623.91	2126.61
624.10	1919.15
624.30	2071.11
624.50	1794.64
624.69	1800.16
624.89	2728.10
625.09	2028.51
625.29	1737.91
625.48	1819.21
625.68	2107.97
625.88	2260.34
626.07	2002.30
626.27	1880.04
626.47	1983.87
626.66	1825.76
626.86	1949.87
627.06	1931.23
627.25	2066.20
627.45	2318.30
627.64	1935.94
627.84	2119.65
628.04	1932.87
628.23	2435.85
628.43	1815.73
628.63	1879.22
628.82	1974.45
629.02	2367.25
629.22	1989.40
629.41	2078.89
629.61	2086.47
629.81	2360.28
630.00	1883.93
630.20	1833.96
630.40	2066.61
630.59	2119.65
630.79	1926.52
630.98	1894.37
631.18	2018.48
631.38	2043.26
631.57	2067.83
631.77	1793.61
631.97	2082.37
632.16	2111.87
632.36	1953.35
632.56	1958.06
632.75	2127.23
632.95	2213.04
633.14	1824.54
633.34	2112.89
633.54	1788.29
633.73	2006.80
633.93	1910.75
634.12	1771.90
634.32	2540.71
634.52	2066.81
634.71	1781.32
634.91	1975.68
635.11	1876.14
635.30	1929.80
635.50	1966.87
635.69	1866.11
635.89	2355.98
636.09	2179.45
636.28	1822.08
636.48	1862.83
636.67	2137.46
636.87	2146.07
637.07	1976.70
637.26	1887.41
637.46	2064.15
637.65	2193.37
637.85	1993.90
638.04	1838.26
638.24	1985.92
638.44	2115.14
638.63	1950.69
638.83	1890.28
639.02	2122.31
639.22	2167.16
639.42	1930.62
639.61	1910.14
639.81	2069.27
640.00	2034.86
640.20	2035.48
640.39	1986.12
640.59	2386.29
640.79	2198.29
640.98	1979.16
641.18	1869.59
641.37	2003.12
641.57	1927.14
641.76	1938.20
641.96	1714.35
642.15	2038.55
642.35	1942.91
642.55	1986.12
642.74	1769.24
642.94	2158.35
643.13	2279.59
643.33	1894.78
643.52	1863.86
643.72	1994.72
643.91	2063.53
644.11	1833.55
644.31	1852.18
644.50	1951.30
644.70	2262.60
644.89	1965.03
645.09	2021.55
645.28	2087.08
645.48	2154.87
645.67	1873.28
645.87	1726.03
646.06	2028.51
646.26	2109.82
646.45	1696.74
646.65	1702.27
646.84	2378.31
647.04	1975.88
647.24	1784.80
647.43	1903.38
647.63	2093.84
647.82	2330.38
648.02	1829.25
648.21	1890.89
648.41	2269.15
648.60	2005.37
648.80	2042.64
648.99	1952.12
649.19	1979.77
649.38	1824.74
649.58	1936.35
649.77	1991.85
649.97	2259.11
650.16	2138.49
650.36	1727.05
650.55	2066.40
650.75	2111.05
650.94	2331.82
651.14	1937.79
651.33	1995.54
651.53	2311.13
651.72	1954.38
651.92	1910.14
652.11	1748.76
652.31	2134.39
652.50	2119.24
652.70	1952.53
652.89	1790.74
653.09	2282.26
653.28	2009.67
653.48	1701.45
653.67	1765.14
653.87	2571.43
654.06	2083.19
654.25	2118.21
654.45	1876.76
654.64	1986.53
654.84	2035.68
655.03	1744.46
655.23	2064.15
655.42	2188.25
655.62	2391.62
655.81	2066.81
656.01	1933.69
656.20	2252.97
656.40	2386.70
656.59	1987.14
656.79	2093.43
656.98	2140.13
657.17	2213.65
657.37	1926.32
657.56	1909.32
657.76	2106.75
657.95	2247.03
658.15	1606.63
658.34	1954.79
658.54	2042.03
658.73	1845.02
658.92	1914.65
659.12	1930.21
659.31	2152.01
659.51	1863.86
659.70	1976.09
659.90	1838.05
660.09	2198.08
660.29	2023.80
660.48	1802.42
660.67	2086.06
660.87	1950.69
661.06	2114.32
661.26	1999.84
661.45	2017.86
661.65	2081.76
661.84	1962.77
662.03	1835.59
662.23	1869.39
662.42	2428.69
662.62	1883.31
662.81	1812.86
663.00	1899.29
663.20	2092.82
663.39	2143.81
663.59	2013.56
663.78	1880.85
663.97	2020.73
664.17	2259.32
664.36	1805.08
664.56	1874.92
664.75	2204.23
664.94	2189.69
665.14	1995.13
665.33	1923.45
665.53	2039.98
665.72	2020.73
665.91	2058.00
666.11	1931.03
666.30	2060.26
666.50	2073.98
666.69	1959.09
666.88	1872.87
667.08	2052.68
667.27	1988.17
667.47	1920.38
667.66	1875.32
667.85	2193.99
668.05	2064.15
668.24	1846.65
668.43	2102.85
668.63	1988.17
668.82	2227.78
669.02	2019.71
669.21	1890.07
669.40	1852.59
669.60	2362.95
669.79	1768.22
669.98	2510.60
670.18	1887.00
670.37	1890.48
670.56	1922.02
670.76	1982.43
670.95	2018.68
671.15	2195.42
671.34	1919.36
671.53	1928.78
671.73	1953.76
671.92	1932.87
672.11	1832.32
672.31	1893.76
672.50	2120.26
672.69	1859.56
672.89	1690.39
673.08	1924.89
673.27	2178.42
673.47	2125.18
673.66	1965.23
673.85	1787.06
674.05	2027.49
674.24	2054.11
674.43	1766.37
674.63	1969.33
674.82	2417.22
675.01	1692.24
675.21	2003.32
675.40	1890.48
675.59	1957.45
675.79	2301.10
675.98	1858.12
676.17	2042.85
676.37	2119.85
676.56	1963.18
676.75	1888.02
676.95	1951.10
677.14	1993.08
677.33	2194.19
677.52	1828.43
677.72	1861.19
677.91	2088.93
678.10	1809.18
678.30	1824.13
678.49	1828.63
678.68	2399.60
678.88	1781.53
679.07	2068.24
679.26	1884.75
679.45	2363.97
679.65	2277.75
679.84	1739.95
680.03	1767.81
680.23	2012.95
680.42	2463.50
680.61	1826.99
680.81	1863.24
681.00	2063.33
681.19	2094.87
681.38	2022.57
681.58	1972.40
681.77	1988.37
681.96	2169.00
682.15	1823.10
682.35	1968.10
682.54	2134.39
682.73	1869.18
682.93	1841.33
683.12	1811.22
683.31	2164.91
683.50	2519.41
683.70	1814.50
683.89	1950.69
684.08	1888.64
684.27	2214.88
684.47	1754.09
684.66	1908.71
684.85	2392.23
685.04	2285.74
685.24	1846.86
685.43	1877.78
685.62	1763.71
685.81	2069.27
686.01	1995.95
686.20	1803.85
686.39	1818.19
686.58	2335.09
686.78	1933.69
686.97	1903.18
687.16	2193.17
687.35	2079.30
687.55	1860.37
687.74	1933.49
687.93	1812.04
688.12	1995.13
688.32	1912.39
688.51	1734.02
688.70	2085.45
688.89	1829.66
689.08	1777.02
689.28	1843.58
689.47	2047.97
689.66	2030.36
689.85	2001.89
690.05	1820.85
690.24	1924.27
690.43	2078.48
690.62	1945.16
690.81	1859.15
691.01	2084.83
691.20	2009.47
691.39	1793.41
691.58	1990.42
691.77	2348.41
691.97	2053.09
692.16	1972.81
692.35	1900.31
692.54	1950.69
692.73	2107.97
692.93	1941.47
693.12	1947.82
693.31	2088.72
693.50	2044.69
693.69	1993.08
693.89	1889.87
694.08	2265.05
694.27	2244.78
694.46	1862.42
694.65	1910.96
694.85	2120.88
695.04	2117.80
695.23	1864.06
695.42	2027.69
695.61	2125.38
695.80	2213.85
696.00	2200.54
696.19	2197.47
696.38	2010.29
696.57	2158.35
696.76	2052.27
696.95	1933.90
697.15	2325.06
697.34	2293.32
697.53	1899.70
697.72	2017.66
697.91	1976.49
698.10	2286.15
698.30	1887.41
698.49	1908.91
698.68	2093.02
698.87	1990.01
699.06	1833.96
699.25	1903.38
699.45	2230.03
699.64	2051.45
699.83	2029.33
700.02	1877.99
700.21	2117.19
700.40	1943.93
700.59	1869.59
700.79	1926.93
700.98	2164.50
701.17	1944.34
701.36	1841.33
701.55	1838.26
701.74	2239.45
701.93	1808.36
702.12	1846.45
702.32	1797.50
702.51	2153.03
702.70	2132.75
702.89	1915.67
703.08	1875.53
703.27	2216.11
703.46	2090.98
703.65	1819.42
703.85	1773.54
704.04	1920.79
704.23	2213.24
704.42	1833.55
704.61	1873.07
704.80	2299.87
704.99	1916.90
705.18	1948.64
705.37	1888.02
705.57	2108.79
705.76	2276.11
705.95	1917.92
706.14	2210.78
706.33	2403.70
706.52	2613.41
706.71	2107.97
706.90	1960.32
707.09	2167.16
707.28	2134.80
707.47	1833.75
707.67	2019.50
707.86	1940.25
708.05	2201.36
708.24	1885.97
708.43	1967.89
708.62	1986.73
708.81	1899.29
709.00	1847.68
709.19	1850.54
709.38	2198.49
709.57	1873.07
709.76	1922.84
709.96	1818.19
710.15	2275.29
710.34	2020.53
710.53	2004.96
710.72	1893.55
710.91	2240.68
711.10	2141.15
711.29	1963.18
711.48	1877.58
711.67	1863.04
711.86	2109.20
712.05	1770.26
712.24	1797.91
712.43	2157.74
712.62	2295.98
712.81	1922.84
713.00	2093.84
713.19	1874.71
713.39	2096.51
713.58	1803.85
713.77	1936.76
713.96	2102.85
714.15	1981.41
714.34	1863.24
714.53	1735.45
714.72	2345.13
714.91	1868.98
715.10	1964.00
715.29	1764.33
715.48	2499.34
715.67	2107.56
715.86	1929.80
716.05	1879.22
716.24	2001.28
716.43	1960.93
716.62	1795.45
716.81	1768.83
717.00	2001.07
717.19	2283.69
717.38	1873.07
717.57	1878.81
717.76	1823.31
717.95	2195.01
718.14	1909.53
718.33	1933.90
718.52	1805.90
718.71	1839.90
718.90	1810.40
719.09	1847.06
719.28	2046.94
719.47	2199.72
719.66	1973.63
719.85	2005.17
720.04	1957.24
720.23	2041.01
720.42	1834.37
720.61	1956.83
720.80	1833.34
720.99	2056.37
721.18	1881.67
721.37	1804.06
721.56	1990.42
721.75	2148.32
721.94	1833.75
722.13	1837.44
722.32	1957.45
722.51	2164.91
722.70	1950.49
722.89	1970.76
723.08	2048.17
723.27	2201.77
723.46	1954.58
723.65	1921.81
723.84	1955.20
724.03	2248.67
724.22	1791.97
724.41	1925.30
724.60	1974.24
724.79	2169.41
724.98	1966.05
725.16	1856.28
725.35	2132.14
725.54	1873.07
725.73	1917.10
725.92	1932.26
726.11	1969.94
726.30	2138.90
726.49	1821.26
726.68	1870.41
726.87	2076.64
727.06	2234.95
727.25	1867.34
727.44	1965.03
727.63	2003.53
727.82	1918.13
728.01	1935.13
728.20	1978.13
728.38	2261.37
728.57	1980.59
728.76	1880.85
728.95	2028.51
729.14	1857.51
729.33	1866.31
729.52	1657.83
729.71	1798.94
729.90	1854.03
730.09	1927.96
730.28	1856.89
730.47	1826.99
730.66	2194.40
730.84	2034.04
731.03	1898.67
731.22	1938.20
731.41	2010.29
731.60	2087.90
731.79	1714.56
731.98	1794.64
732.17	2124.56
732.36	2102.65
732.55	1834.37
732.73	1739.54
732.92	2233.11
733.11	2101.22
733.30	1829.25
733.49	1738.52
733.68	2144.84
733.87	2065.38
734.06	1745.07
734.25	1779.89
734.43	1911.16
734.62	2067.83
734.81	1870.82
735.00	1828.02
735.19	1945.16
735.38	2102.85
735.57	1749.17
735.76	1951.92
735.94	2066.61
736.13	2349.02
736.32	1941.88
736.51	1895.19
736.70	2346.77
736.89	2329.56
737.08	2053.91
737.27	2142.79
737.45	2430.73
737.64	2261.98
737.83	2236.59
738.02	2214.06
738.21	2390.59
738.40	2471.69
738.59	2002.09
738.77	2097.94
738.96	2008.65
739.15	2122.72
739.34	2054.32
739.53	2015.61
739.72	2231.47
739.90	2234.74
740.09	1828.63
740.28	1928.98
740.47	2180.47
740.66	2134.80
740.85	1833.75
741.03	1882.90
741.22	1866.93
741.41	1971.37
741.60	1745.89
741.79	1941.06
741.98	2233.11
742.16	2360.28
742.35	1886.18
742.54	1891.91
742.73	2345.74
742.92	1960.52
743.10	1739.14
743.29	1818.60
743.48	2441.38
743.67	1931.85
743.86	1726.23
744.05	1789.31
744.23	1832.93
744.42	1874.10
744.61	1921.81
744.80	1745.28
744.99	1949.67
745.17	1740.98
745.36	1697.56
745.55	1960.11
745.74	2012.13
745.93	1891.30
746.11	1796.68
746.30	1765.35
746.49	2186.62
746.68	1876.76
746.86	1868.98
747.05	1839.28
747.24	2135.83
747.43	2141.15
747.62	1767.40
747.80	1812.45
747.99	2221.43
748.18	2155.69
748.37	1912.19
748.56	1950.49
748.74	2199.52
748.93	2018.68
749.12	2055.34
749.31	2363.56
749.49	2629.80
749.68	2769.88
749.87	2939.24
750.06	2683.66
750.24	2829.47
750.43	2782.37
750.62	2620.79
750.81	2754.93
750.99	2913.03
751.18	2913.65
751.37	2520.84
751.56	2591.91
751.74	2961.98
751.93	3053.73
752.12	2181.70
752.31	2126.61
752.49	2236.38
752.68	2499.75
752.87	2049.40
753.06	1997.18
753.24	2094.05
753.43	2265.46
753.62	1858.74
753.81	1851.57
753.99	2332.43
754.18	2104.70
754.37	1832.93
754.55	1885.56
754.74	2314.61
754.93	1771.49
755.12	1850.75
755.30	1814.71
755.49	2196.65
755.68	2067.63
755.86	1982.84
756.05	1753.47
756.24	2254.20
756.43	1845.83
756.61	1799.96
756.80	1929.39
756.99	2235.15
757.17	1983.05
757.36	1808.77
757.55	1864.68
757.74	2093.02
757.92	2015.82
758.11	1765.55
758.30	1716.20
758.48	1972.40
758.67	1825.15
758.86	1889.46
759.04	1766.17
759.23	1938.20
759.42	2005.17
759.60	1800.78
759.79	1883.11
759.98	1996.77
760.16	1884.13
760.35	1820.03
760.54	1782.14
760.73	2066.20
760.91	1800.16
761.10	1844.40
761.29	1937.17
761.47	1993.08
761.66	2400.22
761.85	1902.56
762.03	2041.42
762.22	2285.53
762.41	2577.16
762.59	2723.59
762.78	2907.91
762.97	3500.59
763.15	3406.59
763.34	3151.62
763.52	2715.61
763.71	2868.18
763.90	2917.95
764.08	2533.34
764.27	2525.96
764.46	2742.84
764.64	2399.81
764.83	2301.51
765.02	2182.52
765.20	2335.09
765.39	2312.16
765.58	1896.83
765.76	1969.53
765.95	2123.13
766.13	2080.12
766.32	1888.84
766.51	1870.00
766.69	2771.72
766.88	2102.04
767.07	1771.90
767.25	1671.76
767.44	2189.69
767.62	2226.76
767.81	1778.05
768.00	1871.64
768.18	2053.29
768.37	1895.60
768.56	1698.38
768.74	1808.97
768.93	1825.76
769.11	2100.60
769.30	1941.68
769.49	1838.26
769.67	1990.01
769.86	1937.99
770.04	1856.28
770.23	1812.66
770.42	2239.25
770.60	2033.22
770.79	1794.84
770.97	1833.75
771.16	2208.53
771.35	2072.34
771.53	2018.27
771.72	2060.05
771.90	2298.23
772.09	2557.71
772.27	2337.76
772.46	2081.15
772.65	2428.89
772.83	2283.69
773.02	2173.30
773.20	1965.44
773.39	2267.92
773.58	2253.18
773.76	1872.25
773.95	1883.11
774.13	2148.73
774.32	2038.14
774.50	1819.01
774.69	1922.22
774.87	1986.32
775.06	2433.19
775.25	1852.39
775.43	1887.00
775.62	2064.15
775.80	2116.99
775.99	1928.78
776.17	1872.25
776.36	2047.76
776.54	2219.79
776.73	1874.51
776.92	1959.70
777.10	2195.83
777.29	2069.47
777.47	1836.00
777.66	1873.69
777.84	2068.86
778.03	2033.43
778.21	1825.76
778.40	1943.32
778.58	2130.09
778.77	2211.81
778.95	1782.14
779.14	1846.24
779.32	2361.51
779.51	2203.61
779.70	1871.23
779.88	1759.21
780.07	1962.16
780.25	2470.67
780.44	1898.67
780.62	1978.13
780.81	2142.58
780.99	2093.43
781.18	1833.96
781.36	1822.28
781.55	2018.68
781.73	2296.39
781.92	1749.37
782.10	1788.90
782.29	2114.12
782.47	2298.44
782.66	1868.77
782.84	1754.29
783.03	1906.66
783.21	2226.14
783.40	1800.16
783.58	1811.43
783.77	1934.10
783.95	2001.48
784.14	1811.02
784.32	1913.21
784.51	2221.02
784.69	1892.32
784.88	1736.27
785.06	1869.39
785.24	1802.83
785.43	2152.42
785.61	1944.55
785.80	1784.80
785.98	2096.71
786.17	2040.39
786.35	1739.54
786.54	1962.77
786.72	2178.83
786.91	2159.17
787.09	1858.12
787.28	1748.97
787.46	2017.45
787.65	2164.09
787.83	1732.17
788.01	1846.24
788.20	1820.03
788.38	1973.22
788.57	1829.45
788.75	1822.69
788.94	2330.18
789.12	2127.43
789.31	1931.23
789.49	1969.33
789.67	1935.54
789.86	2070.50
790.04	1806.51
790.23	1733.61
790.41	2352.50
790.60	1957.86
790.78	1815.73
790.96	1850.75
791.15	2116.58
791.33	1974.65
791.52	1869.59
791.70	1769.04
791.89	2125.79
792.07	2161.43
792.25	1883.72
792.44	1750.60
792.62	2164.70
792.81	1932.26
792.99	1881.26
793.17	1830.27
793.36	1886.59
793.54	2308.68
793.73	2012.74
793.91	1935.54
794.10	2349.63
794.28	2463.50
794.46	2121.90
794.65	2159.99
794.83	2060.46
795.01	2179.65
795.20	2140.95
795.38	2078.07
795.57	2219.79
795.75	2222.25
795.93	1952.12
796.12	1960.11
796.30	2184.16
796.49	2157.13
796.67	1824.74
796.85	1980.80
797.04	2068.24
797.22	2125.18
797.40	1782.55
797.59	1913.42
797.77	2032.61
797.96	1919.56
798.14	1770.47
798.32	1830.06
798.51	2116.99
798.69	2336.94
798.87	1869.39
799.06	1858.12
799.24	1780.50
799.42	2169.41
799.61	1956.63
799.79	1902.36
799.98	2432.17
800.16	2073.57
800.34	2089.75
800.53	2253.18
800.71	2308.27
800.89	2805.31
801.08	2429.91
801.26	2472.31
801.44	2359.87
801.63	2221.23
801.81	2160.81
801.99	2079.71
802.18	2158.15
802.36	2234.74
802.54	2131.94
802.73	1916.90
802.91	2166.14
803.09	2131.12
803.28	2081.56
803.46	2016.84
803.64	2354.34
803.83	1899.08
804.01	1817.78
804.19	1791.97
804.38	2161.84
804.56	2095.89
804.74	1879.42
804.92	1923.86
805.11	1831.50
805.29	2199.72
805.47	1846.24
805.66	1733.61
805.84	1820.44
806.02	2145.25
806.21	1832.73
806.39	2043.87
806.57	2148.32
806.76	2146.68
806.94	1904.82
807.12	1823.31
807.30	1886.79
807.49	2016.43
807.67	1901.13
807.85	1982.64
808.04	2132.96
808.22	2419.88
808.40	1794.23
808.58	1716.20
808.77	2101.83
808.95	2246.21
809.13	1872.66
809.31	2180.06
809.50	2409.64
809.68	2523.30
809.86	2229.62
810.05	2310.52
810.23	2819.44
810.41	2897.88
810.59	3860.83
810.78	4459.66
810.96	5052.75
811.14	5366.29
811.32	4865.56
811.51	4234.18
811.69	3925.34
811.87	4015.66
812.05	3545.24
812.24	3367.48
812.42	3515.95
812.60	3451.03
812.78	2803.26
812.97	2654.58
813.15	2997.82
813.33	2700.25
813.51	2525.96
813.70	2180.68
813.88	2160.81
814.06	2267.10
814.24	2076.23
814.42	1838.46
814.61	2141.36
814.79	2363.36
814.97	1753.88
815.15	1823.10
815.34	2066.20
815.52	2169.21
815.70	1792.38
815.88	1887.61
816.06	1870.61
816.25	1921.81
816.43	1841.74
816.61	1977.31
816.79	2253.79
816.98	1774.36
817.16	1775.18
817.34	1783.58
817.52	2047.56
817.70	2259.73
817.89	1882.08
818.07	1796.27
818.25	2005.99
818.43	2020.53
818.61	1877.99
818.80	1861.81
818.98	2322.19
819.16	2048.38
819.34	1787.06
819.52	2115.96
819.70	1864.88
819.89	2039.98
820.07	1759.00
820.25	1742.82
820.43	2075.00
820.61	2193.37
820.80	1906.04
820.98	1761.87
821.16	1778.25
821.34	1826.99
821.52	1842.97
821.70	1977.52
821.89	2034.66
822.07	1974.45
822.25	1904.41
822.43	1824.13
822.61	2310.72
822.79	2094.87
822.98	1888.64
823.16	1717.63
823.34	2089.34
823.52	2225.73
823.70	1935.33
823.88	1705.96
824.06	2106.95
824.25	2014.18
824.43	1972.81
824.61	1790.74
824.79	2017.66
824.97	2049.61
825.15	1970.97
825.33	2118.21
825.52	2264.85
825.70	2120.26
825.88	1971.99
826.06	2059.23
826.24	2167.77
826.42	2257.89
826.60	1986.53
826.78	2041.82
826.97	2046.13
827.15	2269.97
827.33	1851.57
827.51	1961.95
827.69	1954.99
827.87	2057.18
828.05	1978.75
828.23	1826.99
828.41	2192.76
828.60	2168.39
828.78	1750.60
828.96	1969.74
829.14	1937.17
829.32	1988.78
829.50	1883.93
829.68	1853.00
829.86	1938.20
830.04	2103.88
830.22	1946.59
830.41	1802.01
830.59	2015.82
830.77	2113.30
830.95	1808.97
831.13	1806.92
831.31	1903.79
831.49	2210.99
831.67	2026.67
831.85	2022.98
832.03	1959.91
832.21	2145.66
832.39	1750.81
832.57	1806.10
832.76	2206.89
832.94	1988.17
833.12	1713.13
833.30	1842.35
833.48	2212.01
833.66	2074.80
833.84	1840.71
834.02	1885.97
834.20	2165.32
834.38	2167.37
834.56	1716.20
834.74	1802.42
834.92	1814.50
835.10	2325.47
835.28	1904.00
835.46	1902.97
835.64	2018.48
835.82	1925.91
836.01	2149.14
836.19	2069.68
836.37	1948.44
836.55	1848.91
836.73	1823.51
836.91	1768.22
837.09	2131.53
837.27	2272.02
837.45	1733.81
837.63	1742.62
837.81	1823.31
837.99	2010.70
838.17	1908.91
838.35	1770.06
838.53	2370.73
838.71	2077.25
838.89	1816.34
839.07	1791.97
839.25	2006.39
839.43	2190.51
839.61	1853.00
839.79	2115.96
839.97	2305.40
840.15	2386.50
840.33	2189.28
840.51	2412.51
840.69	2319.73
840.87	2271.40
841.05	2205.05
841.23	2097.94
841.41	2318.10
841.59	2692.05
841.77	2527.40
841.95	2601.33
842.13	3086.90
842.31	2772.13
842.49	2425.41
842.67	2473.54
842.85	2605.63
843.03	2318.10
843.21	2172.69
843.39	2391.82
843.57	2361.92
843.75	2327.72
843.93	2082.37
844.11	2114.94
844.29	2218.77
844.47	2121.49
844.65	2154.05
844.83	1952.53
845.01	2056.57
845.19	2210.17
845.36	1964.21
845.54	2003.53
845.72	2061.49
845.90	2170.85
846.08	1847.27
846.26	1958.27
846.44	2110.84
846.62	2095.48
846.80	1968.71
846.98	1848.50
847.16	1985.92
847.34	2090.36
847.52	1833.14
847.70	1771.29
847.88	2009.88
848.06	2291.06
848.24	2016.23
848.41	1740.16
848.59	2185.59
848.77	2082.17
848.95	1863.86
849.13	1831.09
849.31	2207.71
849.49	2088.52
849.67	1794.43
849.85	1795.86
850.03	2084.63
850.21	2057.39
850.39	1773.95
850.57	2001.48
850.74	2292.70
850.92	2250.31
851.10	2005.37
851.28	1928.98
851.46	2215.29
851.64	2508.35
851.82	2007.01
852.00	2090.98
852.18	2422.54
852.36	2285.74
852.53	1966.25
852.71	2034.66
852.89	2206.69
853.07	2231.26
853.25	1873.28
853.43	1801.19
853.61	2069.68
853.79	2122.31
853.97	1849.11
854.14	1832.52
854.32	2271.40
854.50	2162.45
854.68	1898.67
854.86	1884.34
855.04	1928.37
855.22	2164.91
855.40	1738.52
855.57	1825.76
855.75	2175.56
855.93	2127.84
856.11	1723.78
856.29	1814.09
856.47	1908.71
856.65	2071.93
856.82	1816.96
857.00	1735.65
857.18	1996.16
857.36	1940.66
857.54	1941.68
857.72	2029.33
857.89	2148.11
858.07	2043.87
858.25	2061.49
858.43	1769.24
858.61	2020.12
858.79	2003.73
858.97	1807.13
859.14	1965.64
859.32	2021.55
859.50	1972.40
859.68	1932.67
859.86	1807.54
860.03	2040.39
860.21	2094.05
860.39	1820.64
860.57	1977.11
860.75	2086.68
860.93	2344.92
861.10	2044.28
861.28	1815.73
861.46	2079.71
861.64	2082.37
861.82	1838.87
861.99	1977.31
862.17	2173.71
862.35	2188.66
862.53	1869.80
862.71	1870.82
862.88	2085.24
863.06	2123.33
863.24	1844.40
863.42	1815.93
863.60	1997.18
863.77	2116.37
863.95	1737.09
864.13	1871.23
864.31	1978.34
864.49	2144.84
864.66	1797.71
864.84	1803.65
865.02	2081.97
865.20	2482.34
865.37	1962.57
865.55	1828.22
865.73	1828.63
865.91	2133.57
866.09	1975.68
866.26	1896.21
866.44	2140.54
866.62	1975.06
866.80	1778.87
866.97	1857.92
867.15	1960.11
867.33	2057.18
867.51	1902.97
867.68	1888.23
867.86	1942.29
868.04	1902.36
868.22	1666.02
868.39	1820.03
868.57	2066.81
868.75	2278.98
868.93	1732.38
869.10	1817.78
869.28	2373.39
869.46	2269.97
869.64	1891.71
869.81	1852.39
869.99	2096.30
870.17	2057.80
870.35	1796.68
870.52	1851.77
870.70	2198.70
870.88	1921.20
871.05	1794.64
871.23	1683.02
871.41	2007.83
871.59	2025.44
871.76	1831.70
871.94	1773.95
872.12	2028.31
872.29	1838.87
872.47	1862.42
872.65	1759.41
872.83	2071.32
873.00	2248.67
873.18	1858.94
873.36	1807.33
873.53	2153.03
873.71	1811.43
873.89	1771.70
874.06	1841.33
874.24	2101.63
874.42	2250.31
874.60	1984.48
874.77	1927.55
874.95	1915.87
875.13	2210.58
875.30	1819.62
875.48	1796.48
875.66	2280.62
875.83	1925.50
876.01	1820.23
876.19	1942.70
876.36	1864.68
876.54	2041.42
876.72	1770.67
876.89	1922.84
877.07	2168.39
877.25	1759.21
877.42	1890.07
877.60	1841.74
877.78	2358.44
877.95	1961.75
878.13	1778.46
878.31	1981.61
878.48	2174.33
878.66	2135.01
878.84	1866.72
879.01	1859.15
879.19	2108.18
879.37	2146.07
879.54	1879.22
879.72	1714.97
879.90	1744.46
880.07	2148.73
880.25	1606.02
880.42	2004.55
880.60	2063.74
880.78	2158.56
880.95	1839.49
881.13	1898.26
881.31	2002.50
881.48	1928.57
881.66	1797.71
881.83	1934.51
882.01	1934.31
882.19	1826.17
882.36	1888.84
882.54	1843.17
882.72	2144.43
882.89	2054.11
883.07	1796.48
883.24	1840.30
883.42	2180.47
883.60	2034.66
883.77	1763.30
883.95	1853.41
884.12	2166.14
884.30	2084.42
884.48	1964.21
884.65	1865.90
884.83	2067.42
885.00	2080.74
885.18	1763.30
885.36	1815.11
885.53	2128.25
885.71	2253.79
885.88	1735.86
886.06	1838.05
886.23	2146.27
886.41	1983.66
886.59	1798.53
886.76	1773.13
886.94	2153.23
887.11	2525.15
887.29	1878.19
887.47	1777.23
887.64	2229.83
887.82	2231.06
887.99	1710.67
888.17	1873.69
888.34	1961.75
888.52	1845.42
888.69	1834.57
888.87	1756.95
889.05	1956.63
889.22	1952.33
889.40	1831.70
889.57	2045.31
889.75	2303.35
889.92	1981.20
890.10	1769.45
890.27	1903.18
890.45	1947.00
890.62	1757.98
890.80	1778.46
890.98	1683.43
891.15	2317.48
891.33	2186.62
891.50	1802.62
891.68	1728.08
891.85	2159.38
892.03	2146.48
892.20	1805.49
892.38	1745.07
892.55	2165.93
892.73	2163.47
892.90	1721.73
893.08	1789.72
893.25	1918.54
893.43	1957.24
893.60	1901.33
893.78	1678.72
893.95	2078.89
894.13	2022.98
894.30	1803.65
894.48	1862.22
894.65	2177.40
894.83	2050.02
895.00	1695.31
895.18	1658.65
895.35	2169.62
895.53	2149.34
895.70	1745.28
895.88	1947.41
896.05	2108.59
896.23	1795.04
896.40	1816.55
896.58	1864.06
896.75	2158.56
896.93	2246.62
897.10	1845.02
897.28	1719.47
897.45	2050.02
897.63	2139.72
897.80	1941.27
897.98	1815.52
898.15	2091.18
898.33	1943.11
898.50	1885.77
898.67	1857.30
898.85	2026.47
899.02	2109.20
899.20	2046.94
899.37	1839.90
899.55	2038.75
899.72	2254.20
899.90	1821.46
900.07	1772.11
900.25	2125.38
900.42	2228.39
900.59	1802.42
900.77	1952.53
900.94	2121.49
901.12	2052.27
901.29	1832.52
901.47	1954.38
901.64	2108.59
901.82	2013.77
901.99	1636.12
902.16	1814.09
902.34	2231.06
902.51	2041.21
902.69	1789.72
902.86	1862.63
903.03	2648.23
903.21	2031.38
903.38	1824.94
903.56	1770.88
903.73	2197.06
903.91	1999.23
904.08	1769.65
904.25	1660.90
904.43	1921.20
904.60	2156.51
904.78	1801.19
904.95	1736.47
905.12	1991.04
905.30	2310.72
905.47	1923.86
905.65	1986.73
905.82	2015.20
905.99	2089.54
906.17	1810.61
906.34	1784.80
906.52	1904.41
906.69	2147.09
906.86	1909.12
907.04	1885.97
907.21	2176.58
907.38	2192.35
907.56	1770.47
907.73	1757.57
907.91	2298.23
908.08	2198.08
908.25	1820.44
908.43	1739.95
908.60	2110.02
908.77	2044.90
908.95	1837.85
909.12	1751.22
909.30	2119.24
909.47	1816.34
909.64	1863.45
909.82	2016.23
909.99	2001.68
910.16	2053.50
910.34	1807.13
910.51	1802.83
910.68	2058.62
910.86	1993.29
911.03	1725.21
911.20	1769.24
911.38	2190.92
911.55	2464.73
911.72	2317.07
911.90	2211.19
912.07	2548.49
912.24	2754.93
912.42	2199.31
912.59	2042.44
912.76	2341.85
912.94	2186.62
913.11	1948.85
913.28	1847.88
913.46	1869.59
913.63	2115.76
913.80	2153.23
913.98	1795.86
914.15	2191.12
914.32	2216.52
914.49	1921.61
914.67	1760.84
914.84	2040.60
915.01	2122.51
915.19	1877.78
915.36	1787.47
915.53	2169.21
915.71	2105.52
915.88	1874.51
916.05	1803.44
916.22	2209.55
916.40	2060.26
916.57	1721.52
916.74	1957.24
916.92	2293.32
917.09	1928.57
917.26	1774.77
917.43	1746.71
917.61	1982.84
917.78	1787.26
917.95	1745.48
918.13	1734.63
918.30	2378.31
918.47	2028.51
918.64	1755.11
918.82	1738.11
918.99	2007.42
919.16	2268.74
919.33	1853.82
919.51	1827.20
919.68	2000.66
919.85	2209.96
920.02	1710.05
920.20	1838.05
920.37	2286.76
920.54	2157.13
920.71	1796.07
920.89	1824.33
921.06	2309.08
921.23	1867.13
921.40	1730.74
921.58	1880.65
921.75	2556.48
921.92	1893.35
922.09	1900.92
922.27	1847.88
922.44	2023.80
922.61	2094.05
922.78	1804.67
922.96	1807.54
923.13	1977.11
923.30	2132.75
923.47	1718.66
923.64	1768.83
923.82	2063.94
923.99	2040.80
924.16	1879.63
924.33	1739.54
924.50	2024.21
924.68	2298.23
924.85	1775.18
925.02	1804.67
925.19	2161.63
925.36	2055.14
925.54	1831.09
925.71	1884.95
925.88	2518.80
926.05	1971.99
926.22	1746.10
926.40	1915.47
926.57	2057.18
926.74	2154.26
926.91	1802.42
927.08	1962.36
927.26	2198.08
927.43	2050.63
927.60	1785.83
927.77	1844.40
927.94	2316.05
928.11	2233.11
928.29	1674.21
928.46	1875.53
928.63	1911.16
928.80	1955.40
928.97	1889.25
929.14	1804.06
929.32	2404.93
929.49	2051.66
929.66	1778.87
929.83	1717.43
930.00	1967.69
930.17	2078.28
930.35	1746.30
930.52	1793.82
930.69	2293.32
930.86	1856.69
931.03	1880.24
931.20	1614.00
931.37	2193.99
931.55	2027.28
931.72	1905.63
931.89	1722.75
932.06	1855.66
932.23	2299.05
932.40	1936.97
932.57	1950.28
932.74	2245.39
932.92	2231.26
933.09	1967.69
933.26	1567.72
933.43	1962.57
933.60	2079.10
933.77	1876.96
933.94	1917.31
934.11	1969.33
934.29	2080.74
934.46	1764.53
934.63	1875.32
934.80	1825.97
934.97	1992.47
935.14	1811.43
935.31	1668.28
935.48	1889.25
935.65	2094.25
935.82	1859.76
936.00	1744.25
936.17	2294.34
936.34	1986.32
936.51	1910.14
936.68	1739.75
936.85	2068.04
937.02	2051.25
937.19	1924.07
937.36	1848.09
937.53	2096.10
937.70	2167.37
937.87	1800.16
938.05	1931.23
938.22	2055.34
938.39	1860.17
938.56	1823.92
938.73	1728.28
938.90	1975.68
939.07	1924.68
939.24	1908.50
939.41	1683.02
939.58	2084.63
939.75	2117.19
939.92	1778.05
940.09	2089.54
940.26	1996.97
940.43	2136.65
940.60	1864.06
940.77	1831.50
940.95	2079.30
941.12	2152.82
941.29	1818.39
941.46	1858.33
941.63	2245.60
941.80	2249.69
941.97	1705.75
942.14	1710.26
942.31	2130.09
942.48	2001.89
942.65	1949.67
942.82	1866.31
942.99	2162.86
943.16	2057.80
943.33	1749.58
943.50	1790.74
943.67	2169.82
943.84	2190.51
944.01	1820.85
944.18	1781.73
944.35	2277.34
944.52	1895.80
944.69	1904.00
944.86	1735.04
945.03	2136.03
945.20	2458.79
945.37	1641.24
945.54	1849.11
945.71	2227.58
945.88	2296.39
946.05	1775.18
946.22	1726.64
946.39	2257.68
946.56	2008.65
946.73	1687.94
946.90	1764.12
947.07	1966.25
947.24	2001.28
947.41	1679.54
947.58	1901.13
947.75	2148.11
947.92	2104.29
948.09	1629.16
948.26	1706.98
948.43	2074.59
948.60	2359.67
948.77	1771.08
948.94	1850.95
949.11	2142.79
949.27	2103.06
949.44	1786.44
949.61	1718.66
949.78	2096.30
949.95	2204.64
950.12	1695.51
950.29	1697.36
950.46	1947.21
950.63	2197.06
950.80	1781.94
950.97	1835.18
951.14	2218.97
951.31	1984.07
951.48	1762.69
951.65	1710.67
951.82	2319.12
951.99	2063.94
952.15	1728.69
952.32	1788.90
952.49	1940.45
952.66	1955.20
952.83	1807.95
953.00	1768.83
953.17	2032.40
953.34	2178.22
953.51	1868.57
953.68	1850.34
953.85	2223.48
954.02	2233.92
954.18	1828.63
954.35	1810.81
954.52	1890.89
954.69	2049.81
954.86	1687.73
955.03	1849.32
955.20	2156.31
955.37	2040.19
955.54	1810.81
955.71	1764.33
955.87	2086.06
956.04	2331.61
956.21	1797.30
956.38	1740.36
956.55	2049.20
956.72	2463.30
956.89	1880.24
957.06	1766.58
957.23	1933.90
957.39	2238.63
957.56	1811.02
957.73	1718.86
957.90	1705.14
958.07	2371.75
958.24	1847.06
958.41	1794.02
958.57	2162.66
958.74	1998.41
958.91	1744.66
959.08	1770.67
959.25	2135.42
959.42	1994.93
959.59	1842.15
959.75	1845.63
959.92	2250.31
960.09	2221.23
960.26	1755.72
960.43	1883.93
960.60	2097.53
960.76	1960.52
960.93	1691.21
961.10	1884.34
961.27	2185.80
961.44	1977.31
961.61	1726.23
961.77	1692.65
961.94	2069.68
962.11	2192.96
962.28	1809.99
962.45	1740.98
962.62	2001.07
962.78	2193.17
962.95	1702.68
963.12	1791.36
963.29	2162.04
963.46	2523.30
963.62	1906.25
963.79	1799.14
963.96	2468.42
964.13	1988.99
964.30	1890.48
964.46	1818.39
964.63	1872.25
964.80	2479.07
964.97	1627.11
965.14	1917.51
965.30	2059.85
965.47	2154.87
965.64	1949.26
965.81	1875.73
965.98	2251.54
966.14	2038.34
966.31	1786.65
966.48	1777.02
966.65	2222.05
966.81	2088.72
966.98	1790.74
967.15	1805.69
967.32	2031.58
967.49	1896.42
967.65	1645.95
967.82	1627.32
967.99	2000.87
968.16	1769.45
968.32	1947.00
968.49	1749.17
968.66	2000.25
968.83	2275.50
968.99	1875.94
969.16	1721.32
969.33	2245.80
969.50	2130.30
969.66	1932.26
969.83	2033.43
970.00	2150.98
970.17	2124.77
970.33	1835.18
970.50	1720.70
970.67	2305.19
970.84	2246.83
971.00	1745.89
971.17	1693.06
971.34	2146.27
971.50	2038.14
971.67	1892.53
971.84	1804.87
972.01	1867.75
972.17	1703.71
972.34	1696.33
972.51	1949.87
972.67	2225.94
972.84	2092.41
973.01	1755.11
973.18	1788.90
973.34	2150.78
973.51	1868.57
973.68	1831.70
973.84	1861.40
974.01	1959.91
974.18	2295.16
974.34	1881.26
974.51	1902.56
974.68	1920.79
974.85	2362.74
975.01	1922.22
975.18	1804.47
975.35	2062.92
975.51	1916.08
975.68	1700.63
975.85	1950.49
976.01	1947.41
976.18	2268.53
976.35	1824.13
976.51	1844.81
976.68	2297.21
976.85	2229.01
977.01	1834.98
977.18	1873.28
977.35	2126.82
977.51	1850.75
977.68	1653.73
977.85	1719.27
978.01	2193.78
978.18	2123.74
978.35	1828.43
978.51	1835.80
978.68	2192.35
978.85	2293.32
979.01	1842.15
979.18	1820.03
979.34	2009.47
979.51	2038.14
979.68	1772.52
979.84	1872.46
980.01	2469.65
980.18	2068.04
980.34	1767.81
980.51	1851.77
980.67	2167.16
980.84	2162.65
981.01	1805.28
981.17	1880.65
981.34	1778.25
981.51	2172.89
981.67	1742.62
981.84	1877.58
982.00	2125.59
982.17	2016.23
982.34	1656.60
982.50	1550.93
982.67	2299.46
982.83	1930.82
983.00	1694.28
983.17	1589.22
983.33	2233.92
983.50	1778.87
983.66	1686.50
983.83	1592.09
984.00	1979.77
984.16	2052.27
984.33	1606.22
984.49	1581.24
984.66	1887.61
984.83	2162.86
984.99	1657.63
985.16	1584.51
985.32	2120.26
985.49	2167.57
985.65	1736.47
985.82	1600.90
985.99	2258.91
986.15	2054.52
986.32	1682.41
986.48	1660.08
986.65	1979.98
986.81	2140.13
986.98	1605.20
987.14	1681.79
987.31	2057.80
987.48	1783.99
987.64	1555.02
987.81	1547.04
987.97	2394.28
988.14	1893.76
988.30	1631.00
988.47	1462.66
988.63	2093.84
988.80	1868.77
988.96	1663.97
989.13	1714.56
989.30	1995.95
989.46	2177.40
989.63	1553.18
989.79	1577.35
989.96	1997.38
990.12	2280.82
990.29	1643.09
990.45	1681.79
990.62	2031.18
990.78	2256.25
990.95	1739.14
991.11	1648.00
991.28	1953.35
991.44	2078.07
991.61	1527.78
991.77	1706.78
991.94	2068.86
992.10	2201.36
992.27	1694.69
992.43	1660.90
992.60	2134.19
992.76	1937.58
992.93	1818.60
993.09	1585.33
993.26	2187.23
993.42	2320.76
993.59	1616.67
993.75	1556.87
993.92	1905.43
994.08	1905.63
994.25	1714.56
994.41	1588.20
994.58	2140.54
994.74	2255.02
994.91	1557.28
995.07	1725.21
995.24	1986.94
995.40	2023.39
995.56	1787.26
995.73	1716.61
995.89	2305.19
996.06	2004.35
996.22	1613.39
996.39	1555.23
996.55	2016.23
996.72	2110.64
996.88	1560.35
997.05	1613.59
997.21	2367.45
997.37	2131.12
997.54	1703.30
997.70	1695.31
997.87	2074.80
998.03	2000.87
998.20	1556.87
998.36	1548.26
998.52	2126.82
998.69	2187.44
998.85	1554.82
999.02	1664.38
999.18	2200.13
999.35	2176.58
999.51	1672.78
999.67	1638.99
999.84	1856.89
1000.00	2134.80
1000.17	1734.83
1000.33	1594.96
1000.49	1932.26
1000.66	2017.45
1000.82	1620.35
1000.99	1692.85
1001.15	2196.65
1001.31	1996.56
1001.48	1641.86
1001.64	1721.52
1001.81	1994.11
1001.97	2405.54
1002.13	1632.03
1002.30	1673.19
1002.46	2240.27
1002.63	1982.02
1002.79	1707.80
1002.95	1631.21
1003.12	2206.48
1003.28	2086.88
1003.45	1620.76
1003.61	1550.72
1003.77	2051.45
1003.94	1822.49
1004.10	1666.43
1004.26	1726.44
1004.43	2108.59
1004.59	2320.76
1004.75	1628.54
1004.92	1583.69
1005.08	1971.58
1005.25	2077.05
1005.41	1651.89
1005.57	1708.62
1005.74	2235.36
1005.90	1949.26
1006.06	1753.47
1006.23	1628.14
1006.39	2143.20
1006.55	2472.72
1006.72	1779.28
1006.88	1558.50
1007.04	1893.14
1007.21	2010.08
1007.37	1664.18
1007.53	1622.20
1007.70	2271.40
1007.86	2182.52
1008.02	1697.56
1008.19	1581.65
1008.35	2080.74
1008.51	1920.38
1008.68	1631.62
1008.84	1587.18
1009.00	1866.11
1009.17	2225.32
1009.33	1829.04
1009.49	1724.18
1009.65	1898.67
1009.82	2090.16
1009.98	1669.50
1010.14	1549.90
1010.31	2136.24
1010.47	2123.74
1010.63	1698.18
1010.80	1693.87
1010.96	2123.95
1011.12	1988.58
1011.28	1643.09
1011.45	1593.52
1011.61	2473.33
1011.77	1893.35
1011.94	1603.56
1012.10	1590.45
1012.26	1877.78
1012.42	1957.86
1012.59	1698.59
1012.75	1663.97
1012.91	1992.67
1013.07	2170.23
1013.24	1590.86
1013.40	1626.29
1013.56	2044.90
1013.72	2028.10
1013.89	1700.22
1014.05	1727.87
1014.21	2341.85
1014.37	2450.19
1014.54	1691.62
1014.70	1573.25
1014.86	1968.10
1015.02	1863.65
1015.19	1635.51
1015.35	1589.84
1015.51	2011.51
1015.67	1960.32
1015.84	1636.53
1016.00	1652.51
1016.16	2187.64
1016.32	2168.59
1016.49	1642.47
1016.65	1576.73
1016.81	2013.15
1016.97	2108.18
1017.14	1760.23
1017.30	1640.63
1017.46	1935.94
1017.62	2089.13
1017.78	1710.05
1017.95	1611.75
1018.11	2173.30
1018.27	2451.42
1018.43	1814.50
1018.59	1727.05
1018.76	2154.67
1018.92	2492.99
1019.08	1596.80
1019.24	1651.69
1019.40	2270.99
1019.57	2078.69
1019.73	1729.51
1019.89	1647.39
1020.05	2067.01
1020.21	2368.48
1020.38	1632.44
1020.54	1778.66
1020.70	2145.66
1020.86	2110.43
1021.02	1634.48
1021.18	1633.87
1021.35	1967.07
1021.51	2108.59
1021.67	1793.82
1021.83	1700.63
1021.99	2042.03
1022.15	2079.71
1022.32	1709.44
1022.48	1687.12
1022.64	2261.37
1022.80	2291.47
1022.96	1714.35
1023.12	1594.34
1023.29	2198.49
1023.45	2120.88
1023.61	1616.05
1023.77	1852.59
1023.93	2072.75
1024.09	1897.85
1024.25	1609.91
1024.42	1576.73
1024.58	1958.68
1024.74	2099.58
1024.90	1658.65
1025.06	1705.96
1025.22	1952.12
1025.38	2301.71
1025.54	1579.39
1025.71	1735.45
1025.87	2140.74
1026.03	2104.49
1026.19	1602.95
1026.35	1837.23
1026.51	2119.24
1026.67	2035.48
1026.83	1682.61
1026.99	1777.43
1027.16	2119.85
1027.32	2025.85
1027.48	1661.93
1027.64	1627.73
1027.80	2131.73
1027.96	2073.77
1028.12	1648.61
1028.28	1627.11
1028.44	2096.30
1028.60	2309.70
1028.77	1797.09
1028.93	1708.42
1029.09	1961.95
1029.25	1871.02
1029.41	1705.34
1029.57	1743.85
1029.73	2079.10
1029.89	2293.72
1030.05	1774.16
1030.21	1720.50
1030.37	2442.20
1030.53	2136.65
1030.69	1683.43
1030.85	1589.84
1031.02	1870.41
1031.18	2055.96
1031.34	1631.82
1031.50	1775.38
1031.66	1904.61
1031.82	2286.35
1031.98	1707.80
1032.14	1565.47
1032.30	1900.92
1032.46	2159.79
1032.62	1773.95
1032.78	1593.11
1032.94	1929.60
1033.10	1965.64
1033.26	1718.04
1033.42	1789.52
1033.58	2427.05
1033.74	1951.51
1033.90	1628.54
1034.06	1830.06
1034.22	2406.57
1034.38	2209.76
1034.54	1705.96
1034.70	1722.75
1034.86	2344.11
>>>>>End Processed Spectral Data<<<<<
