SpectraSuite Data File
++++++++++++++++++++++++++++++++++++
Date: Thu Mar 30 14:12:14 PDT 2017
User: UCSD _CER
Dark Spectrum Present: No
Reference Spectrum Present: No
Number of Sampled Component Spectra: 1
Spectrometers: USB4C00073
Integration Time (usec): 380000 (USB4C00073)
Spectra Averaged: 10 (USB4C00073)
Boxcar Smoothing: 0 (USB4C00073)
Correct for Electrical Dark: No (USB4C00073)
Strobe/Lamp Enabled: No (USB4C00073)
Correct for Detector Non-linearity: No (USB4C00073)
Correct for Stray Light: No (USB4C00073)
Number of Pixels in Processed Spectrum: 3648
>>>>>Begin Processed Spectral Data<<<<<
345.37	1206.87
345.58	1206.87
345.80	1206.87
346.01	1205.23
346.22	1188.85
346.43	1981.00
346.65	1842.97
346.86	2365.81
347.07	2295.77
347.28	1788.49
347.50	1793.00
347.71	2071.32
347.92	1815.52
348.13	1794.02
348.35	1716.61
348.56	2068.65
348.77	1858.12
348.98	1785.01
349.20	1675.65
349.41	2060.05
349.62	2204.64
349.83	1905.23
350.05	1763.30
350.26	2106.54
350.47	2302.74
350.68	1803.85
350.90	1712.31
351.11	2297.41
351.32	2268.53
351.53	1855.66
351.75	1768.63
351.96	2111.25
352.17	2056.16
352.38	1888.02
352.60	1891.09
352.81	2098.96
353.02	2370.52
353.23	1764.73
353.44	1834.16
353.66	1998.20
353.87	2003.32
354.08	1892.73
354.29	1787.88
354.51	1941.47
354.72	2013.56
354.93	1770.88
355.14	1788.90
355.35	1814.30
355.57	2222.87
355.78	1830.47
355.99	1900.72
356.20	2082.99
356.42	2043.46
356.63	1911.78
356.84	1817.37
357.05	2227.99
357.26	2444.05
357.48	1940.66
357.69	1865.90
357.90	2176.38
358.11	2010.08
358.32	1835.18
358.54	1867.13
358.75	2004.96
358.96	2196.04
359.17	1816.55
359.38	1821.26
359.60	2159.17
359.81	2080.33
360.02	1828.63
360.23	1743.23
360.44	1953.97
360.66	2206.48
360.87	1790.54
361.08	1751.83
361.29	2135.62
361.50	2043.67
361.72	1781.73
361.93	1856.89
362.14	2069.88
362.35	1837.85
362.56	1970.35
362.77	1700.84
362.99	2150.98
363.20	2043.87
363.41	1885.36
363.62	1678.52
363.83	2139.72
364.05	2220.61
364.26	1743.23
364.47	1775.18
364.68	2244.98
364.89	1928.37
365.10	1721.32
365.32	1816.96
365.53	1907.48
365.74	1981.20
365.95	1793.61
366.16	1680.97
366.37	2034.86
366.59	2004.96
366.80	1811.22
367.01	1691.62
367.22	2380.56
367.43	2540.51
367.64	1873.48
367.86	1809.79
368.07	2132.35
368.28	2245.60
368.49	1712.31
368.70	1840.71
368.91	2028.51
369.12	2023.39
369.34	1714.76
369.55	1716.81
369.76	2048.58
369.97	1975.47
370.18	1720.29
370.39	1773.34
370.60	1834.16
370.82	1881.47
371.03	1803.44
371.24	1755.31
371.45	2162.04
371.66	2148.52
371.87	1802.01
372.08	1807.33
372.30	1937.38
372.51	2231.88
372.72	1958.88
372.93	1811.63
373.14	2319.73
373.35	1939.02
373.56	1751.63
373.78	1818.19
373.99	2198.29
374.20	2545.83
374.41	1793.20
374.62	1780.30
374.83	2335.91
375.04	2014.18
375.25	1831.91
375.47	1801.39
375.68	2009.67
375.89	2213.24
376.10	1837.85
376.31	1890.28
376.52	2142.18
376.73	2110.64
376.94	1863.24
377.15	1755.93
377.37	2064.97
377.58	2008.24
377.79	1714.97
378.00	1787.67
378.21	2121.90
378.42	2177.40
378.63	1864.68
378.84	1893.76
379.05	2244.98
379.27	2095.89
379.48	1941.06
379.69	1787.26
379.90	2284.92
380.11	1771.90
380.32	1842.56
380.53	1945.98
380.74	2311.95
380.95	2076.64
381.16	1883.11
381.37	1852.18
381.59	2294.95
381.80	2234.33
382.01	1796.07
382.22	1728.08
382.43	2150.98
382.64	2085.65
382.85	1764.12
383.06	1891.71
383.27	2188.66
383.48	2039.78
383.69	1836.00
383.91	1723.78
384.12	2190.92
384.33	2221.43
384.54	1882.08
384.75	1791.36
384.96	2628.36
385.17	2275.50
385.38	1862.83
385.59	1855.46
385.80	2228.80
386.01	2320.14
386.22	1953.97
386.43	1859.97
386.64	2460.43
386.86	2083.81
387.07	1973.83
387.28	1778.05
387.49	2021.14
387.70	2311.54
387.91	1971.58
388.12	1843.99
388.33	2159.17
388.54	2011.72
388.75	1796.89
388.96	1915.47
389.17	1982.84
389.38	2028.72
389.59	1912.19
389.80	1881.26
390.01	2049.81
390.22	2006.19
390.43	1926.52
390.64	1731.15
390.86	2168.39
391.07	2266.08
391.28	1829.86
391.49	1866.72
391.70	1867.75
391.91	1961.34
392.12	1820.64
392.33	1911.37
392.54	2097.73
392.75	2033.02
392.96	1935.54
393.17	1793.61
393.38	2448.55
393.59	2238.02
393.80	1762.28
394.01	1883.52
394.22	2088.11
394.43	2400.42
394.64	1793.61
394.85	1947.21
395.06	2078.89
395.27	2102.24
395.48	1847.27
395.69	1720.09
395.90	2038.14
396.11	2093.02
396.32	1808.97
396.53	1916.49
396.74	2020.12
396.95	2261.78
397.16	1802.42
397.37	1712.92
397.58	2204.23
397.79	2065.58
398.00	1868.57
398.21	1820.85
398.42	2121.29
398.63	2392.23
398.84	1801.19
399.05	1768.22
399.26	2277.55
399.47	2135.62
399.68	1679.13
399.89	1751.83
400.10	1880.04
400.31	2013.15
400.52	1903.59
400.73	1838.26
400.94	1873.69
401.15	2162.66
401.36	1877.99
401.57	1898.67
401.78	2272.22
401.99	2234.54
402.20	1754.29
402.41	1976.70
402.62	2280.62
402.83	2037.93
403.04	1814.50
403.25	2012.74
403.46	2154.67
403.67	2366.84
403.88	1902.97
404.09	1885.97
404.30	2062.10
404.51	2014.79
404.72	1813.68
404.93	1987.55
405.14	1966.46
405.35	2089.95
405.56	1856.48
405.77	1794.43
405.98	2100.81
406.19	2090.57
406.40	1800.78
406.61	1851.16
406.82	2024.01
407.03	2503.85
407.24	1812.86
407.45	1904.41
407.66	2187.03
407.87	2247.44
408.08	1908.30
408.29	1935.33
408.49	2165.52
408.70	2070.29
408.91	1800.57
409.12	1975.27
409.33	1907.48
409.54	2302.94
409.75	1783.37
409.96	1840.30
410.17	2226.14
410.38	2053.09
410.59	1808.97
410.80	1949.67
411.01	2037.73
411.22	2035.07
411.43	1893.96
411.64	1790.54
411.85	1930.21
412.06	1938.61
412.27	1639.81
412.47	1787.06
412.68	2068.45
412.89	2148.73
413.10	1830.47
413.31	1746.30
413.52	2372.16
413.73	2393.26
413.94	1828.43
414.15	1966.05
414.36	2010.70
414.57	1934.51
414.78	1794.64
414.99	1940.25
415.19	2481.93
415.40	2491.76
415.61	2422.75
415.82	2331.00
416.03	2486.23
416.24	2337.14
416.45	2006.80
416.66	1841.94
416.87	1860.99
417.08	2201.77
417.29	1848.50
417.50	1921.81
417.70	2191.12
417.91	2214.47
418.12	1996.16
418.33	1991.65
418.54	2296.80
418.75	2434.22
418.96	2311.34
419.17	2490.94
419.38	3044.92
419.59	2936.38
419.79	2690.62
420.00	2551.56
420.21	2982.05
420.42	2357.01
420.63	1997.59
420.84	1974.65
421.05	2098.55
421.26	2068.65
421.47	1748.56
421.67	2155.49
421.88	1945.57
422.09	1916.28
422.30	2075.82
422.51	1876.14
422.72	2406.57
422.93	2232.90
423.14	1883.11
423.35	1751.83
423.55	1859.15
423.76	1968.51
423.97	1861.40
424.18	1738.73
424.39	2056.37
424.60	2233.11
424.81	1877.58
425.02	2087.29
425.22	2277.55
425.43	2290.65
425.64	2369.50
425.85	2325.47
426.06	2807.15
426.27	2595.80
426.48	2320.76
426.68	2280.00
426.89	2533.95
427.10	2636.35
427.31	2089.95
427.52	1945.16
427.73	2326.90
427.94	2227.37
428.14	2040.60
428.35	1915.06
428.56	2310.52
428.77	2227.99
428.98	1916.28
429.19	1965.03
429.40	2124.15
429.60	2189.07
429.81	2127.02
430.02	2086.27
430.23	2162.66
430.44	2287.38
430.65	1871.64
430.85	1869.80
431.06	2171.46
431.27	1849.73
431.48	1828.63
431.69	1878.81
431.90	2080.33
432.10	2082.78
432.31	1998.41
432.52	2032.40
432.73	2737.72
432.94	2625.09
433.15	2290.86
433.35	2110.43
433.56	2511.83
433.77	2306.42
433.98	2603.79
434.19	2722.57
434.40	3008.47
434.60	3014.81
434.81	2846.88
435.02	2499.96
435.23	2474.77
435.44	2277.14
435.64	1927.75
435.85	1872.46
436.06	2084.01
436.27	2068.45
436.48	1851.16
436.68	1953.76
436.89	2514.50
437.10	2376.26
437.31	2054.11
437.52	2135.01
437.73	2273.86
437.93	2260.75
438.14	1984.69
438.35	1789.52
438.56	2040.80
438.77	2056.78
438.97	2048.38
439.18	1916.69
439.39	2454.49
439.60	2124.77
439.80	2058.00
440.01	2088.93
440.22	2173.30
440.43	2278.57
440.64	1872.25
440.84	1937.38
441.05	1918.33
441.26	2515.32
441.47	1963.18
441.68	1995.75
441.88	2357.83
442.09	2447.73
442.30	2554.84
442.51	2582.90
442.71	2555.05
442.92	2474.36
443.13	2127.63
443.34	2032.61
443.55	2069.88
443.75	2237.41
443.96	1847.88
444.17	1801.39
444.38	2241.91
444.58	1940.86
444.79	1937.58
445.00	1893.14
445.21	2043.87
445.41	2031.38
445.62	1692.44
445.83	1966.25
446.04	2070.91
446.24	1881.47
446.45	1670.94
446.66	1855.87
446.87	2129.89
447.07	1996.36
447.28	2076.85
447.49	1915.47
447.70	2267.92
447.90	2274.27
448.11	1940.25
448.32	2018.89
448.53	2323.63
448.73	2330.38
448.94	1885.56
449.15	2025.65
449.36	2084.22
449.56	2108.38
449.77	1848.50
449.98	1759.00
450.19	2045.72
450.39	2120.67
450.60	2063.94
450.81	2098.14
451.02	2200.75
451.22	2405.75
451.43	1890.68
451.64	1902.97
451.84	2059.23
452.05	2320.55
452.26	1914.24
452.47	1903.38
452.67	2008.65
452.88	2329.36
453.09	1790.54
453.30	1788.08
453.50	2227.58
453.71	2440.15
453.92	2020.53
454.12	2142.18
454.33	2139.92
454.54	2199.52
454.75	1911.57
454.95	1861.81
455.16	2143.61
455.37	2220.61
455.57	1994.31
455.78	1878.60
455.99	2079.71
456.19	2103.06
456.40	1818.39
456.61	1889.46
456.82	2103.06
457.02	2238.84
457.23	2067.22
457.44	2201.77
457.64	2158.15
457.85	2318.71
458.06	2055.14
458.26	2162.04
458.47	2189.48
458.68	2335.50
458.89	1956.01
459.09	2112.07
459.30	2511.63
459.51	2183.54
459.71	1808.56
459.92	1888.02
460.13	2346.97
460.33	2634.10
460.54	2082.17
460.75	2118.21
460.95	2086.27
461.16	2268.94
461.37	1939.84
461.57	1934.10
461.78	2130.50
461.99	1934.92
462.19	2153.85
462.40	1841.53
462.61	2669.12
462.81	2290.45
463.02	1821.87
463.23	1858.53
463.43	2173.30
463.64	2006.60
463.85	3089.57
464.05	1838.87
464.26	2608.09
464.47	2304.99
464.67	2058.41
464.88	2022.57
465.09	2071.32
465.29	2252.77
465.50	2197.47
465.71	2068.24
465.91	2112.89
466.12	2139.92
466.33	1982.84
466.53	1881.88
466.74	2331.20
466.94	2067.22
467.15	1942.29
467.36	2078.28
467.56	1925.09
467.77	2114.94
467.98	1923.04
468.18	1887.00
468.39	1996.77
468.60	2393.26
468.80	1888.64
469.01	1812.04
469.21	2145.86
469.42	2303.56
469.63	1938.20
469.83	1896.62
470.04	2260.55
470.25	2370.32
470.45	2017.25
470.66	1874.10
470.86	2140.13
471.07	2023.19
471.28	1959.09
471.48	1987.14
471.69	2124.97
471.90	2806.74
472.10	2069.68
472.31	2094.25
472.51	2211.81
472.72	2283.69
472.93	2148.11
473.13	2306.42
473.34	2461.25
473.54	2407.39
473.75	2138.28
473.96	2202.39
474.16	2130.91
474.37	2229.21
474.57	2027.90
474.78	1875.94
474.99	2184.36
475.19	2128.86
475.40	1908.09
475.60	1901.95
475.81	2492.17
476.02	2286.35
476.22	2205.66
476.43	2258.09
476.63	2168.59
476.84	2368.89
477.05	1812.25
477.25	1863.45
477.46	2617.51
477.66	2081.15
477.87	1838.87
478.08	1865.29
478.28	2247.85
478.49	2064.76
478.69	1853.41
478.90	1856.07
479.10	2141.36
479.31	2335.91
479.52	1983.05
479.72	2260.55
479.93	2687.55
480.13	2631.23
480.34	2556.89
480.54	2666.25
480.75	2391.82
480.96	2533.34
481.16	2037.32
481.37	2106.34
481.57	2351.27
481.78	2250.92
481.98	2218.15
482.19	2086.88
482.40	2465.96
482.60	2205.87
482.81	2006.19
483.01	1793.41
483.22	2203.20
483.42	2213.24
483.63	1964.41
483.83	1984.69
484.04	2124.36
484.24	2372.57
484.45	2195.83
484.66	2004.14
484.86	2274.68
485.07	2035.68
485.27	2027.49
485.48	1887.41
485.68	2334.27
485.89	2003.73
486.09	2039.57
486.30	1916.28
486.50	2135.21
486.71	2113.91
486.91	2027.90
487.12	2404.93
487.33	3053.93
487.53	3205.07
487.74	2901.77
487.94	2829.68
488.15	2676.29
488.35	2480.29
488.56	2146.27
488.76	2078.69
488.97	2231.47
489.17	2311.54
489.38	2064.15
489.58	2009.06
489.79	2264.44
489.99	2214.06
490.20	1984.28
490.40	2068.24
490.61	2203.20
490.81	1970.35
491.02	1989.60
491.22	1977.52
491.43	2196.45
491.63	2065.17
491.84	2053.50
492.04	1811.43
492.25	2215.29
492.45	2041.01
492.66	1955.61
492.86	1871.43
493.07	2142.58
493.27	2501.59
493.48	1830.68
493.68	1911.57
493.89	2065.99
494.09	2198.49
494.30	1909.32
494.50	2144.63
494.71	2174.33
494.91	1859.97
495.12	1920.79
495.32	1996.97
495.53	2106.95
495.73	1926.11
495.94	2127.43
496.14	1965.64
496.35	2598.05
496.55	2214.67
496.76	2001.68
496.96	2035.48
497.17	2116.78
497.37	2178.83
497.58	1909.73
497.78	1825.35
497.98	2055.14
498.19	2054.52
498.39	1922.22
498.60	1957.86
498.80	1792.38
499.01	2192.56
499.21	1804.06
499.42	1976.29
499.62	2040.80
499.83	2446.30
500.03	1887.00
500.24	2127.02
500.44	2467.80
500.64	2421.31
500.85	2064.35
501.05	2184.36
501.26	1934.31
501.46	2369.30
501.67	1932.26
501.87	1851.57
502.08	2000.66
502.28	2067.42
502.48	2011.72
502.69	2016.43
502.89	1837.03
503.10	1966.66
503.30	1984.28
503.51	1961.54
503.71	1849.52
503.92	2174.94
504.12	1988.78
504.32	1907.89
504.53	2197.47
504.73	2191.74
504.94	2062.71
505.14	2167.37
505.35	2256.25
505.55	2244.57
505.75	2106.95
505.96	2228.19
506.16	2570.00
506.37	2074.39
506.57	1934.72
506.78	2070.50
506.98	2314.00
507.18	1905.02
507.39	1870.82
507.59	1941.68
507.80	1996.77
508.00	2117.19
508.20	2112.68
508.41	1924.27
508.61	2311.34
508.82	2246.42
509.02	2066.81
509.22	1860.99
509.43	1914.85
509.63	2004.35
509.84	1944.75
510.04	1779.68
510.24	2335.71
510.45	2187.85
510.65	1834.37
510.86	1962.36
511.06	1896.01
511.26	2207.30
511.47	2095.48
511.67	1869.39
511.88	2157.13
512.08	2252.97
512.28	1836.21
512.49	2005.58
512.69	2098.55
512.90	2141.56
513.10	1904.00
513.30	1980.59
513.51	2190.92
513.71	2430.32
513.91	2095.69
514.12	2085.04
514.32	2289.01
514.53	2072.34
514.73	2060.67
514.93	1980.18
515.14	2137.87
515.34	2319.94
515.54	1934.10
515.75	2022.78
515.95	2234.54
516.15	2345.54
516.36	1993.70
516.56	2038.34
516.77	1758.80
516.97	2175.76
517.17	1930.01
517.38	2025.85
517.58	2337.55
517.78	2023.80
517.99	2038.34
518.19	1972.19
518.39	2338.78
518.60	2037.93
518.80	1871.23
519.00	2005.17
519.21	2069.47
519.41	2394.49
519.61	1853.62
519.82	2031.18
520.02	2108.38
520.22	2067.63
520.43	1892.12
520.63	1947.21
520.83	1946.18
521.04	1829.66
521.24	1991.24
521.44	1938.61
521.65	1955.40
521.85	2196.04
522.05	1893.96
522.26	1883.11
522.46	2391.21
522.66	2255.43
522.87	1920.99
523.07	2096.30
523.27	1989.40
523.48	2304.78
523.68	1938.81
523.88	1980.39
524.09	2288.20
524.29	2131.32
524.49	1803.44
524.70	2044.08
524.90	2268.33
525.10	2155.69
525.31	1820.85
525.51	1839.28
525.71	2174.74
525.91	2168.80
526.12	1894.99
526.32	1837.85
526.52	1994.72
526.73	1983.05
526.93	2013.77
527.13	1819.42
527.34	2047.76
527.54	2071.11
527.74	1953.97
527.94	1849.32
528.15	1921.61
528.35	2111.46
528.55	2048.79
528.76	1978.95
528.96	1832.11
529.16	2240.89
529.36	2059.44
529.57	1841.12
529.77	2257.68
529.97	1909.73
530.18	2011.51
530.38	1905.43
530.58	2150.78
530.78	2064.76
530.99	1894.78
531.19	2008.65
531.39	1961.13
531.60	2075.62
531.80	1976.49
532.00	2116.37
532.20	2089.13
532.41	1975.47
532.61	1907.89
532.81	1860.17
533.01	2027.69
533.22	2136.85
533.42	2053.50
533.62	1800.98
533.82	2275.91
534.03	2055.34
534.23	2047.35
534.43	1900.31
534.63	1990.01
534.84	2128.25
535.04	2076.44
535.24	1991.85
535.44	2536.82
535.65	2021.96
535.85	1945.16
536.05	1889.87
536.25	2093.23
536.46	1972.40
536.66	2114.12
536.86	1984.28
537.06	2201.16
537.27	2311.54
537.47	1998.41
537.67	1928.78
537.87	2343.08
538.08	2061.89
538.28	1844.40
538.48	1839.49
538.68	2045.10
538.88	2204.84
539.09	1790.95
539.29	1939.22
539.49	2238.63
539.69	2106.13
539.90	2025.03
540.10	1868.36
540.30	2278.98
540.50	2025.85
540.70	1837.44
540.91	1901.95
541.11	2212.83
541.31	2384.25
541.51	2021.35
541.72	2062.10
541.92	2129.89
542.12	1986.32
542.32	1984.48
542.52	1927.75
542.73	1983.05
542.93	2171.26
543.13	1926.11
543.33	2046.33
543.53	2206.28
543.74	2208.32
543.94	1920.59
544.14	2071.11
544.34	2301.71
544.54	2128.25
544.75	2077.05
544.95	2208.94
545.15	2243.75
545.35	2389.77
545.55	2098.14
545.75	1967.69
545.96	2461.04
546.16	1976.49
546.36	1991.24
546.56	2016.02
546.76	2297.21
546.97	2394.28
547.17	2015.20
547.37	2072.13
547.57	2014.38
547.77	2234.33
547.97	2010.70
548.18	2035.48
548.38	2065.38
548.58	2325.26
548.78	1933.49
548.98	2018.07
549.18	2278.37
549.39	2400.22
549.59	2098.55
549.79	2020.94
549.99	2388.96
550.19	2252.56
550.39	2119.85
550.60	1991.85
550.80	2147.91
551.00	2186.41
551.20	1948.03
551.40	1954.99
551.60	2158.97
551.80	2112.07
552.01	2061.28
552.21	1974.45
552.41	2117.39
552.61	2393.87
552.81	2050.43
553.01	1863.24
553.21	2150.37
553.42	1932.05
553.62	1941.06
553.82	1884.95
554.02	2320.96
554.22	2220.82
554.42	1853.82
554.62	2086.06
554.83	2345.13
555.03	2381.58
555.23	2042.64
555.43	2308.88
555.63	2256.25
555.83	2204.23
556.03	2092.82
556.23	1911.16
556.44	2143.40
556.64	2313.80
556.84	1752.86
557.04	2000.46
557.24	2145.04
557.44	2121.49
557.64	2036.50
557.84	1905.43
558.04	2045.10
558.25	2188.25
558.45	1897.85
558.65	1967.69
558.85	2111.05
559.05	1802.01
559.25	1947.21
559.45	2035.48
559.65	2471.49
559.85	2962.39
560.05	2079.71
560.26	2125.38
560.46	2159.58
560.66	2088.52
560.86	2014.38
561.06	1934.31
561.26	2350.04
561.46	2213.24
561.66	1939.02
561.86	2093.23
562.06	1969.12
562.26	2057.18
562.47	1981.00
562.67	1850.54
562.87	2190.71
563.07	1845.22
563.27	2002.09
563.47	1984.07
563.67	2018.07
563.87	2180.68
564.07	1919.15
564.27	1981.82
564.47	2133.78
564.67	2192.56
564.87	1970.56
565.08	2054.11
565.28	2016.43
565.48	2206.28
565.68	2030.15
565.88	2088.31
566.08	2449.17
566.28	2093.43
566.48	1844.20
566.68	1985.92
566.88	2048.58
567.08	2229.21
567.28	1993.29
567.48	1970.56
567.68	2193.78
567.88	1875.32
568.08	2004.14
568.28	2143.81
568.48	2084.42
568.68	2290.04
568.89	2011.11
569.09	1836.21
569.29	2210.78
569.49	2218.77
569.69	1890.48
569.89	1879.83
570.09	1816.75
570.29	1957.24
570.49	1854.64
570.69	1936.97
570.89	2221.23
571.09	2397.76
571.29	1851.98
571.49	2117.39
571.69	2150.78
571.89	2161.63
572.09	1971.78
572.29	2001.28
572.49	2238.02
572.69	2190.92
572.89	2000.25
573.09	1737.50
573.29	2101.42
573.49	2101.01
573.69	1993.29
573.89	2038.75
574.09	2026.87
574.29	2298.44
574.49	1953.76
574.69	1887.82
574.89	1936.97
575.09	1950.90
575.29	1865.70
575.49	1966.05
575.69	2124.36
575.89	1921.40
576.09	1974.65
576.29	2015.82
576.49	1913.83
576.69	2044.90
576.89	1943.32
577.09	1990.63
577.29	1850.95
577.49	2397.97
577.69	1923.25
577.89	2093.23
578.09	2081.35
578.29	1813.48
578.49	1991.85
578.69	1875.94
578.89	2257.68
579.09	2110.02
579.29	1896.62
579.49	2084.22
579.69	2022.37
579.89	2393.67
580.09	1795.25
580.29	1824.13
580.49	2000.66
580.69	1942.29
580.89	1912.80
581.09	1937.38
581.29	2025.44
581.49	2070.29
581.69	1849.93
581.89	1890.89
582.09	1952.74
582.28	1957.04
582.48	2046.54
582.68	2118.21
582.88	2319.73
583.08	2042.23
583.28	1989.40
583.48	1976.29
583.68	1976.90
583.88	2041.42
584.08	1967.28
584.28	2023.60
584.48	2417.01
584.68	2177.40
584.88	1956.42
585.08	2187.23
585.28	2255.02
585.48	2298.23
585.68	2084.22
585.87	2118.62
586.07	2182.11
586.27	2100.19
586.47	2087.08
586.67	1997.79
586.87	2088.52
587.07	2057.59
587.27	1891.30
587.47	2064.35
587.67	2394.89
587.87	2627.54
588.07	2144.43
588.27	2034.25
588.46	2300.07
588.66	2346.36
588.86	2053.29
589.06	2061.08
589.26	2259.52
589.46	2245.19
589.66	1932.46
589.86	1911.16
590.06	2074.80
590.26	2218.36
590.46	2011.11
590.66	2124.97
590.85	2087.70
591.05	2227.37
591.25	1978.34
591.45	2039.37
591.65	2225.12
591.85	2144.63
592.05	1999.43
592.25	2116.37
592.45	2289.01
592.64	2089.34
592.84	2057.18
593.04	1917.51
593.24	2545.01
593.44	2020.53
593.64	2030.15
593.84	2065.17
594.04	2059.64
594.24	2371.14
594.43	1948.23
594.63	1996.77
594.83	2263.42
595.03	2227.37
595.23	1896.42
595.43	1858.53
595.63	1958.06
595.83	2241.30
596.02	1734.63
596.22	1962.57
596.42	2144.22
596.62	2094.25
596.82	1950.49
597.02	2020.73
597.22	2308.88
597.41	2111.05
597.61	1935.54
597.81	2076.85
598.01	2211.81
598.21	2021.14
598.41	1891.91
598.61	1904.82
598.80	2081.35
599.00	2110.02
599.20	2142.99
599.40	1977.31
599.60	2067.22
599.80	2215.29
599.99	2132.75
600.19	1970.35
600.39	2113.91
600.59	2197.06
600.79	2056.78
600.99	2026.47
601.19	2395.71
601.38	2445.48
601.58	2086.47
601.78	1790.33
601.98	2222.46
602.18	2309.90
602.37	2451.21
602.57	2279.80
602.77	2572.25
602.97	2506.51
603.17	2470.67
603.37	2381.17
603.56	2571.22
603.76	2496.47
603.96	2278.57
604.16	2269.76
604.36	2511.63
604.56	2388.55
604.75	2044.08
604.95	2153.85
605.15	2434.22
605.35	2335.91
605.55	2055.55
605.74	1995.95
605.94	2333.25
606.14	2167.98
606.34	2041.62
606.54	2053.50
606.73	2063.74
606.93	2205.05
607.13	1959.09
607.33	2054.52
607.53	2322.81
607.72	2270.79
607.92	2054.52
608.12	2128.45
608.32	2058.00
608.51	2202.18
608.71	1881.47
608.91	2063.12
609.11	2204.64
609.31	2053.91
609.50	2009.26
609.70	2222.66
609.90	2275.50
610.10	2278.16
610.29	2007.01
610.49	1890.48
610.69	2240.89
610.89	2164.29
611.09	2022.16
611.28	2209.76
611.48	2272.63
611.68	2054.52
611.88	2001.89
612.07	1888.84
612.27	2225.32
612.47	1981.41
612.67	2011.92
612.86	2097.73
613.06	2083.60
613.26	1840.71
613.46	1916.69
613.65	2039.16
613.85	2536.61
614.05	2231.47
614.25	2086.27
614.44	1973.83
614.64	2097.53
614.84	2018.48
615.04	1917.92
615.23	1947.21
615.43	2170.64
615.63	2185.39
615.83	1899.29
616.02	1803.65
616.22	2226.76
616.42	1918.33
616.62	1923.04
616.81	2046.33
617.01	2160.40
617.21	2106.95
617.41	1881.06
617.60	2006.80
617.80	2195.63
618.00	2182.11
618.19	2060.05
618.39	1987.96
618.59	2167.57
618.79	2069.88
618.98	1804.87
619.18	1932.26
619.38	2436.06
619.57	2050.84
619.77	1947.82
619.97	1938.81
620.17	1942.50
620.36	1884.75
620.56	2131.73
620.76	1849.32
620.95	1904.82
621.15	2024.42
621.35	1876.35
621.54	1954.17
621.74	2099.78
621.94	1951.92
622.14	1832.32
622.33	1799.96
622.53	2045.92
622.73	2036.09
622.92	1802.62
623.12	1941.27
623.32	2388.34
623.51	2209.96
623.71	1833.55
623.91	2127.63
624.10	1939.43
624.30	2119.03
624.50	1840.30
624.69	1806.51
624.89	2678.74
625.09	2021.75
625.29	1748.76
625.48	1847.47
625.68	2128.04
625.88	2250.51
626.07	2012.54
626.27	1867.34
626.47	1985.10
626.66	1831.91
626.86	1956.42
627.06	1972.60
627.25	2085.24
627.45	2334.48
627.64	1960.52
627.84	2100.40
628.04	1951.51
628.23	2419.47
628.43	1851.36
628.63	1886.79
628.82	2010.90
629.02	2410.87
629.22	2025.24
629.41	2112.48
629.61	2100.40
629.81	2427.66
630.00	1923.45
630.20	1872.87
630.40	2145.66
630.59	2180.27
630.79	1995.54
630.98	1941.88
631.18	2064.56
631.38	2067.63
631.57	2092.61
631.77	1845.02
631.97	2092.82
632.16	2119.24
632.36	1974.24
632.56	1994.31
632.75	2106.95
632.95	2228.80
633.14	1864.68
633.34	2103.67
633.54	1779.07
633.73	2002.91
633.93	1894.99
634.12	1788.08
634.32	2515.93
634.52	2066.20
634.71	1808.56
634.91	2017.86
635.11	1871.64
635.30	1965.03
635.50	1971.99
635.69	1884.13
635.89	2388.34
636.09	2209.35
636.28	1893.55
636.48	1906.45
636.67	2187.03
636.87	2181.91
637.07	2029.95
637.26	1929.39
637.46	2166.55
637.65	2268.33
637.85	2066.40
638.04	1950.49
638.24	2059.85
638.44	2184.16
638.63	2035.27
638.83	1969.12
639.02	2177.81
639.22	2182.32
639.42	1949.26
639.61	1961.75
639.81	2119.85
640.00	2073.16
640.20	2090.98
640.39	2058.62
640.59	2514.91
640.79	2362.13
640.98	2210.78
641.18	2170.85
641.37	2280.41
641.57	2135.21
641.76	2114.94
641.96	1889.87
642.15	2180.88
642.35	2072.75
642.55	2067.01
642.74	1893.96
642.94	2238.84
643.13	2319.12
643.33	1964.00
643.52	1945.98
643.72	2030.56
643.91	2082.78
644.11	1882.49
644.31	1908.50
644.50	1986.53
644.70	2295.57
644.89	2005.37
645.09	2053.29
645.28	2109.00
645.48	2145.25
645.67	1917.51
645.87	1800.78
646.06	2029.95
646.26	2134.39
646.45	1758.80
646.65	1760.43
646.84	2391.82
647.04	2039.57
647.24	1843.38
647.43	1947.41
647.63	2137.06
647.82	2321.78
648.02	1866.52
648.21	1939.63
648.41	2303.76
648.60	2028.92
648.80	2109.20
648.99	1958.27
649.19	2009.88
649.38	1850.95
649.58	1962.16
649.77	2027.08
649.97	2281.03
650.16	2178.63
650.36	1764.12
650.55	2127.84
650.75	2130.30
650.94	2351.27
651.14	1976.09
651.33	2033.63
651.53	2368.89
651.72	2008.65
651.92	1990.42
652.11	1785.01
652.31	2187.64
652.50	2166.14
652.70	1965.64
652.89	1876.76
653.09	2357.62
653.28	2060.67
653.48	1801.39
653.67	1793.20
653.87	2605.43
654.06	2116.58
654.25	2195.83
654.45	1901.54
654.64	2026.47
654.84	2072.34
655.03	1726.23
655.23	2073.16
655.42	2214.67
655.62	2384.25
655.81	2061.69
656.01	1901.33
656.20	2224.09
656.40	2352.91
656.59	2015.82
656.79	2109.00
656.98	2151.60
657.17	2237.82
657.37	1974.04
657.56	1932.87
657.76	2164.70
657.95	2252.36
658.15	1634.69
658.34	2011.72
658.54	2069.06
658.73	1887.61
658.92	1948.85
659.12	1966.66
659.31	2202.80
659.51	1939.84
659.70	2044.49
659.90	1915.67
660.09	2255.63
660.29	2123.54
660.48	1887.61
660.67	2129.07
660.87	1996.97
661.06	2149.55
661.26	2059.64
661.45	2092.61
661.65	2143.61
661.84	1996.16
662.03	1898.06
662.23	1916.69
662.42	2401.65
662.62	1913.62
662.81	1820.23
663.00	1947.62
663.20	2151.60
663.39	2235.56
663.59	2135.62
663.78	2014.79
663.97	2152.01
664.17	2348.61
664.36	1879.22
664.56	1953.76
664.75	2282.67
664.94	2209.96
665.14	2053.09
665.33	2014.79
665.53	2136.85
665.72	2113.71
665.91	2105.52
666.11	2024.21
666.30	2117.80
666.50	2113.30
666.69	2090.16
666.88	2031.38
667.08	2235.97
667.27	2177.20
667.47	2122.51
667.66	2077.66
667.85	2362.33
668.05	2222.87
668.24	1993.29
668.43	2209.35
668.63	2108.59
668.82	2341.03
669.02	2111.05
669.21	2006.80
669.40	1913.42
669.60	2432.78
669.79	1844.81
669.98	2571.43
670.18	1927.55
670.37	1890.07
670.56	1961.34
670.76	1993.49
670.95	2059.85
671.15	2211.81
671.34	2010.29
671.53	1968.71
671.73	1980.59
671.92	1965.85
672.11	1856.69
672.31	1930.42
672.50	2116.17
672.69	1899.49
672.89	1727.26
673.08	1928.37
673.27	2192.15
673.47	2096.51
673.66	1995.95
673.85	1843.99
674.05	2173.10
674.24	2300.69
674.43	2164.29
674.63	2416.60
674.82	2887.23
675.01	2199.11
675.21	2404.11
675.40	2242.32
675.59	2265.46
675.79	2549.93
675.98	2152.01
676.17	2277.75
676.37	2264.23
676.56	2130.30
676.75	2053.70
676.95	2015.82
677.14	2065.99
677.33	2282.67
677.52	1859.97
677.72	1936.76
677.91	2132.14
678.10	1851.36
678.30	1840.10
678.49	1855.66
678.68	2386.91
678.88	1763.10
679.07	2099.99
679.26	1911.16
679.45	2367.86
679.65	2289.01
679.84	1758.80
680.03	1773.54
680.23	2005.58
680.42	2469.24
680.61	1846.86
680.81	1888.02
681.00	2057.80
681.19	2110.84
681.38	2037.73
681.58	1995.95
681.77	2018.48
681.96	2191.94
682.15	1882.90
682.35	2011.51
682.54	2128.25
682.73	1881.67
682.93	1852.18
683.12	1840.71
683.31	2197.06
683.50	2506.10
683.70	1855.87
683.89	1990.83
684.08	1868.77
684.27	2235.97
684.47	1811.22
684.66	1922.43
684.85	2372.78
685.04	2273.65
685.24	1880.65
685.43	1905.84
685.62	1832.73
685.81	2177.20
686.01	2161.84
686.20	2098.55
686.39	2148.32
686.58	2755.13
686.78	2369.09
686.97	2289.42
687.16	2446.30
687.35	2317.48
687.55	2130.71
687.74	2155.69
687.93	2038.34
688.12	2164.29
688.32	2104.08
688.51	1882.49
688.70	2192.96
688.89	1941.68
689.08	1832.32
689.28	1903.18
689.47	2091.80
689.66	2108.59
689.85	2021.35
690.05	1872.46
690.24	1927.75
690.43	2090.57
690.62	1984.07
690.81	1914.44
691.01	2063.94
691.20	1981.20
691.39	1836.62
691.58	1951.30
691.77	2365.61
691.97	2085.45
692.16	2004.76
692.35	1937.17
692.54	1987.14
692.73	2177.61
692.93	2077.25
693.12	2126.00
693.31	2269.97
693.50	2221.64
693.69	2155.49
693.89	2003.32
694.08	2343.08
694.27	2368.07
694.46	1968.10
694.65	2028.10
694.85	2200.75
695.04	2250.72
695.23	2256.66
695.42	3547.49
695.61	4653.39
695.80	5388.21
696.00	5957.75
696.19	6269.65
696.38	5512.72
696.57	4713.20
696.76	4446.34
696.95	4105.15
697.15	4226.60
697.34	3950.53
697.53	3338.80
697.72	3246.44
697.91	2956.65
698.10	3015.22
698.30	2391.62
698.49	2196.45
698.68	2286.35
698.87	2124.77
699.06	1907.48
699.25	2004.55
699.45	2257.07
699.64	2077.66
699.83	2092.41
700.02	1894.17
700.21	2154.26
700.40	1983.46
700.59	1902.77
700.79	1961.54
700.98	2149.34
701.17	1950.49
701.36	1865.09
701.55	1882.49
701.74	2287.17
701.93	1993.49
702.12	2113.09
702.32	2088.52
702.51	2493.20
702.70	2454.70
702.89	2256.86
703.08	2096.10
703.27	2427.87
703.46	2288.61
703.65	2003.53
703.85	1933.90
704.04	2049.40
704.23	2314.82
704.42	1920.38
704.61	1934.72
704.80	2377.69
704.99	1975.88
705.18	2028.72
705.37	2137.26
705.57	3088.54
705.76	4218.82
705.95	4411.73
706.14	5344.17
706.33	5859.44
706.52	5737.18
706.71	4378.35
706.90	4095.73
707.09	4031.84
707.28	3790.59
707.47	3339.62
707.67	3324.67
707.86	3048.61
708.05	3140.97
708.24	2615.46
708.43	2472.51
708.62	2323.01
708.81	2112.07
709.00	1943.32
709.19	1915.67
709.38	2242.73
709.57	1926.73
709.76	1988.99
709.96	1909.53
710.15	2337.76
710.34	2082.58
710.53	2094.05
710.72	1941.47
710.91	2257.48
711.10	2167.57
711.29	2034.86
711.48	1918.33
711.67	1918.33
711.86	2159.38
712.05	1816.55
712.24	1876.55
712.43	2189.28
712.62	2284.51
712.81	1927.34
713.00	2113.91
713.19	1896.01
713.39	2143.81
713.58	1937.58
713.77	2196.04
713.96	2410.66
714.15	2351.89
714.34	2306.22
714.53	2100.40
714.72	2609.93
714.91	2124.15
715.10	2205.46
715.29	2011.31
715.48	2696.15
715.67	2315.64
715.86	2102.85
716.05	2040.19
716.24	2084.42
716.43	2019.91
716.62	1856.48
716.81	1834.98
717.00	2016.84
717.19	2267.10
717.38	1914.03
717.57	1916.08
717.76	1823.10
717.95	2201.77
718.14	1927.55
718.33	1958.68
718.52	1797.91
718.71	1819.01
718.90	1816.96
719.09	1871.64
719.28	2042.23
719.47	2205.66
719.66	2013.15
719.85	2065.99
720.04	2058.00
720.23	2137.06
720.42	1957.24
720.61	2070.29
720.80	1897.44
720.99	2152.62
721.18	1923.66
721.37	1878.60
721.56	2016.43
721.75	2201.16
721.94	1846.04
722.13	1945.57
722.32	2059.64
722.51	2200.75
722.70	1961.34
722.89	2010.49
723.08	2061.89
723.27	2213.65
723.46	2026.87
723.65	1962.77
723.84	1977.52
724.03	2287.17
724.22	1817.57
724.41	1959.29
724.60	2033.02
724.79	2200.13
724.98	1984.28
725.16	1911.57
725.35	2180.06
725.54	1896.01
725.73	1970.56
725.92	2022.98
726.11	2238.02
726.30	2697.58
726.49	2534.16
726.68	2764.35
726.87	3040.62
727.06	3124.59
727.25	2538.87
727.44	2578.39
727.63	2570.00
727.82	2438.52
728.01	2374.41
728.20	2391.62
728.38	2623.65
728.57	2279.39
728.76	2139.92
728.95	2220.61
729.14	1997.59
729.33	1960.32
729.52	1756.54
729.71	1898.67
729.90	1947.21
730.09	2027.08
730.28	1943.52
730.47	1978.34
730.66	2340.01
730.84	2180.27
731.03	2048.38
731.22	2080.74
731.41	2141.97
731.60	2217.34
731.79	1810.61
731.98	1904.20
732.17	2221.23
732.36	2168.80
732.55	1951.71
732.73	1837.44
732.92	2308.68
733.11	2153.64
733.30	1903.59
733.49	1824.54
733.68	2212.42
733.87	2130.30
734.06	1844.81
734.25	1959.09
734.43	2099.99
734.62	2285.33
734.81	2082.37
735.00	2075.41
735.19	2172.49
735.38	2215.90
735.57	1937.58
735.76	2109.61
735.94	2248.46
736.13	2707.82
736.32	2363.77
736.51	2388.34
736.70	2856.30
736.89	2919.79
737.08	2988.60
737.27	4449.21
737.45	6472.81
737.64	7173.42
737.83	8182.86
738.02	8660.86
738.21	8150.10
738.40	6644.84
738.59	5919.24
738.77	5517.43
738.96	5174.19
739.15	4946.25
739.34	4561.24
739.53	4183.80
739.72	4154.10
739.90	3793.04
740.09	3018.71
740.28	2816.57
740.47	2726.26
740.66	2502.41
740.85	2077.46
741.03	2077.25
741.22	2028.72
741.41	2103.26
741.60	1885.97
741.79	2064.76
741.98	2356.39
742.16	2435.85
742.35	2054.11
742.54	2074.18
742.73	2518.39
742.92	2134.19
743.10	1985.51
743.29	2082.58
743.48	2597.85
743.67	2113.30
743.86	1901.13
744.05	1953.97
744.23	2010.49
744.42	2032.40
744.61	2047.97
744.80	1911.57
744.99	2076.03
745.17	1862.42
745.36	1843.99
745.55	2090.77
745.74	2181.50
745.93	2079.30
746.11	1953.97
746.30	1924.27
746.49	2307.86
746.68	2028.31
746.86	2025.24
747.05	2002.91
747.24	2235.15
747.43	2259.52
747.62	1915.87
747.80	2022.16
747.99	2378.10
748.18	2316.87
748.37	2092.41
748.56	2137.87
748.74	2410.66
748.93	2465.34
749.12	3748.81
749.31	7683.98
749.49	10956.02
749.68	13298.89
749.87	15261.05
750.06	15937.70
750.24	15064.86
750.43	14330.87
750.62	15547.77
750.81	16032.32
750.99	16621.72
751.18	16127.14
751.37	13306.68
751.56	11338.37
751.74	11072.75
751.93	9974.43
752.12	8104.02
752.31	6980.71
752.49	6173.19
752.68	5645.23
752.87	4609.77
753.06	4022.62
753.24	3611.39
753.43	3351.50
753.62	2616.48
753.81	2361.72
753.99	2657.65
754.18	2348.61
754.37	2037.73
754.55	2068.04
754.74	2445.89
754.93	1923.45
755.12	1956.63
755.30	1931.03
755.49	2319.53
755.68	2150.98
755.86	2073.16
756.05	1898.88
756.24	2365.40
756.43	1948.64
756.61	1944.14
756.80	2009.47
756.99	2343.08
757.17	2116.78
757.36	1887.41
757.55	1976.49
757.74	2211.60
757.92	2144.02
758.11	1884.34
758.30	1817.37
758.48	2103.47
758.67	1954.79
758.86	2037.52
759.04	1936.76
759.23	2105.11
759.42	2166.14
759.60	1987.35
759.79	2024.21
759.98	2075.00
760.16	1988.78
760.35	1964.62
760.54	1906.45
760.73	2127.84
760.91	1920.38
761.10	1969.94
761.29	2072.75
761.47	2137.06
761.66	2495.25
761.85	2102.04
762.03	2528.01
762.22	4665.07
762.41	11365.82
762.59	18478.62
762.78	22088.16
762.97	26863.41
763.15	28853.83
763.34	25722.28
763.52	18700.21
763.71	17577.51
763.90	15939.34
764.08	14863.34
764.27	13628.62
764.46	12605.04
764.64	11010.08
764.83	9735.22
765.02	8565.83
765.20	7415.90
765.39	6023.69
765.58	4460.48
765.76	3667.91
765.95	3181.93
766.13	2767.62
766.32	2339.19
766.51	2221.23
766.69	3015.63
766.88	2276.73
767.07	1955.40
767.25	1814.91
767.44	2309.90
767.62	2326.70
767.81	1920.99
768.00	1990.42
768.18	2106.13
768.37	2016.23
768.56	1794.23
768.74	1907.07
768.93	1891.09
769.11	2121.70
769.30	1976.49
769.49	1893.96
769.67	2051.45
769.86	1994.31
770.04	1934.92
770.23	1890.68
770.42	2313.80
770.60	2088.52
770.79	1853.21
770.97	2068.24
771.16	3044.92
771.35	4646.23
771.53	5955.29
771.72	6912.30
771.90	8078.01
772.09	8595.12
772.27	7476.72
772.46	5750.08
772.65	5886.68
772.83	5431.62
773.02	5103.54
773.20	4633.53
773.39	4607.52
773.58	4308.31
773.76	3644.77
773.95	3413.76
774.13	3343.10
774.32	2919.58
774.50	2471.08
774.69	2377.69
774.87	2250.92
775.06	2591.91
775.25	1998.41
775.43	1989.40
775.62	2164.50
775.80	2190.30
775.99	2012.13
776.17	1937.17
776.36	2101.42
776.54	2308.47
776.73	1935.74
776.92	2042.44
777.10	2276.52
777.29	2143.40
777.47	1913.01
777.66	1936.15
777.84	2124.56
778.03	2079.30
778.21	1891.30
778.40	2002.71
778.58	2143.81
778.77	2209.76
778.95	1819.62
779.14	1891.09
779.32	2367.04
779.51	2214.06
779.70	1893.14
779.88	1768.42
780.07	2005.99
780.25	2468.42
780.44	1957.24
780.62	2047.56
780.81	2160.40
780.99	2121.90
781.18	1897.44
781.36	1833.55
781.55	2062.30
781.73	2307.04
781.92	1818.39
782.10	1820.85
782.29	2142.58
782.47	2337.35
782.66	1896.21
782.84	1799.14
783.03	1970.76
783.21	2278.98
783.40	1892.12
783.58	1874.10
783.77	1992.26
783.95	2045.92
784.14	1840.30
784.32	1965.44
784.51	2240.89
784.69	1933.28
784.88	1790.13
785.06	1916.49
785.24	1870.21
785.43	2206.07
785.61	1987.96
785.80	1832.32
785.98	2154.05
786.17	2085.86
786.35	1822.08
786.54	2018.27
786.72	2221.43
786.91	2233.92
787.09	1956.22
787.28	1841.94
787.46	2103.88
787.65	2231.67
787.83	1823.92
788.01	1954.99
788.20	1915.26
788.38	2078.07
788.57	1952.74
788.75	1932.05
788.94	2439.54
789.12	2306.83
789.31	2016.84
789.49	2129.68
789.67	2021.55
789.86	2192.56
790.04	1880.85
790.23	1831.09
790.41	2449.37
790.60	2071.32
790.78	1926.73
790.96	1964.00
791.15	2194.40
791.33	2057.59
791.52	1971.17
791.70	1860.17
791.89	2075.62
792.07	2230.44
792.25	2018.68
792.44	1837.64
792.62	2300.69
792.81	2031.79
792.99	1988.37
793.17	1954.38
793.36	2082.99
793.54	2905.04
793.73	3943.57
793.91	5374.89
794.10	6480.39
794.28	7441.09
794.46	7519.94
794.65	7220.32
794.83	5783.05
795.01	5478.11
795.20	5192.01
795.38	4887.48
795.57	4725.89
795.75	4521.30
795.93	4042.49
796.12	3785.67
796.30	3735.90
796.49	3499.98
796.67	2932.90
796.85	2872.28
797.04	2724.82
797.22	2627.34
797.40	2173.10
797.59	2213.44
797.77	2307.86
797.96	2147.30
798.14	2002.91
798.32	2049.40
798.51	2307.04
798.69	2502.62
798.87	2027.90
799.06	2039.16
799.24	2035.27
799.42	2800.19
799.61	3572.68
799.79	4177.24
799.98	5159.86
800.16	5543.03
800.34	6877.69
800.53	8517.50
800.71	9067.59
800.89	10694.70
801.08	10652.92
801.26	10521.44
801.44	8832.89
801.63	7347.91
801.81	7048.90
801.99	6418.54
802.18	6116.87
802.36	5842.45
802.54	5251.61
802.73	4575.57
802.91	4333.09
803.09	3981.25
803.28	3613.03
803.46	3233.33
803.64	3218.18
803.83	2558.73
804.01	2337.14
804.19	2135.62
804.38	2461.25
804.56	2345.54
804.74	2115.35
804.92	2107.36
805.11	2034.66
805.29	2337.35
805.47	1999.64
805.66	1901.74
805.84	1985.51
806.02	2298.23
806.21	1964.21
806.39	2188.05
806.57	2310.52
806.76	2297.21
806.94	2064.97
807.12	2026.26
807.30	2134.19
807.49	2308.68
807.67	2204.43
807.85	2256.04
808.04	2384.04
808.22	2576.75
808.40	1935.94
808.58	1866.31
808.77	2272.63
808.95	2553.82
809.13	2910.98
809.31	5290.11
809.50	7835.94
809.68	9047.93
809.86	10227.76
810.05	11173.92
810.23	13157.79
810.41	20259.94
810.59	34821.41
810.78	43363.90
810.96	50956.53
811.14	54917.51
811.32	53808.33
811.51	42832.65
811.69	34005.70
811.87	33540.61
812.05	29299.47
812.24	27495.41
812.42	25317.19
812.60	22553.67
812.78	19063.11
812.97	16159.29
813.15	14421.18
813.33	12221.05
813.51	10240.66
813.70	8012.06
813.88	6390.48
814.06	5029.61
814.24	3906.91
814.42	3060.07
814.61	2896.24
814.79	2950.92
814.97	2245.80
815.15	2208.32
815.34	2350.04
815.52	2418.86
815.70	1988.37
815.88	2050.02
816.06	2043.26
816.25	2065.79
816.43	1959.29
816.61	2091.18
816.79	2332.23
816.98	1875.94
817.16	1875.73
817.34	1855.66
817.52	2124.56
817.70	2344.92
817.89	1975.47
818.07	1817.37
818.25	2057.59
818.43	2083.19
818.61	1896.62
818.80	1865.90
818.98	2336.12
819.16	2067.83
819.34	1814.50
819.52	2138.08
819.70	1927.55
819.89	2044.28
820.07	1786.65
820.25	1744.25
820.43	2093.84
820.61	2198.70
820.80	1911.16
820.98	1793.41
821.16	1784.80
821.34	1874.30
821.52	1860.17
821.70	2022.57
821.89	2064.56
822.07	2033.84
822.25	1945.16
822.43	1843.58
822.61	2312.98
822.79	2089.34
822.98	1907.68
823.16	1732.58
823.34	2092.00
823.52	2266.69
823.70	1978.54
823.88	1752.24
824.06	2147.50
824.25	2027.28
824.43	2005.99
824.61	1795.66
824.79	2045.51
824.97	2098.96
825.15	2174.12
825.33	2837.46
825.52	3953.40
825.70	4408.66
825.88	4720.98
826.06	5135.69
826.24	5395.99
826.42	4880.51
826.60	3949.10
826.78	4029.17
826.97	3720.95
827.15	3900.77
827.33	3281.67
827.51	3285.15
827.69	3042.05
827.87	3028.54
828.05	2775.41
828.23	2494.43
828.41	2756.57
828.60	2624.47
828.78	2114.32
828.96	2214.26
829.14	2115.14
829.32	2103.67
829.50	1975.88
829.68	1925.71
829.86	2027.69
830.04	2170.85
830.22	1992.06
830.41	1823.92
830.59	2028.31
830.77	2155.69
830.95	1828.63
831.13	1863.04
831.31	1932.46
831.49	2163.88
831.67	2031.99
831.85	2017.04
832.03	1993.70
832.21	2151.80
832.39	1780.50
832.57	1816.55
832.76	2209.35
832.94	1995.75
833.12	1749.99
833.30	1882.08
833.48	2228.60
833.66	2086.47
833.84	1872.05
834.02	1887.00
834.20	2197.06
834.38	2175.15
834.56	1742.00
834.74	1808.97
834.92	1838.87
835.10	2309.08
835.28	1906.04
835.46	1936.56
835.64	1998.20
835.82	1935.74
836.01	2170.64
836.19	2082.78
836.37	1975.47
836.55	1908.50
836.73	1831.91
836.91	1803.85
837.09	2179.45
837.27	2287.58
837.45	1757.77
837.63	1807.33
837.81	1877.17
837.99	2051.86
838.17	1954.79
838.35	1866.31
838.53	2426.43
838.71	2192.15
838.89	1889.25
839.07	1888.02
839.25	2103.26
839.43	2331.41
839.61	2482.14
839.79	4114.37
839.97	5975.15
840.15	6929.30
840.33	7668.62
840.51	8226.49
840.69	8030.09
840.87	6520.32
841.05	5828.52
841.23	6363.24
841.41	8319.67
841.59	11779.10
841.77	13287.43
841.95	14671.03
842.13	15710.38
842.31	14876.04
842.49	11875.56
842.67	9921.79
842.85	9872.44
843.03	8521.39
843.21	8007.97
843.39	7451.12
843.57	6716.93
843.75	6086.77
843.93	5135.69
844.11	4585.81
844.29	4294.39
844.47	3918.99
844.65	3679.38
844.83	3206.71
845.01	2941.70
845.19	2863.88
845.36	2349.43
845.54	2283.89
845.72	2262.19
845.90	2247.65
846.08	1930.62
846.26	1996.97
846.44	2176.38
846.62	2161.84
846.80	2018.48
846.98	1866.72
847.16	2022.78
847.34	2081.35
847.52	1837.23
847.70	1792.79
847.88	2024.21
848.06	2260.75
848.24	2010.29
848.41	1794.02
848.59	2238.43
848.77	2112.48
848.95	1881.26
849.13	1848.91
849.31	2187.85
849.49	2084.22
849.67	1818.19
849.85	1794.43
850.03	2096.51
850.21	2114.32
850.39	1821.87
850.57	2017.04
850.74	2295.36
850.92	2437.08
851.10	2696.97
851.28	3405.57
851.46	4043.30
851.64	4734.70
851.82	4443.27
852.00	4489.35
852.18	4307.08
852.36	3734.06
852.53	3450.62
852.71	3294.77
852.89	3344.13
853.07	3238.86
853.25	2832.75
853.43	2670.35
853.61	2780.73
853.79	2688.78
853.97	2316.66
854.14	2278.98
854.32	2574.71
854.50	2418.65
854.68	2084.22
854.86	2036.70
855.04	1994.93
855.22	2245.19
855.40	1791.56
855.57	1866.72
855.75	2154.67
855.93	2117.80
856.11	1753.47
856.29	1823.51
856.47	1911.16
856.65	2058.82
856.82	1792.18
857.00	1763.10
857.18	2009.47
857.36	1928.16
857.54	1934.92
857.72	2038.14
857.89	2142.38
858.07	2050.63
858.25	2053.09
858.43	1767.19
858.61	1981.41
858.79	2014.59
858.97	1807.74
859.14	1948.23
859.32	1982.64
859.50	1939.43
859.68	1941.47
859.86	1832.32
860.03	2062.51
860.21	2120.47
860.39	1850.95
860.57	2006.60
860.75	2084.83
860.93	2353.32
861.10	2084.83
861.28	1825.35
861.46	2113.71
861.64	2094.05
861.82	1868.36
861.99	1988.37
862.17	2183.54
862.35	2176.99
862.53	1895.80
862.71	1913.42
862.88	2086.06
863.06	2126.41
863.24	1905.43
863.42	1823.10
863.60	2009.06
863.77	2110.23
863.95	1713.95
864.13	1853.00
864.31	1985.10
864.49	2136.03
864.66	1771.29
864.84	1822.90
865.02	2092.61
865.20	2456.74
865.37	1936.35
865.55	1857.51
865.73	1942.29
865.91	2323.01
866.09	2321.58
866.26	2280.00
866.44	2570.82
866.62	2411.89
866.80	2188.87
866.97	2149.34
867.15	2256.66
867.33	2281.03
867.51	2139.51
867.68	2068.45
867.86	2110.84
868.04	2033.63
868.22	1788.08
868.39	1944.34
868.57	2156.92
868.75	2328.54
868.93	1798.73
869.10	1881.88
869.28	2392.64
869.46	2310.93
869.64	1915.47
869.81	1862.01
869.99	2090.16
870.17	2041.42
870.35	1796.07
870.52	1842.97
870.70	2190.71
870.88	1923.45
871.05	1780.50
871.23	1668.89
871.41	1992.88
871.59	2015.82
871.76	1840.71
871.94	1772.11
872.12	1991.65
872.29	1804.87
872.47	1827.61
872.65	1770.26
872.83	2044.90
873.00	2248.06
873.18	1856.69
873.36	1807.13
873.53	2134.60
873.71	1817.57
873.89	1742.00
874.06	1844.81
874.24	2084.22
874.42	2230.03
874.60	1998.20
874.77	1944.34
874.95	1899.29
875.13	2184.98
875.30	1823.51
875.48	1815.52
875.66	2285.12
875.83	1901.74
876.01	1808.97
876.19	1947.82
876.36	1828.43
876.54	2027.49
876.72	1779.28
876.89	1928.57
877.07	2113.71
877.25	1757.36
877.42	1857.92
877.60	1852.18
877.78	2320.14
877.95	1967.07
878.13	1771.08
878.31	1975.27
878.48	2177.40
878.66	2117.39
878.84	1832.11
879.01	1857.92
879.19	2068.04
879.37	2111.66
879.54	1857.71
879.72	1719.68
879.90	1720.50
880.07	2138.28
880.25	1602.74
880.42	1982.84
880.60	2028.51
880.78	2099.17
880.95	1846.04
881.13	1907.48
881.31	2018.07
881.48	1939.22
881.66	1832.52
881.83	1922.22
882.01	1914.85
882.19	1810.81
882.36	1880.85
882.54	1821.05
882.72	2110.02
882.89	2043.26
883.07	1802.83
883.24	1835.59
883.42	2172.28
883.60	2020.94
883.77	1756.54
883.95	1848.29
884.12	2146.48
884.30	2046.94
884.48	1995.54
884.65	1871.64
884.83	2063.53
885.00	2069.06
885.18	1741.39
885.36	1846.86
885.53	2124.77
885.71	2207.71
885.88	1769.65
886.06	1836.41
886.23	2112.68
886.41	1952.74
886.59	1824.33
886.76	1769.85
886.94	2103.26
887.11	2483.16
887.29	1870.41
887.47	1754.49
887.64	2238.23
887.82	2231.26
887.99	1698.79
888.17	1865.09
888.34	1960.93
888.52	1847.06
888.69	1831.91
888.87	1757.98
889.05	1970.76
889.22	1959.91
889.40	1836.82
889.57	2058.62
889.75	2223.27
889.92	1991.24
890.10	1748.15
890.27	1879.42
890.45	1908.09
890.62	1756.54
890.80	1757.98
890.98	1692.03
891.15	2271.20
891.33	2188.05
891.50	1799.14
891.68	1698.38
891.85	2145.04
892.03	2127.63
892.20	1778.46
892.38	1739.54
892.55	2125.18
892.73	2118.01
892.90	1739.34
893.08	1803.44
893.25	1899.29
893.43	1962.98
893.60	1907.07
893.78	1676.88
893.95	2073.77
894.13	1984.89
894.30	1783.17
894.48	1838.87
894.65	2128.86
894.83	2017.04
895.00	1679.54
895.18	1686.09
895.35	2151.39
895.53	2174.53
895.70	1727.05
895.88	1947.00
896.05	2096.10
896.23	1808.36
896.40	1818.80
896.58	1887.00
896.75	2138.69
896.93	2222.25
897.10	1842.35
897.28	1721.32
897.45	2018.27
897.63	2104.70
897.80	1932.87
897.98	1797.50
898.15	2049.81
898.33	1932.87
898.50	1831.29
898.67	1845.42
898.85	1959.29
899.02	2084.63
899.20	2038.55
899.37	1836.82
899.55	2034.66
899.72	2221.02
899.90	1804.06
900.07	1787.47
900.25	2123.33
900.42	2193.37
900.59	1812.25
900.77	1923.25
900.94	2103.67
901.12	2046.74
901.29	1822.69
901.47	1980.80
901.64	2113.50
901.82	2024.42
901.99	1628.34
902.16	1791.77
902.34	2195.22
902.51	2045.92
902.69	1803.65
902.86	1886.59
903.03	2607.27
903.21	1987.55
903.38	1823.72
903.56	1781.32
903.73	2178.01
903.91	1958.68
904.08	1776.82
904.25	1659.26
904.43	1901.74
904.60	2152.21
904.78	1825.56
904.95	1751.63
905.12	1945.57
905.30	2323.63
905.47	1899.08
905.65	1969.74
905.82	2002.09
905.99	2080.12
906.17	1823.72
906.34	1807.54
906.52	1889.25
906.69	2107.56
906.86	1936.15
907.04	1928.98
907.21	2173.51
907.38	2177.61
907.56	1785.62
907.73	1769.04
907.91	2268.74
908.08	2190.92
908.25	1827.81
908.43	1757.77
908.60	2115.55
908.77	2079.71
908.95	1852.39
909.12	1760.23
909.30	2135.62
909.47	1801.60
909.64	1889.87
909.82	2002.71
909.99	1995.95
910.16	2039.78
910.34	1789.31
910.51	1824.33
910.68	2075.82
910.86	2030.97
911.03	1917.10
911.20	2581.46
911.38	4608.34
911.55	7151.92
911.72	8322.33
911.90	9177.97
912.07	10151.17
912.24	9797.48
912.42	7453.17
912.59	5411.96
912.76	5231.13
912.94	4398.22
913.11	3874.14
913.28	3420.52
913.46	3321.40
913.63	3328.97
913.80	3319.76
913.98	2882.31
914.15	3121.51
914.32	3107.38
914.49	2730.97
914.67	2531.29
914.84	2790.15
915.01	2842.17
915.19	2607.68
915.36	2403.29
915.53	2593.14
915.71	2399.20
915.88	2129.68
916.05	1967.69
916.22	2295.98
916.40	2122.92
916.57	1786.65
916.74	1996.97
916.92	2302.33
917.09	1954.58
917.26	1786.65
917.43	1727.67
917.61	1967.28
917.78	1763.30
917.95	1777.02
918.13	1737.09
918.30	2383.43
918.47	2073.98
918.64	1815.73
918.82	1773.34
918.99	2033.43
919.16	2311.13
919.33	1880.85
919.51	1832.32
919.68	2029.74
919.85	2199.93
920.02	1737.29
920.20	1849.93
920.37	2277.75
920.54	2154.26
920.71	1763.10
920.89	1817.16
921.06	2309.70
921.23	1937.17
921.40	1915.87
921.58	2431.14
921.75	3479.91
921.92	2992.08
922.09	3117.01
922.27	3136.87
922.44	3146.91
922.61	2821.69
922.78	2262.19
922.96	2216.11
923.13	2314.20
923.30	2438.11
923.47	1975.06
923.64	2008.65
923.82	2277.96
923.99	2250.31
924.16	2048.38
924.33	1897.03
924.50	2164.70
924.68	2377.08
924.85	1882.29
925.02	1945.78
925.19	2266.08
925.36	2144.43
925.54	1955.40
925.71	1937.99
925.88	2558.12
926.05	2001.68
926.22	1788.08
926.40	1944.75
926.57	2063.74
926.74	2113.91
926.91	1790.54
927.08	1992.26
927.26	2195.01
927.43	2039.37
927.60	1797.09
927.77	1831.09
927.94	2293.93
928.11	2190.30
928.29	1698.18
928.46	1875.12
928.63	1901.33
928.80	1961.75
928.97	1931.44
929.14	1794.64
929.32	2382.81
929.49	2026.47
929.66	1775.38
929.83	1731.76
930.00	1918.13
930.17	2079.71
930.35	1735.04
930.52	1794.23
930.69	2244.57
930.86	1848.09
931.03	1852.80
931.20	1618.30
931.37	2187.64
931.55	1990.63
931.72	1869.39
931.89	1735.45
932.06	1848.70
932.23	2296.39
932.40	1915.47
932.57	1924.07
932.74	2199.11
932.92	2211.40
933.09	1961.75
933.26	1587.59
933.43	1937.58
933.60	2037.93
933.77	1839.08
933.94	1900.11
934.11	1967.48
934.29	2033.43
934.46	1739.14
934.63	1910.35
934.80	1863.04
934.97	2046.54
935.14	1894.78
935.31	1720.50
935.48	1925.91
935.65	2064.56
935.82	1890.89
936.00	1753.06
936.17	2254.81
936.34	2002.30
936.51	1918.33
936.68	1734.42
936.85	2041.21
937.02	2029.33
937.19	1909.12
937.36	1836.62
937.53	2078.89
937.70	2141.77
937.87	1801.60
938.05	1934.31
938.22	2028.51
938.39	1814.71
938.56	1833.75
938.73	1729.92
938.90	1989.40
939.07	1900.52
939.24	1899.70
939.41	1654.55
939.58	2068.24
939.75	2084.83
939.92	1772.11
940.09	2057.59
940.26	1952.94
940.43	2171.05
940.60	1852.18
940.77	1815.32
940.95	2058.21
941.12	2139.51
941.29	1819.42
941.46	1844.20
941.63	2203.20
941.80	2243.75
941.97	1716.40
942.14	1689.78
942.31	2132.14
942.48	1970.76
942.65	1934.10
942.82	1831.09
942.99	2111.25
943.16	2028.92
943.33	1736.06
943.50	1792.38
943.67	2135.01
943.84	2192.96
944.01	1821.46
944.18	1758.80
944.35	2239.86
944.52	1871.02
944.69	1882.29
944.86	1702.27
945.03	2139.31
945.20	2398.58
945.37	1656.60
945.54	1824.94
945.71	2211.81
945.88	2311.34
946.05	1753.27
946.22	1740.57
946.39	2221.43
946.56	1980.39
946.73	1678.11
946.90	1729.10
947.07	1949.67
947.24	1993.08
947.41	1664.18
947.58	1892.12
947.75	2106.95
947.92	2073.77
948.09	1603.76
948.26	1687.53
948.43	2035.07
948.60	2317.28
948.77	1748.35
948.94	1785.42
949.11	2122.51
949.27	2052.47
949.44	1772.93
949.61	1740.57
949.78	2078.48
949.95	2208.32
950.12	1697.77
950.29	1676.06
950.46	1929.80
950.63	2132.96
950.80	1754.09
950.97	1818.19
951.14	2182.11
951.31	1945.78
951.48	1756.75
951.65	1703.09
951.82	2308.47
951.99	2055.14
952.15	1695.10
952.32	1793.00
952.49	1897.44
952.66	1916.69
952.83	1752.45
953.00	1727.05
953.17	1987.76
953.34	2140.33
953.51	1851.98
953.68	1849.52
953.85	2185.80
954.02	2196.65
954.18	1844.40
954.35	1769.04
954.52	1873.07
954.69	2033.43
954.86	1645.34
955.03	1846.24
955.20	2128.25
955.37	1996.77
955.54	1779.28
955.71	1767.40
955.87	2070.91
956.04	2284.92
956.21	1824.13
956.38	1738.32
956.55	2010.90
956.72	2429.71
956.89	1843.17
957.06	1760.43
957.23	1927.34
957.39	2217.95
957.56	1806.92
957.73	1716.20
957.90	1670.94
958.07	2294.54
958.24	1828.02
958.41	1813.27
958.57	2114.94
958.74	2019.91
958.91	1740.36
959.08	1731.35
959.25	2122.31
959.42	1988.78
959.59	1847.88
959.75	1823.72
959.92	2212.01
960.09	2197.06
960.26	1758.18
960.43	1851.16
960.60	2052.88
960.76	2003.53
960.93	1704.11
961.10	1847.47
961.27	2168.39
961.44	1960.73
961.61	1700.22
961.77	1706.78
961.94	2045.10
962.11	2131.32
962.28	1761.87
962.45	1698.38
962.62	1994.93
962.78	2155.28
962.95	1661.52
963.12	1762.07
963.29	2132.55
963.46	2466.57
963.62	1875.53
963.79	1768.01
963.96	2444.05
964.13	1977.93
964.30	1879.63
964.46	1790.95
964.63	1906.04
964.80	2553.82
964.97	1855.46
965.14	2285.74
965.30	2526.99
965.47	2630.82
965.64	2438.31
965.81	2351.27
965.98	2614.85
966.14	2324.03
966.31	2010.29
966.48	1991.85
966.65	2392.23
966.81	2233.31
966.98	1937.58
967.15	1949.26
967.32	2141.77
967.49	1990.63
967.65	1768.42
967.82	1732.99
967.99	2106.75
968.16	1865.09
968.32	2033.63
968.49	1850.75
968.66	2050.02
968.83	2330.38
968.99	1950.69
969.16	1794.43
969.33	2273.04
969.50	2144.63
969.66	1940.86
969.83	2092.41
970.00	2148.93
970.17	2098.96
970.33	1817.37
970.50	1716.40
970.67	2259.52
970.84	2251.13
971.00	1752.04
971.17	1680.36
971.34	2146.89
971.50	2030.36
971.67	1883.93
971.84	1827.81
972.01	1823.92
972.17	1685.27
972.34	1687.32
972.51	1932.05
972.67	2196.45
972.84	2054.93
973.01	1725.82
973.18	1777.84
973.34	2142.79
973.51	1881.88
973.68	1827.81
973.84	1838.26
974.01	1974.04
974.18	2269.76
974.34	1859.15
974.51	1872.46
974.68	1877.58
974.85	2340.21
975.01	1893.76
975.18	1779.68
975.35	1995.95
975.51	1922.22
975.68	1676.67
975.85	1965.03
976.01	1910.14
976.18	2247.85
976.35	1784.80
976.51	1817.37
976.68	2282.46
976.85	2209.96
977.01	1824.94
977.18	1862.83
977.35	2121.08
977.51	1827.81
977.68	1648.82
977.85	1727.46
978.01	2218.56
978.18	2133.16
978.35	1864.06
978.51	1899.70
978.68	2212.22
978.85	2297.62
979.01	1847.88
979.18	1845.63
979.34	1991.44
979.51	2056.57
979.68	1784.80
979.84	1875.53
980.01	2480.91
980.18	2049.40
980.34	1761.05
980.51	1884.54
980.67	2149.96
980.84	2140.95
981.01	1790.33
981.17	1866.11
981.34	1757.77
981.51	2147.09
981.67	1730.33
981.84	1883.11
982.00	2097.53
982.17	1991.24
982.34	1637.15
982.50	1548.06
982.67	2270.79
982.83	1918.13
983.00	1688.14
983.17	1547.65
983.33	2188.25
983.50	1775.59
983.66	1681.18
983.83	1589.84
984.00	1934.31
984.16	2025.03
984.33	1580.62
984.49	1555.02
984.66	1869.39
984.83	2153.44
984.99	1631.82
985.16	1574.07
985.32	2087.29
985.49	2120.26
985.65	1724.80
985.82	1569.97
985.99	2246.01
986.15	2032.61
986.32	1688.35
986.48	1626.70
986.65	1974.24
986.81	2127.63
986.98	1587.38
987.14	1657.42
987.31	2041.21
987.48	1779.89
987.64	1518.16
987.81	1555.84
987.97	2367.66
988.14	1883.93
988.30	1601.31
988.47	1480.07
988.63	2057.39
988.80	1839.28
988.96	1669.09
989.13	1697.77
989.30	1950.69
989.46	2126.41
989.63	1560.76
989.79	1573.45
989.96	1981.20
990.12	2242.73
990.29	1608.68
990.45	1660.90
990.62	1994.11
990.78	2195.83
990.95	1715.79
991.11	1640.22
991.28	1919.36
991.44	2054.73
991.61	1522.66
991.77	1674.21
991.94	2033.63
992.10	2199.93
992.27	1678.52
992.43	1655.58
992.60	2053.50
992.76	1922.43
992.93	1830.68
993.09	1554.82
993.26	2143.61
993.42	2311.13
993.59	1628.54
993.75	1540.07
993.92	1874.92
994.08	1873.48
994.25	1689.78
994.41	1578.37
994.58	2129.48
994.74	2231.67
994.91	1580.01
995.07	1733.40
995.24	1978.75
995.40	1989.19
995.56	1739.95
995.73	1697.56
995.89	2294.54
996.06	1984.28
996.22	1598.85
996.39	1555.84
996.55	1962.57
996.72	2073.77
996.88	1554.82
997.05	1576.94
997.21	2346.36
997.37	2103.88
997.54	1687.73
997.70	1630.80
997.87	2066.81
998.03	1985.71
998.20	1540.28
998.36	1523.69
998.52	2116.99
998.69	2158.15
998.85	1554.82
999.02	1659.06
999.18	2163.06
999.35	2162.86
999.51	1674.42
999.67	1613.59
999.84	1814.91
1000.00	2133.37
1000.17	1697.77
1000.33	1574.27
1000.49	1910.35
1000.66	1979.57
1000.82	1590.45
1000.99	1675.44
1001.15	2212.22
1001.31	1966.66
1001.48	1631.62
1001.64	1701.04
1001.81	1946.39
1001.97	2351.07
1002.13	1632.44
1002.30	1653.12
1002.46	2252.56
1002.63	1968.92
1002.79	1722.75
1002.95	1600.49
1003.12	2163.47
1003.28	2051.45
1003.45	1615.03
1003.61	1554.41
1003.77	2045.31
1003.94	1794.02
1004.10	1628.54
1004.26	1699.61
1004.43	2081.76
1004.59	2302.74
1004.75	1622.81
1004.92	1594.14
1005.08	1923.04
1005.25	2047.35
1005.41	1637.56
1005.57	1679.74
1005.74	2186.41
1005.90	1935.13
1006.06	1736.68
1006.23	1623.22
1006.39	2111.46
1006.55	2445.89
1006.72	1746.30
1006.88	1541.92
1007.04	1876.96
1007.21	1967.69
1007.37	1675.65
1007.53	1602.95
1007.70	2262.80
1007.86	2121.29
1008.02	1693.47
1008.19	1576.32
1008.35	2042.23
1008.51	1852.18
1008.68	1638.38
1008.84	1557.48
1009.00	1859.15
1009.17	2179.86
1009.33	1775.79
1009.49	1712.92
1009.65	1862.01
1009.82	2077.46
1009.98	1687.53
1010.14	1507.92
1010.31	2140.74
1010.47	2076.64
1010.63	1694.08
1010.80	1692.44
1010.96	2111.05
1011.12	1992.26
1011.28	1655.99
1011.45	1588.40
1011.61	2452.24
1011.77	1880.04
1011.94	1585.33
1012.10	1563.62
1012.26	1849.52
1012.42	1898.88
1012.59	1673.19
1012.75	1675.03
1012.91	1986.73
1013.07	2160.40
1013.24	1576.12
1013.40	1607.66
1013.56	2010.29
1013.72	1990.63
1013.89	1683.64
1014.05	1708.62
1014.21	2309.08
1014.37	2406.77
1014.54	1686.91
1014.70	1586.56
1014.86	1940.86
1015.02	1833.55
1015.19	1625.06
1015.35	1573.25
1015.51	1986.53
1015.67	1901.95
1015.84	1624.86
1016.00	1641.65
1016.16	2169.41
1016.32	2142.18
1016.49	1608.47
1016.65	1559.73
1016.81	1996.36
1016.97	2084.42
1017.14	1737.70
1017.30	1639.40
1017.46	1944.34
1017.62	2033.63
1017.78	1700.22
1017.95	1584.31
1018.11	2145.25
1018.27	2401.04
1018.43	1776.41
1018.59	1691.83
1018.76	2143.81
1018.92	2449.17
1019.08	1593.93
1019.24	1653.53
1019.40	2250.72
1019.57	2031.79
1019.73	1725.21
1019.89	1641.86
1020.05	2037.73
1020.21	2341.85
1020.38	1607.04
1020.54	1778.46
1020.70	2113.30
1020.86	2088.93
1021.02	1618.30
1021.18	1599.05
1021.35	1915.67
1021.51	2082.37
1021.67	1793.82
1021.83	1664.59
1021.99	1981.20
1022.15	2071.73
1022.32	1701.86
1022.48	1678.31
1022.64	2248.87
1022.80	2247.24
1022.96	1694.90
1023.12	1556.25
1023.29	2149.14
1023.45	2058.00
1023.61	1602.13
1023.77	1839.49
1023.93	2032.81
1024.09	1853.62
1024.25	1606.22
1024.42	1563.62
1024.58	1941.47
1024.74	2028.10
1024.90	1618.30
1025.06	1730.94
1025.22	1935.94
1025.38	2271.20
1025.54	1574.48
1025.71	1712.51
1025.87	2099.99
1026.03	2055.75
1026.19	1586.97
1026.35	1789.72
1026.51	2097.12
1026.67	1998.61
1026.83	1690.80
1026.99	1767.60
1027.16	2095.07
1027.32	2193.58
1027.48	1649.84
1027.64	1594.75
1027.80	2124.36
1027.96	2033.43
1028.12	1633.05
1028.28	1615.85
1028.44	2036.91
1028.60	2252.56
1028.77	1772.52
1028.93	1693.06
1029.09	1917.10
1029.25	1859.35
1029.41	1673.19
1029.57	1734.42
1029.73	2062.10
1029.89	2261.57
1030.05	1736.68
1030.21	1725.00
1030.37	2368.27
1030.53	2116.78
1030.69	1690.39
1030.85	1565.47
1031.02	1864.88
1031.18	1987.14
1031.34	1630.39
1031.50	1739.95
1031.66	1864.27
1031.82	2250.92
1031.98	1719.88
1032.14	1574.89
1032.30	1854.64
1032.46	2120.67
1032.62	1778.05
1032.78	1569.56
1032.94	1922.22
1033.10	1937.99
1033.26	1702.89
1033.42	1771.49
1033.58	2347.38
1033.74	1929.19
1033.90	1636.53
1034.06	1824.94
1034.22	2372.98
1034.38	2175.76
1034.54	1672.78
1034.70	1668.48
1034.86	2320.55
>>>>>End Processed Spectral Data<<<<<
