SpectraSuite Data File
++++++++++++++++++++++++++++++++++++
Date: Thu Mar 30 14:37:47 PDT 2017
User: UCSD _CER
Dark Spectrum Present: No
Reference Spectrum Present: No
Number of Sampled Component Spectra: 1
Spectrometers: USB4C00073
Integration Time (usec): 380000 (USB4C00073)
Spectra Averaged: 10 (USB4C00073)
Boxcar Smoothing: 0 (USB4C00073)
Correct for Electrical Dark: No (USB4C00073)
Strobe/Lamp Enabled: No (USB4C00073)
Correct for Detector Non-linearity: No (USB4C00073)
Correct for Stray Light: No (USB4C00073)
Number of Pixels in Processed Spectrum: 3648
>>>>>Begin Processed Spectral Data<<<<<
345.37	1253.36
345.58	1253.36
345.80	1253.36
346.01	1242.50
346.22	1258.27
346.43	2064.76
346.65	1926.52
346.86	2494.02
347.07	2432.58
347.28	1842.56
347.50	1843.17
347.71	2169.41
347.92	1911.57
348.13	1826.99
348.35	1822.08
348.56	2184.77
348.77	1958.47
348.98	1842.56
349.20	1714.35
349.41	2208.94
349.62	2321.99
349.83	1951.51
350.05	1843.99
350.26	2248.26
350.47	2403.70
350.68	1882.29
350.90	1780.09
351.11	2475.18
351.32	2417.01
351.53	1927.34
351.75	1817.98
351.96	2227.78
352.17	2172.28
352.38	1952.12
352.60	1959.91
352.81	2235.36
353.02	2533.95
353.23	1855.05
353.44	1890.28
353.66	2102.24
353.87	2134.19
354.08	1935.13
354.29	1866.31
354.51	2079.51
354.72	2164.50
354.93	1844.20
355.14	1846.24
355.35	1922.02
355.57	2334.68
355.78	1891.91
355.99	1960.11
356.20	2238.63
356.42	2152.82
356.63	1966.46
356.84	1886.79
357.05	2372.37
357.26	2635.53
357.48	2006.39
357.69	1960.52
357.90	2327.72
358.11	2131.12
358.32	1896.01
358.54	1939.02
358.75	2118.01
358.96	2310.93
359.17	1880.04
359.38	1930.01
359.60	2304.37
359.81	2138.08
360.02	1891.71
360.23	1829.66
360.44	2075.21
360.66	2365.81
360.87	1839.90
361.08	1825.15
361.29	2292.29
361.50	2214.26
361.72	1848.50
361.93	1965.85
362.14	2194.19
362.35	1910.96
362.56	2038.75
362.77	1759.00
362.99	2275.50
363.20	2182.11
363.41	1933.90
363.62	1742.21
363.83	2263.01
364.05	2315.64
364.26	1824.74
364.47	1844.20
364.68	2378.51
364.89	2047.76
365.10	1787.06
365.32	1900.31
365.53	2026.47
365.74	2099.78
365.95	1837.03
366.16	1750.19
366.37	2143.61
366.59	2109.61
366.80	1883.72
367.01	1774.36
367.22	2537.43
367.43	2656.22
367.64	1956.42
367.86	1879.01
368.07	2281.85
368.28	2411.48
368.49	1763.30
368.70	1908.91
368.91	2100.40
369.12	2160.81
369.34	1783.99
369.55	1748.15
369.76	2189.07
369.97	2096.10
370.18	1766.78
370.39	1854.03
370.60	1947.82
370.82	1999.84
371.03	1886.79
371.24	1825.56
371.45	2308.68
371.66	2289.83
371.87	1886.59
372.08	1878.19
372.30	2045.10
372.51	2354.14
372.72	2037.32
372.93	1875.73
373.14	2470.87
373.35	2069.27
373.56	1806.72
373.78	1880.65
373.99	2340.62
374.20	2724.82
374.41	1860.58
374.62	1851.57
374.83	2439.13
375.04	2090.36
375.25	1922.63
375.47	1897.24
375.68	2111.66
375.89	2340.01
376.10	1924.68
376.31	1961.54
376.52	2267.51
376.73	2251.54
376.94	1950.28
377.15	1825.15
377.37	2182.73
377.58	2158.15
377.79	1799.75
378.00	1848.29
378.21	2240.48
378.42	2306.01
378.63	1933.69
378.84	1975.27
379.05	2385.68
379.27	2226.55
379.48	1987.14
379.69	1881.67
379.90	2424.18
380.11	1875.53
380.32	1907.27
380.53	2030.77
380.74	2485.21
380.95	2227.37
381.16	1938.20
381.37	1938.40
381.59	2444.25
381.80	2342.06
382.01	1850.75
382.22	1812.86
382.43	2275.70
382.64	2181.09
382.85	1846.45
383.06	1964.41
383.27	2299.87
383.48	2178.42
383.69	1927.14
383.91	1858.74
384.12	2354.75
384.33	2359.67
384.54	1973.63
384.75	1880.24
384.96	2804.90
385.17	2445.48
385.38	1953.97
385.59	1899.70
385.80	2355.78
386.01	2504.46
386.22	2050.63
386.43	1933.69
386.64	2636.76
386.86	2206.28
387.07	2050.02
387.28	1839.28
387.49	2144.22
387.70	2462.68
387.91	2081.15
388.12	1937.17
388.33	2290.86
388.54	2149.14
388.75	1873.48
388.96	1975.88
389.17	2098.96
389.38	2167.77
389.59	1946.18
389.80	1978.34
390.01	2180.88
390.22	2136.44
390.43	2017.04
390.64	1790.33
390.86	2284.92
391.07	2407.80
391.28	1898.26
391.49	1954.17
391.70	1978.54
391.91	2065.17
392.12	1868.57
392.33	1985.51
392.54	2239.86
392.75	2180.27
392.96	1987.76
393.17	1878.19
393.38	2617.51
393.59	2413.94
393.80	1827.81
394.01	1952.33
394.22	2221.64
394.43	2578.80
394.64	1859.56
394.85	2018.68
395.06	2181.70
395.27	2243.14
395.48	1902.77
395.69	1780.71
395.90	2151.19
396.11	2188.25
396.32	1882.29
396.53	1980.59
396.74	2158.15
396.95	2393.46
397.16	1851.36
397.37	1795.86
397.58	2342.26
397.79	2185.18
398.00	1925.71
398.21	1910.75
398.42	2251.13
398.63	2562.42
398.84	1865.09
399.05	1848.29
399.26	2414.35
399.47	2238.63
399.68	1773.95
399.89	1825.56
400.10	1989.81
400.31	2130.71
400.52	1986.73
400.73	1918.54
400.94	2007.01
401.15	2325.47
401.36	1956.01
401.57	1989.60
401.78	2446.50
401.99	2381.58
402.20	1854.64
402.41	2050.63
402.62	2470.46
402.83	2194.40
403.04	1849.11
403.25	2102.65
403.46	2300.48
403.67	2507.33
403.88	1998.61
404.09	1953.15
404.30	2173.71
404.51	2132.35
404.72	1880.65
404.93	2101.01
405.14	2057.80
405.35	2194.60
405.56	1919.77
405.77	1843.38
405.98	2205.25
406.19	2167.16
406.40	1871.02
406.61	1936.56
406.82	2152.82
407.03	2710.08
407.24	1923.86
407.45	1983.05
407.66	2326.08
407.87	2426.23
408.08	1969.53
408.29	1987.76
408.49	2320.14
408.70	2163.27
408.91	1868.57
409.12	2046.13
409.33	2026.87
409.54	2456.33
409.75	1836.41
409.96	1949.26
410.17	2360.08
410.38	2181.09
410.59	1900.52
410.80	1998.82
411.01	2196.04
411.22	2155.90
411.43	1954.79
411.64	1875.94
411.85	2039.16
412.06	2035.89
412.27	1703.71
412.47	1870.00
412.68	2194.19
412.89	2261.57
413.10	1891.50
413.31	1822.08
413.52	2548.49
413.73	2545.01
413.94	1874.51
414.15	2057.80
414.36	2096.51
414.57	2020.94
414.78	1873.69
414.99	2075.00
415.19	2661.34
415.40	2717.04
415.61	2641.27
415.82	2488.28
416.03	2705.98
416.24	2574.09
416.45	2124.36
416.66	1904.82
416.87	2001.48
417.08	2300.89
417.29	1882.90
417.50	2019.09
417.70	2394.49
417.91	2346.15
418.12	2116.58
418.33	2116.17
418.54	2468.21
418.75	2669.73
418.96	2489.72
419.17	2693.90
419.38	3360.51
419.59	3305.22
419.79	2968.53
420.00	2775.00
420.21	3299.48
420.42	2573.27
420.63	2103.06
420.84	2063.33
421.05	2256.04
421.26	2243.96
421.47	1815.73
421.67	2278.16
421.88	2076.44
422.09	2035.07
422.30	2181.29
422.51	1980.39
422.72	2590.68
422.93	2371.14
423.14	1998.20
423.35	1841.12
423.55	1934.92
423.76	2067.01
423.97	1909.12
424.18	1801.60
424.39	2181.70
424.60	2389.16
424.81	1992.06
425.02	2211.81
425.22	2460.02
425.43	2476.81
425.64	2557.91
425.85	2516.75
426.06	3077.07
426.27	2826.20
426.48	2508.15
426.68	2497.50
426.89	2762.10
427.10	2845.45
427.31	2257.89
427.52	2033.02
427.73	2451.42
427.94	2375.03
428.14	2146.07
428.35	2017.86
428.56	2480.70
428.77	2401.86
428.98	1973.01
429.19	2063.53
429.40	2295.77
429.60	2356.60
429.81	2260.75
430.02	2184.98
430.23	2285.94
430.44	2398.79
430.65	1941.47
430.85	1954.99
431.06	2303.35
431.27	1933.69
431.48	1918.13
431.69	1942.91
431.90	2210.78
432.10	2248.46
432.31	2099.99
432.52	2160.81
432.73	2980.20
432.94	2908.93
433.15	2480.70
433.35	2264.64
433.56	2716.63
433.77	2517.36
433.98	2924.70
434.19	3163.50
434.40	3620.81
434.60	3583.13
434.81	3377.71
435.02	2818.00
435.23	2774.18
435.44	2573.89
435.64	2117.80
435.85	2001.68
436.06	2193.58
436.27	2200.13
436.48	1952.12
436.68	2068.24
436.89	2755.13
437.10	2572.45
437.31	2190.30
437.52	2279.59
437.73	2469.03
437.93	2398.58
438.14	2123.74
438.35	1885.36
438.56	2176.38
438.77	2179.24
438.97	2100.60
439.18	2062.51
439.39	2694.92
439.60	2333.25
439.80	2280.82
440.01	2281.03
440.22	2381.17
440.43	2457.77
440.64	2004.14
440.84	2063.74
441.05	2073.36
441.26	2711.51
441.47	2054.73
441.68	2092.82
441.88	2630.41
442.09	2749.19
442.30	2853.84
442.51	2910.78
442.71	2870.23
442.92	2794.25
443.13	2363.36
443.34	2169.82
443.55	2261.16
443.75	2428.28
443.96	1977.72
444.17	1845.63
444.38	2364.58
444.58	2019.09
444.79	2047.35
445.00	1971.99
445.21	2146.48
445.41	2148.11
445.62	1773.13
445.83	2029.95
446.04	2214.26
446.24	1996.77
446.45	1761.87
446.66	1951.92
446.87	2268.94
447.07	2129.89
447.28	2168.59
447.49	1987.35
447.70	2435.03
447.90	2432.17
448.11	2045.31
448.32	2071.11
448.53	2485.62
448.73	2475.99
448.94	1930.82
449.15	2099.37
449.36	2204.84
449.56	2255.43
449.77	1926.52
449.98	1836.62
450.19	2171.46
450.39	2245.80
450.60	2168.80
450.81	2173.10
451.02	2384.04
451.22	2568.36
451.43	2000.25
451.64	2006.80
451.84	2221.64
452.05	2473.54
452.26	2025.44
452.47	1979.98
452.67	2124.56
452.88	2451.01
453.09	1837.03
453.30	1873.48
453.50	2369.30
453.71	2574.71
453.92	2071.32
454.12	2274.47
454.33	2260.75
454.54	2325.88
454.75	2039.37
454.95	1971.78
455.16	2277.55
455.37	2288.61
455.57	2087.70
455.78	1983.46
455.99	2178.42
456.19	2237.82
456.40	1877.17
456.61	1963.80
456.82	2215.70
457.02	2403.50
457.23	2166.75
457.44	2326.70
457.64	2303.96
457.85	2499.34
458.06	2172.69
458.26	2256.45
458.47	2344.11
458.68	2555.05
458.89	2157.54
459.09	2258.50
459.30	2671.17
459.51	2297.62
459.71	1904.82
459.92	1975.88
460.13	2528.22
460.33	2868.79
460.54	2322.60
460.75	2294.75
460.95	2335.09
461.16	2449.99
461.37	2058.21
461.57	2048.17
461.78	2288.81
461.99	2053.50
462.19	2270.58
462.40	1926.32
462.61	2594.57
462.81	2418.24
463.02	1897.65
463.23	1979.98
463.43	2371.96
463.64	2107.97
463.85	3304.81
464.05	1929.80
464.26	2777.05
464.47	2465.14
464.67	2112.48
464.88	2139.31
465.09	2206.89
465.29	2421.72
465.50	2308.47
465.71	2221.84
465.91	2275.09
466.12	2283.08
466.33	2060.46
466.53	1926.73
466.74	2478.04
466.94	2189.28
467.15	2053.50
467.36	2159.58
467.56	2022.57
467.77	2247.24
467.98	2011.11
468.18	1956.42
468.39	2108.38
468.60	2550.34
468.80	1945.57
469.01	1883.72
469.21	2299.25
469.42	2456.13
469.63	2045.31
469.83	1944.96
470.04	2376.87
470.25	2517.36
470.45	2113.09
470.66	1936.35
470.86	2235.56
471.07	2163.88
471.28	2074.59
471.48	2049.61
471.69	2153.03
471.90	3025.05
472.10	2235.15
472.31	2191.33
472.51	2403.50
472.72	2495.86
472.93	2388.34
473.13	2532.11
473.34	2766.60
473.54	2650.69
473.75	2328.75
473.96	2327.52
474.16	2305.60
474.37	2404.72
474.57	2126.41
474.78	1987.14
474.99	2302.12
475.19	2253.38
475.40	2002.50
475.60	2018.27
475.81	2689.60
476.02	2448.96
476.22	2349.63
476.43	2387.73
476.63	2356.39
476.84	2508.97
477.05	1917.10
477.25	1975.27
477.46	2797.73
477.66	2267.72
477.87	1914.85
478.08	1967.07
478.28	2331.41
478.49	2152.21
478.69	1936.15
478.90	1953.76
479.10	2302.53
479.31	2516.13
479.52	2057.59
479.72	2476.81
479.93	3120.90
480.13	3091.41
480.34	3020.96
480.54	3100.62
480.75	2714.58
480.96	2786.47
481.16	2160.81
481.37	2263.82
481.57	2532.11
481.78	2485.82
481.98	2366.02
482.19	2253.38
482.40	2645.36
482.60	2358.24
482.81	2114.53
483.01	1885.56
483.22	2375.03
483.42	2347.59
483.63	2053.50
483.83	2063.74
484.04	2330.79
484.24	2612.80
484.45	2414.35
484.66	2192.56
484.86	2474.77
485.07	2186.00
485.27	2108.38
485.48	1990.63
485.68	2489.92
485.89	2125.38
486.09	2138.08
486.30	1982.43
486.50	2291.27
486.71	2250.72
486.91	2133.16
487.12	2576.14
487.33	3448.57
487.53	3667.50
487.74	3356.21
487.94	3238.66
488.15	2976.52
488.35	2735.68
488.56	2353.94
488.76	2211.19
488.97	2450.80
489.17	2498.11
489.38	2217.34
489.58	2135.01
489.79	2371.75
489.99	2361.92
490.20	2065.99
490.40	2138.69
490.61	2328.54
490.81	2134.60
491.02	2048.38
491.22	2062.30
491.43	2354.14
491.63	2205.66
491.84	2153.85
492.04	1892.73
492.25	2301.71
492.45	2223.27
492.66	2074.39
492.86	2042.23
493.07	2307.45
493.27	2732.60
493.48	1919.97
493.68	1979.77
493.89	2197.47
494.09	2348.82
494.30	2000.05
494.50	2238.02
494.71	2301.71
494.91	1994.72
495.12	1987.55
495.32	2033.02
495.53	2245.60
495.73	2058.82
495.94	2241.09
496.14	2082.37
496.35	2814.73
496.55	2395.30
496.76	2114.53
496.96	2138.69
497.17	2280.00
497.37	2325.47
497.58	1999.84
497.78	1911.16
497.98	2173.71
498.19	2136.03
498.39	2003.32
498.60	2052.06
498.80	1907.89
499.01	2330.38
499.21	1882.49
499.42	2046.33
499.62	2178.83
499.83	2602.76
500.03	1964.62
500.24	2285.12
500.44	2689.19
500.64	2679.97
500.85	2240.89
501.05	2321.58
501.26	2110.43
501.46	2537.43
501.67	2054.93
501.87	1960.73
502.08	2098.96
502.28	2203.61
502.48	2104.08
502.69	2131.94
502.89	1976.29
503.10	2091.18
503.30	2075.62
503.51	2061.08
503.71	2009.88
503.92	2321.99
504.12	2056.78
504.32	1953.15
504.53	2342.67
504.73	2321.37
504.94	2145.04
505.14	2277.34
505.35	2464.73
505.55	2483.78
505.75	2244.98
505.96	2401.24
506.16	2746.33
506.37	2280.82
506.57	2041.01
506.78	2171.67
506.98	2441.18
507.18	2034.66
507.39	1952.12
507.59	2049.81
507.80	2111.05
508.00	2237.41
508.20	2230.24
508.41	2044.49
508.61	2427.46
508.82	2379.94
509.02	2163.68
509.22	1961.75
509.43	2044.49
509.63	2092.20
509.84	2054.52
510.04	1857.30
510.24	2464.94
510.45	2351.89
510.65	1907.89
510.86	2042.64
511.06	2031.99
511.26	2346.36
511.47	2194.19
511.67	1942.09
511.88	2296.39
512.08	2375.85
512.28	1949.05
512.49	2068.45
512.69	2199.52
512.90	2243.55
513.10	1994.31
513.30	2082.99
513.51	2352.50
513.71	2588.22
513.91	2181.70
514.12	2214.67
514.32	2488.69
514.53	2214.88
514.73	2180.27
514.93	2038.14
515.14	2268.13
515.34	2462.89
515.54	2027.08
515.75	2141.36
515.95	2380.15
516.15	2551.15
516.36	2092.41
516.56	2095.69
516.77	1852.59
516.97	2302.94
517.17	2044.90
517.38	2123.54
517.58	2472.72
517.78	2153.64
517.99	2161.84
518.19	2052.47
518.39	2465.96
518.60	2183.95
518.80	1968.71
519.00	2075.21
519.21	2190.51
519.41	2536.61
519.61	1951.30
519.82	2111.05
520.02	2186.62
520.22	2201.36
520.43	1992.47
520.63	2081.97
520.83	2115.14
521.04	1919.56
521.24	2115.76
521.44	2029.13
521.65	2086.27
521.85	2318.30
522.05	1987.55
522.26	1992.88
522.46	2525.15
522.66	2349.02
522.87	2006.39
523.07	2219.79
523.27	2129.27
523.48	2413.33
523.68	2018.27
523.88	2096.10
524.09	2372.98
524.29	2269.76
524.49	1909.53
524.70	2089.13
524.90	2441.59
525.10	2297.82
525.31	1910.14
525.51	2004.14
525.71	2340.01
525.91	2278.57
526.12	1998.00
526.32	1929.39
526.52	2137.87
526.73	2088.11
526.93	2073.77
527.13	1890.89
527.34	2182.32
527.54	2187.23
527.74	2020.53
527.94	1916.08
528.15	2015.00
528.35	2215.90
528.55	2102.65
528.76	2065.58
528.96	1941.68
529.16	2374.82
529.36	2118.01
529.57	1942.70
529.77	2403.09
529.97	2030.15
530.18	2091.80
530.38	1986.32
530.58	2277.14
530.78	2198.70
530.99	1974.45
531.19	2066.61
531.39	2067.63
531.60	2216.93
531.80	2083.81
532.00	2169.82
532.20	2230.24
532.41	2080.74
532.61	1984.89
532.81	1974.45
533.01	2149.14
533.22	2291.68
533.42	2192.56
533.62	1898.88
533.82	2418.04
534.03	2161.22
534.23	2153.64
534.43	1974.86
534.63	2152.42
534.84	2240.68
535.04	2116.58
535.24	2083.81
535.44	2687.96
535.65	2148.93
535.85	2022.78
536.05	1947.62
536.25	2196.45
536.46	2067.63
536.66	2176.58
536.86	2084.01
537.06	2341.03
537.27	2430.53
537.47	2055.14
537.67	2034.86
537.87	2488.90
538.08	2186.41
538.28	1930.42
538.48	1906.25
538.68	2164.91
538.88	2308.06
539.09	1893.55
539.29	2042.85
539.49	2388.34
539.69	2256.66
539.90	2097.53
540.10	1917.51
540.30	2438.72
540.50	2102.44
540.70	1915.47
540.91	1958.88
541.11	2332.84
541.31	2523.30
541.51	2105.11
541.72	2137.87
541.92	2273.04
542.12	2107.36
542.32	2091.39
542.52	2027.08
542.73	2085.86
542.93	2303.35
543.13	1999.23
543.33	2174.33
543.53	2364.58
543.74	2323.63
543.94	2030.36
544.14	2140.33
544.34	2457.77
544.54	2255.43
544.75	2163.47
544.95	2273.04
545.15	2402.47
545.35	2556.68
545.55	2212.83
545.75	2092.00
545.96	2665.02
546.16	2130.09
546.36	2084.22
546.56	2087.49
546.76	2400.42
546.97	2518.39
547.17	2059.44
547.37	2131.73
547.57	2145.25
547.77	2314.61
547.97	2126.41
548.18	2103.26
548.38	2201.57
548.58	2485.62
548.78	2062.30
548.98	2101.63
549.18	2438.52
549.39	2577.57
549.59	2216.31
549.79	2135.42
549.99	2578.19
550.19	2388.34
550.39	2230.85
550.60	2096.92
550.80	2264.23
551.00	2316.87
551.20	2039.16
551.40	2044.08
551.60	2290.04
551.80	2273.86
552.01	2102.85
552.21	2071.93
552.41	2271.20
552.61	2547.06
552.81	2136.85
553.01	1949.26
553.21	2283.49
553.42	2041.82
553.62	2016.43
553.82	1954.38
554.02	2504.26
554.22	2345.54
554.42	1925.30
554.62	2160.61
554.83	2518.80
555.03	2545.01
555.23	2190.30
555.43	2436.26
555.63	2391.21
555.83	2369.50
556.03	2237.41
556.23	2024.62
556.44	2320.35
556.64	2491.35
556.84	1850.54
557.04	2107.97
557.24	2286.76
557.44	2226.96
557.64	2092.20
557.84	1977.31
558.04	2151.80
558.25	2335.91
558.45	1961.13
558.65	2072.75
558.85	2221.64
559.05	1913.42
559.25	2055.14
559.45	2115.96
559.65	2642.29
559.85	3154.08
560.05	2213.85
560.26	2321.17
560.46	2392.03
560.66	2220.61
560.86	2122.92
561.06	2030.36
561.26	2512.65
561.46	2350.04
561.66	2042.64
561.86	2195.01
562.06	2078.69
562.26	2180.68
562.47	2074.18
562.67	1947.00
562.87	2301.30
563.07	1971.99
563.27	2093.84
563.47	2087.90
563.67	2117.80
563.87	2312.36
564.07	2027.08
564.27	2054.52
564.47	2254.40
564.67	2367.25
564.87	2074.39
565.08	2146.68
565.28	2135.01
565.48	2333.87
565.68	2118.83
565.88	2193.58
566.08	2542.14
566.28	2253.58
566.48	1961.75
566.68	2080.94
566.88	2142.99
567.08	2375.44
567.28	2104.29
567.48	2065.79
567.68	2285.74
567.88	2011.11
568.08	2058.41
568.28	2182.32
568.48	2193.37
568.68	2407.18
568.89	2128.66
569.09	1921.40
569.29	2344.72
569.49	2349.84
569.69	1973.83
569.89	1967.28
570.09	1884.54
570.29	2085.24
570.49	1941.27
570.69	2046.74
570.89	2361.31
571.09	2550.75
571.29	1949.46
571.49	2200.54
571.69	2278.98
571.89	2293.52
572.09	2039.98
572.29	2118.83
572.49	2341.03
572.69	2311.13
572.89	2118.62
573.09	1819.21
573.29	2220.61
573.49	2256.86
573.69	2062.71
573.89	2120.67
574.09	2137.87
574.29	2453.06
574.49	2097.12
574.69	1976.90
574.89	2037.93
575.09	2049.61
575.29	1950.69
575.49	2058.21
575.69	2258.30
575.89	2007.01
576.09	2054.32
576.29	2082.78
576.49	2043.67
576.69	2193.99
576.89	2040.19
577.09	2106.34
577.29	1978.13
577.49	2563.44
577.69	2051.25
577.89	2178.01
578.09	2210.99
578.29	1938.81
578.49	2065.79
578.69	1985.92
578.89	2405.34
579.09	2224.30
579.29	1995.34
579.49	2200.34
579.69	2149.34
579.89	2531.29
580.09	1824.94
580.29	1912.39
580.49	2094.46
580.69	2038.34
580.89	1977.72
581.09	2032.81
581.29	2110.23
581.49	2171.87
581.69	1955.81
581.89	1989.60
582.09	2079.71
582.28	2060.67
582.48	2144.02
582.68	2185.18
582.88	2449.58
583.08	2174.33
583.28	2090.36
583.48	2073.77
583.68	2087.49
583.88	2204.64
584.08	2089.54
584.28	2122.51
584.48	2555.25
584.68	2290.65
584.88	2025.03
585.08	2292.09
585.28	2368.27
585.48	2461.45
585.68	2160.61
585.87	2220.61
586.07	2318.10
586.27	2249.90
586.47	2133.57
586.67	2056.57
586.87	2229.83
587.07	2142.79
587.27	2007.01
587.47	2177.61
587.67	2570.00
587.87	2804.69
588.07	2278.16
588.27	2144.02
588.46	2502.41
588.66	2490.94
588.86	2153.44
589.06	2206.48
589.26	2427.87
589.46	2391.41
589.66	2021.14
589.86	1975.88
590.06	2194.81
590.26	2358.44
590.46	2149.96
590.66	2263.01
590.85	2264.03
591.05	2404.52
591.25	2080.12
591.45	2167.77
591.65	2381.38
591.85	2314.82
592.05	2060.67
592.25	2195.01
592.45	2452.44
592.64	2222.25
592.84	2146.48
593.04	2046.74
593.24	2701.07
593.44	2160.40
593.64	2127.43
593.84	2143.81
594.04	2182.52
594.24	2528.22
594.43	2054.11
594.63	2065.99
594.83	2383.43
595.03	2383.84
595.23	1969.74
595.43	1947.41
595.63	2073.98
595.83	2374.62
596.02	1848.09
596.22	2069.88
596.42	2266.90
596.62	2202.18
596.82	2035.48
597.02	2109.61
597.22	2456.95
597.41	2255.84
597.61	2021.75
597.81	2179.65
598.01	2387.11
598.21	2183.95
598.41	1952.12
598.61	2026.87
598.80	2233.92
599.00	2254.20
599.20	2235.77
599.40	2093.23
599.60	2194.40
599.80	2381.17
599.99	2197.06
600.19	2061.89
600.39	2249.28
600.59	2354.96
600.79	2168.18
600.99	2095.89
601.19	2556.68
601.38	2636.35
601.58	2179.65
601.78	1866.72
601.98	2365.20
602.18	2498.52
602.37	2608.91
602.57	2465.34
602.77	2795.07
602.97	2740.80
603.17	2658.88
603.37	2551.36
603.56	2747.55
603.76	2696.56
603.96	2423.36
604.16	2427.25
604.36	2731.17
604.56	2585.77
604.75	2167.16
604.95	2282.87
605.15	2618.94
605.35	2547.88
605.55	2166.96
605.74	2130.91
605.94	2486.44
606.14	2292.09
606.34	2143.61
606.54	2174.94
606.73	2177.81
606.93	2383.22
607.13	2014.79
607.33	2146.48
607.53	2519.00
607.72	2381.99
607.92	2145.04
608.12	2192.15
608.32	2178.22
608.51	2329.77
608.71	1967.48
608.91	2140.74
609.11	2350.25
609.31	2174.33
609.50	2091.80
609.70	2334.27
609.90	2421.52
610.10	2446.91
610.29	2064.56
610.49	2002.30
610.69	2421.11
610.89	2302.74
611.09	2137.26
611.28	2300.48
611.48	2469.03
611.68	2221.84
611.88	2068.65
612.07	1996.36
612.27	2374.62
612.47	2126.41
612.67	2128.25
612.86	2171.26
613.06	2222.66
613.26	1944.34
613.46	1990.01
613.65	2129.48
613.85	2731.99
614.05	2375.64
614.25	2166.14
614.44	2086.27
614.64	2205.05
614.84	2152.01
615.04	2028.92
615.23	2037.93
615.43	2288.40
615.63	2332.43
615.83	2010.90
616.02	1929.19
616.22	2377.69
616.42	2104.70
616.62	2031.18
616.81	2185.59
617.01	2316.05
617.21	2233.31
617.41	1983.87
617.60	2111.25
617.80	2327.11
618.00	2345.74
618.19	2158.76
618.39	2051.66
618.59	2304.78
618.79	2159.17
618.98	1904.20
619.18	2024.83
619.38	2596.41
619.57	2174.12
619.77	2029.33
619.97	2041.82
620.17	2079.71
620.36	2018.07
620.56	2221.64
620.76	1948.85
620.95	2015.00
621.15	2132.96
621.35	1970.76
621.54	2059.85
621.74	2253.18
621.94	2080.53
622.14	1915.06
622.33	1899.49
622.53	2171.87
622.73	2125.18
622.92	1913.01
623.12	2023.60
623.32	2549.11
623.51	2341.85
623.71	1948.85
623.91	2221.84
624.10	2043.87
624.30	2213.85
624.50	1903.18
624.69	1876.55
624.89	2895.21
625.09	2145.04
625.29	1818.80
625.48	1915.26
625.68	2256.04
625.88	2382.40
626.07	2093.84
626.27	1954.17
626.47	2130.50
626.66	1914.24
626.86	2042.03
627.06	2031.99
627.25	2209.35
627.45	2482.14
627.64	2018.07
627.84	2200.34
628.04	2077.66
628.23	2576.75
628.43	1934.92
628.63	1957.24
628.82	2135.21
629.02	2530.27
629.22	2096.71
629.41	2240.68
629.61	2224.91
629.81	2579.42
630.00	2059.64
630.20	1977.11
630.40	2258.09
630.59	2311.13
630.79	2059.85
630.98	2033.43
631.18	2177.81
631.38	2191.74
631.57	2176.58
631.77	1882.49
631.97	2221.23
632.16	2276.73
632.36	2070.91
632.56	2081.35
632.75	2245.39
632.95	2378.51
633.14	1915.67
633.34	2192.76
633.54	1886.38
633.73	2111.87
633.93	1999.02
634.12	1881.47
634.32	2652.73
634.52	2173.71
634.71	1874.10
634.91	2063.53
635.11	1972.40
635.30	2081.35
635.50	2054.52
635.69	1973.42
635.89	2567.13
636.09	2352.50
636.28	1984.07
636.48	1983.05
636.67	2329.97
636.87	2322.40
637.07	2133.37
637.26	2029.95
637.46	2277.14
637.65	2431.55
637.85	2192.56
638.04	2052.88
638.24	2174.74
638.44	2351.89
638.63	2091.80
638.83	2071.73
639.02	2304.37
639.22	2324.24
639.42	2026.67
639.61	2027.69
639.81	2233.92
640.00	2182.73
640.20	2157.54
640.39	2126.82
640.59	2674.44
640.79	2543.78
640.98	2359.26
641.18	2290.04
641.37	2470.06
641.57	2310.93
641.76	2292.50
641.96	2007.83
642.15	2349.43
642.35	2215.08
642.55	2190.92
642.74	2008.85
642.94	2398.79
643.13	2511.22
643.33	2053.91
643.52	2026.06
643.72	2140.33
643.91	2220.20
644.11	1971.17
644.31	1991.85
644.50	2120.67
644.70	2428.89
644.89	2084.01
645.09	2156.31
645.28	2250.92
645.48	2343.70
645.67	2001.28
645.87	1892.12
646.06	2168.18
646.26	2289.42
646.45	1839.90
646.65	1833.34
646.84	2558.12
647.04	2152.62
647.24	1921.40
647.43	2012.33
647.63	2244.16
647.82	2494.84
648.02	1971.78
648.21	2039.78
648.41	2451.42
648.60	2179.24
648.80	2199.52
648.99	2083.81
649.19	2072.34
649.38	1966.46
649.58	2036.50
649.77	2155.90
649.97	2397.15
650.16	2295.57
650.36	1835.59
650.55	2223.07
650.75	2273.45
650.94	2512.65
651.14	2059.23
651.33	2139.10
651.53	2531.90
651.72	2122.11
651.92	2058.21
652.11	1892.94
652.31	2308.06
652.50	2286.56
652.70	2070.70
652.89	1949.05
653.09	2505.89
653.28	2208.12
653.48	1886.38
653.67	1927.55
653.87	2769.47
654.06	2235.15
654.25	2297.62
654.45	1997.38
654.64	2142.18
654.84	2204.23
655.03	1851.77
655.23	2201.36
655.42	2362.95
655.62	2493.81
655.81	2150.78
656.01	1979.57
656.20	2374.21
656.40	2474.97
656.59	2110.84
656.79	2187.03
656.98	2244.37
657.17	2384.25
657.37	2052.06
657.56	2018.07
657.76	2285.33
657.95	2424.18
658.15	1699.61
658.34	2094.87
658.54	2216.11
658.73	2029.13
658.92	2052.47
659.12	2084.63
659.31	2325.06
659.51	2055.14
659.70	2143.61
659.90	2013.15
660.09	2393.05
660.29	2205.66
660.48	1976.29
660.67	2234.95
660.87	2146.68
661.06	2310.31
661.26	2145.04
661.45	2185.39
661.65	2300.69
661.84	2140.13
662.03	1974.86
662.23	2014.38
662.42	2530.27
662.62	2021.55
662.81	1936.97
663.00	2030.15
663.20	2305.40
663.39	2385.47
663.59	2299.66
663.78	2210.17
663.97	2311.34
664.17	2536.20
664.36	2057.39
664.56	2076.64
664.75	2430.53
664.94	2363.77
665.14	2192.76
665.33	2136.65
665.53	2290.86
665.72	2244.16
665.91	2222.46
666.11	2131.73
666.30	2274.88
666.50	2242.73
666.69	2183.95
666.88	2154.05
667.08	2357.21
667.27	2340.01
667.47	2275.09
667.66	2210.17
667.85	2534.98
668.05	2376.87
668.24	2130.30
668.43	2350.86
668.63	2255.63
668.82	2504.46
669.02	2204.84
669.21	2102.44
669.40	2044.28
669.60	2571.02
669.79	1933.69
669.98	2723.59
670.18	2061.89
670.37	2003.53
670.56	2041.62
670.76	2108.59
670.95	2170.23
671.15	2362.54
671.34	2029.74
671.53	2068.04
671.73	2122.72
671.92	2092.41
672.11	1956.83
672.31	2011.11
672.50	2251.13
672.69	1985.71
672.89	1797.09
673.08	2025.24
673.27	2331.20
673.47	2232.90
673.66	2069.27
673.85	1929.19
674.05	2295.16
674.24	2467.80
674.43	2302.33
674.63	2590.27
674.82	3159.81
675.01	2436.67
675.21	2594.16
675.40	2381.79
675.59	2460.22
675.79	2768.24
675.98	2273.86
676.17	2448.14
676.37	2470.87
676.56	2280.62
676.75	2158.35
676.95	2128.86
677.14	2193.17
677.33	2423.98
677.52	1914.44
677.72	2006.80
677.91	2260.55
678.10	1969.74
678.30	1941.88
678.49	1931.85
678.68	2568.77
678.88	1881.06
679.07	2175.15
679.26	2009.88
679.45	2503.64
679.65	2423.36
679.84	1862.83
680.03	1882.08
680.23	2153.03
680.42	2629.39
680.61	1911.57
680.81	1977.31
681.00	2183.13
681.19	2266.08
681.38	2116.37
681.58	2075.41
681.77	2110.23
681.96	2308.27
682.15	1938.81
682.35	2112.27
682.54	2270.58
682.73	2002.09
682.93	1926.73
683.12	1901.54
683.31	2340.83
683.50	2692.05
683.70	1942.91
683.89	2088.31
684.08	2030.15
684.27	2370.93
684.47	1885.97
684.66	2002.71
684.85	2546.03
685.04	2443.64
685.24	1946.80
685.43	1996.77
685.62	1889.25
685.81	2292.29
686.01	2252.15
686.20	2236.38
686.39	2294.75
686.58	2981.02
686.78	2549.52
686.97	2462.27
687.16	2682.22
687.35	2539.89
687.55	2278.16
687.74	2315.43
687.93	2198.08
688.12	2347.79
688.32	2241.71
688.51	2017.45
688.70	2348.61
688.89	2073.57
689.08	1924.68
689.28	1976.29
689.47	2229.62
689.66	2244.78
689.85	2128.86
690.05	1938.20
690.24	2070.70
690.43	2208.73
690.62	2036.09
690.81	1983.87
691.01	2202.18
691.20	2135.83
691.39	1900.31
691.58	2057.59
691.77	2520.84
691.97	2213.24
692.16	2118.62
692.35	2042.03
692.54	2131.53
692.73	2349.02
692.93	2188.25
693.12	2237.41
693.31	2440.77
693.50	2379.13
693.69	2251.74
693.89	2100.40
694.08	2532.52
694.27	2510.60
694.46	2112.48
694.65	2113.30
694.85	2363.56
695.04	2396.12
695.23	2422.75
695.42	3891.35
695.61	5327.38
695.80	6194.70
696.00	6920.70
696.19	7357.53
696.38	6533.23
696.57	5489.79
696.76	5169.48
696.95	4693.53
697.15	4819.69
697.34	4506.35
697.53	3716.04
697.72	3624.50
697.91	3313.00
698.10	3321.60
698.30	2622.42
698.49	2365.40
698.68	2446.71
698.87	2290.86
699.06	2021.14
699.25	2120.26
699.45	2397.97
699.64	2225.53
699.83	2216.72
700.02	1985.71
700.21	2289.22
700.40	2107.56
700.59	1956.42
700.79	2068.04
700.98	2286.35
701.17	2076.85
701.36	2000.25
701.55	1990.83
701.74	2427.66
701.93	2137.26
702.12	2238.23
702.32	2259.93
702.51	2761.07
702.70	2700.45
702.89	2386.29
703.08	2275.50
703.27	2617.51
703.46	2461.66
703.65	2124.15
703.85	2052.06
704.04	2186.21
704.23	2439.34
704.42	1990.22
704.61	2014.38
704.80	2501.59
704.99	2077.87
705.18	2096.51
705.37	2238.02
705.57	3356.21
705.76	4774.02
705.95	5134.05
706.14	6126.91
706.33	6813.80
706.52	6675.15
706.71	5095.35
706.90	4625.34
707.09	4593.39
707.28	4292.54
707.47	3767.65
707.67	3723.41
707.86	3393.28
708.05	3523.12
708.24	2882.93
708.43	2650.07
708.62	2513.47
708.81	2268.53
709.00	2094.25
709.19	2011.51
709.38	2366.84
709.57	2039.98
709.76	2078.69
709.96	2004.55
710.15	2486.44
710.34	2227.99
710.53	2173.71
710.72	2043.26
710.91	2410.87
711.10	2330.18
711.29	2124.56
711.48	1980.80
711.67	2036.09
711.86	2275.91
712.05	1920.38
712.24	1950.90
712.43	2305.40
712.62	2453.06
712.81	2032.40
713.00	2208.94
713.19	1998.61
713.39	2328.34
713.58	2044.69
713.77	2343.49
713.96	2614.85
714.15	2579.01
714.34	2497.09
714.53	2268.33
714.72	2853.84
714.91	2328.95
715.10	2359.87
715.29	2182.11
715.48	2908.53
715.67	2491.56
715.86	2214.06
716.05	2136.24
716.24	2213.65
716.43	2159.17
716.62	1961.34
716.81	1917.72
717.00	2112.07
717.19	2481.93
717.38	1975.27
717.57	1971.17
717.76	1928.78
717.95	2344.72
718.14	2018.89
718.33	2038.14
718.52	1893.35
718.71	1920.99
718.90	1921.81
719.09	1924.48
719.28	2206.69
719.47	2357.83
719.66	2116.37
719.85	2182.93
720.04	2201.36
720.23	2298.23
720.42	2043.05
720.61	2173.10
720.80	2004.14
720.99	2275.91
721.18	2033.43
721.37	1956.22
721.56	2123.74
721.75	2346.56
721.94	1951.71
722.13	2009.88
722.32	2164.50
722.51	2329.56
722.70	2082.99
722.89	2106.34
723.08	2194.60
723.27	2346.15
723.46	2114.73
723.65	2084.63
723.84	2098.76
724.03	2418.04
724.22	1903.38
724.41	2029.74
724.60	2169.62
724.79	2367.45
724.98	2073.57
725.16	2002.09
725.35	2317.48
725.54	2020.32
725.73	2058.62
725.92	2143.61
726.11	2432.17
726.30	2974.27
726.49	2792.00
726.68	3025.46
726.87	3423.18
727.06	3500.59
727.25	2791.38
727.44	2760.05
727.63	2822.31
727.82	2684.89
728.01	2562.83
728.20	2558.73
728.38	2807.15
728.57	2505.08
728.76	2268.53
728.95	2334.27
729.14	2101.42
729.33	2112.27
729.52	1832.73
729.71	1967.69
729.90	2080.33
730.09	2185.80
730.28	2050.02
730.47	2086.27
730.66	2491.15
730.84	2369.09
731.03	2162.04
731.22	2150.78
731.41	2300.28
731.60	2334.68
731.79	1919.56
731.98	1998.20
732.17	2364.99
732.36	2320.96
732.55	2031.99
732.73	1925.50
732.92	2464.12
733.11	2325.06
733.30	2009.47
733.49	1940.04
733.68	2344.51
733.87	2285.94
734.06	1971.99
734.25	2056.57
734.43	2239.86
734.62	2457.77
734.81	2230.24
735.00	2176.38
735.19	2331.00
735.38	2445.68
735.57	2040.80
735.76	2242.73
735.94	2438.52
736.13	2892.55
736.32	2546.44
736.51	2551.15
736.70	3154.49
736.89	3236.00
737.08	3260.78
737.27	5014.66
737.45	7524.65
737.64	8381.11
737.83	9639.17
738.02	10315.62
738.21	9655.15
738.40	7817.30
738.59	6931.15
738.77	6367.54
738.96	6049.29
739.15	5749.06
739.34	5257.14
739.53	4798.39
739.72	4668.75
739.90	4291.52
740.09	3393.69
740.28	3094.89
740.47	3019.93
740.66	2762.30
740.85	2222.05
741.03	2204.23
741.22	2154.46
741.41	2253.58
741.60	1987.96
741.79	2190.51
741.98	2509.58
742.16	2617.71
742.35	2144.63
742.54	2227.99
742.73	2719.91
742.92	2290.45
743.10	2103.26
743.29	2210.37
743.48	2810.43
743.67	2276.52
743.86	2027.08
744.05	2072.95
744.23	2151.39
744.42	2190.30
744.61	2155.08
744.80	2001.89
744.99	2191.12
745.17	2000.46
745.36	1979.57
745.55	2224.50
745.74	2317.28
745.93	2225.12
746.11	2119.65
746.30	2020.32
746.49	2483.57
746.68	2156.31
746.86	2135.21
747.05	2104.90
747.24	2403.09
747.43	2452.65
747.62	2052.68
747.80	2099.99
747.99	2577.57
748.18	2493.20
748.37	2209.55
748.56	2285.12
748.74	2578.19
748.93	2695.13
749.12	4168.64
749.31	9003.28
749.49	13380.40
749.68	16195.34
749.87	18715.36
750.06	19737.30
750.24	18634.67
750.43	17603.72
750.62	19006.17
750.81	19532.30
750.99	20266.08
751.18	19741.19
751.37	16365.93
751.56	13785.70
751.74	13383.27
751.93	12006.63
752.12	9670.71
752.31	8349.57
752.49	7217.04
752.68	6571.11
752.87	5316.12
753.06	4601.99
753.24	4091.43
753.43	3777.89
753.62	2846.68
753.81	2586.38
753.99	2888.86
754.18	2551.15
754.37	2147.30
754.55	2163.06
754.74	2665.43
754.93	2037.52
755.12	2067.22
755.30	2007.42
755.49	2476.40
755.68	2301.92
755.86	2174.53
756.05	1959.29
756.24	2537.43
756.43	2061.69
756.61	2020.32
756.80	2130.91
756.99	2488.08
757.17	2259.32
757.36	2005.17
757.55	2053.70
757.74	2328.54
757.92	2262.19
758.11	1986.53
758.30	1896.83
758.48	2220.41
758.67	2090.57
758.86	2162.25
759.04	2058.00
759.23	2263.01
759.42	2340.01
759.60	2093.84
759.79	2125.79
759.98	2256.45
760.16	2123.95
760.35	2042.23
760.54	2024.42
760.73	2295.98
760.91	2026.26
761.10	2055.75
761.29	2154.46
761.47	2275.70
761.66	2656.63
761.85	2214.67
762.03	2709.05
762.22	5250.99
762.41	13395.35
762.59	22437.14
762.78	27146.03
762.97	32728.79
763.15	34935.27
763.34	31418.91
763.52	22844.68
763.71	21304.20
763.90	19355.76
764.08	17966.83
764.27	16454.61
764.46	15183.64
764.64	13164.14
764.83	11676.90
765.02	10148.30
765.20	8765.31
765.39	7177.52
765.58	5232.76
765.76	4094.91
765.95	3604.02
766.13	3024.24
766.32	2528.83
766.51	2385.88
766.69	3244.19
766.88	2441.18
767.07	2063.53
767.25	1942.70
767.44	2452.24
767.62	2473.33
767.81	2015.00
768.00	2076.85
768.18	2231.26
768.37	2129.89
768.56	1876.96
768.74	2009.06
768.93	2005.17
769.11	2288.40
769.30	2098.14
769.49	1983.87
769.67	2177.81
769.86	2143.81
770.04	2015.41
770.23	1982.64
770.42	2444.66
770.60	2230.85
770.79	1971.78
770.97	2152.21
771.16	3334.30
771.35	5226.62
771.53	6966.58
771.72	8148.66
771.90	9560.74
772.09	10337.33
772.27	8843.95
772.46	6765.46
772.65	6928.07
772.83	6327.81
773.02	5912.49
773.20	5333.32
773.39	5291.95
773.58	4908.16
773.76	4160.86
773.95	3846.70
774.13	3792.84
774.32	3302.14
774.50	2712.13
774.69	2545.83
774.87	2435.03
775.06	2780.73
775.25	2079.30
775.43	2088.31
775.62	2299.87
775.80	2356.80
775.99	2077.87
776.17	2020.12
776.36	2248.26
776.54	2422.95
776.73	2024.83
776.92	2139.72
777.10	2394.49
777.29	2290.04
777.47	2000.05
777.66	2014.59
777.84	2201.36
778.03	2158.56
778.21	1959.70
778.40	2057.80
778.58	2291.68
778.77	2374.41
778.95	1917.31
779.14	1963.59
779.32	2507.94
779.51	2309.49
779.70	1960.11
779.88	1862.42
780.07	2092.20
780.25	2641.67
780.44	2022.57
780.62	2103.88
780.81	2329.97
780.99	2270.38
781.18	1981.61
781.36	1900.72
781.55	2171.87
781.73	2450.60
781.92	1883.52
782.10	1919.15
782.29	2219.38
782.47	2451.83
782.66	1981.41
782.84	1879.63
783.03	2079.10
783.21	2402.47
783.40	1975.88
783.58	1943.73
783.77	2097.73
783.95	2172.49
784.14	1956.42
784.32	2053.50
784.51	2402.47
784.69	2078.28
784.88	1885.97
785.06	2005.17
785.24	1952.74
785.43	2352.50
785.61	2084.83
785.80	1947.62
785.98	2304.99
786.17	2219.18
786.35	1917.31
786.54	2123.74
786.72	2332.84
786.91	2391.82
787.09	2023.80
787.28	1899.29
787.46	2197.88
787.65	2369.70
787.83	1876.35
788.01	2041.01
788.20	2046.54
788.38	2246.62
788.57	2048.99
788.75	2018.27
788.94	2564.88
789.12	2497.29
789.31	2095.48
789.49	2182.11
789.67	2160.81
789.86	2306.63
790.04	2000.87
790.23	1914.44
790.41	2617.71
790.60	2165.11
790.78	2049.61
790.96	2067.42
791.15	2359.46
791.33	2164.50
791.52	2038.55
791.70	1939.63
791.89	2204.02
792.07	2341.44
792.25	2075.21
792.44	1899.08
792.62	2454.90
792.81	2190.51
792.99	2082.37
793.17	2074.18
793.36	2246.21
793.54	3171.48
793.73	4399.04
793.91	6252.04
794.10	7599.60
794.28	8893.30
794.46	9038.71
794.65	8653.69
794.83	6901.86
795.01	6329.45
795.20	6106.43
795.38	5721.00
795.57	5478.73
795.75	5227.85
795.93	4629.84
796.12	4254.86
796.30	4226.39
796.49	3975.11
796.67	3290.47
796.85	3146.70
797.04	3028.95
797.22	2908.53
797.40	2380.15
797.59	2370.93
797.77	2476.20
797.96	2278.98
798.14	2146.27
798.32	2163.68
798.51	2474.36
798.69	2682.02
798.87	2145.04
799.06	2142.79
799.24	2204.23
799.42	3048.40
799.61	3965.28
799.79	4816.82
799.98	5967.58
800.16	6495.95
800.34	8110.37
800.53	10148.91
800.71	10784.81
800.89	12545.45
801.08	12687.37
801.26	12583.74
801.44	10571.61
801.63	8743.19
801.81	8423.30
801.99	7521.78
802.18	7135.12
802.36	6802.33
802.54	6094.35
802.73	5252.63
802.91	4971.85
803.09	4505.33
803.28	4039.62
803.46	3600.74
803.64	3599.71
803.83	2809.40
804.01	2523.10
804.19	2299.05
804.38	2644.34
804.56	2515.11
804.74	2252.36
804.92	2213.44
805.11	2186.21
805.29	2527.81
805.47	2119.03
805.66	2008.65
805.84	2130.09
806.02	2485.62
806.21	2089.34
806.39	2336.12
806.57	2517.36
806.76	2444.05
806.94	2179.45
807.12	2158.35
807.30	2278.57
807.49	2495.65
807.67	2331.00
807.85	2402.68
808.04	2539.07
808.22	2736.09
808.40	2076.64
808.58	2005.58
808.77	2425.82
808.95	2765.99
809.13	3182.34
809.31	5997.27
809.50	9254.98
809.68	10884.75
809.86	12293.55
810.05	13516.39
810.23	15803.36
810.41	24265.97
810.59	41991.55
810.78	52338.09
810.96	60969.87
811.14	65461.07
811.32	64863.06
811.51	53021.30
811.69	41997.70
811.87	41114.82
812.05	35867.51
812.24	33567.23
812.42	30785.89
812.60	27292.46
812.78	23110.30
812.97	19452.43
813.15	17312.09
813.33	14653.63
813.51	12277.16
813.70	9579.58
813.88	7578.10
814.06	5907.78
814.24	4472.76
814.42	3403.72
814.61	3217.77
814.79	3220.02
814.97	2414.35
815.15	2341.85
815.34	2563.24
815.52	2601.13
815.70	2120.47
815.88	2178.01
816.06	2168.18
816.25	2218.77
816.43	2086.06
816.61	2192.96
816.79	2504.46
816.98	1983.25
817.16	1946.18
817.34	1941.68
817.52	2282.87
817.70	2496.68
817.89	2058.62
818.07	1943.11
818.25	2171.67
818.43	2213.24
818.61	2002.71
818.80	1969.33
818.98	2503.44
819.16	2209.96
819.34	1884.75
819.52	2247.24
819.70	2017.45
819.89	2181.91
820.07	1861.19
820.25	1842.15
820.43	2225.53
820.61	2365.81
820.80	1986.53
820.98	1854.85
821.16	1899.08
821.34	1958.68
821.52	1955.20
821.70	2116.58
821.89	2190.51
822.07	2109.41
822.25	2053.09
822.43	1922.63
822.61	2459.61
822.79	2227.78
822.98	1992.47
823.16	1839.49
823.34	2231.47
823.52	2398.58
823.70	2070.91
823.88	1832.11
824.06	2282.46
824.25	2155.08
824.43	2085.86
824.61	1903.38
824.79	2161.84
824.97	2265.05
825.15	2258.09
825.33	3090.38
825.52	4498.16
825.70	5114.39
825.88	5523.78
826.06	6088.82
826.24	6300.78
826.42	5703.59
826.60	4543.62
826.78	4573.93
826.97	4245.23
827.15	4363.40
827.33	3747.58
827.51	3633.10
827.69	3463.93
827.87	3329.38
828.05	3017.48
828.23	2751.04
828.41	3016.04
828.60	2855.89
828.78	2276.11
828.96	2385.27
829.14	2261.98
829.32	2262.19
829.50	2060.26
829.68	2023.80
829.86	2151.60
830.04	2330.38
830.22	2138.08
830.41	1937.17
830.59	2163.27
830.77	2275.09
830.95	1934.92
831.13	1936.76
831.31	2032.81
831.49	2339.39
831.67	2135.83
831.85	2140.95
832.03	2089.13
832.21	2299.25
832.39	1876.96
832.57	1885.56
832.76	2291.27
832.94	2115.35
833.12	1813.68
833.30	1948.64
833.48	2364.79
833.66	2251.54
833.84	1947.21
834.02	1965.85
834.20	2349.84
834.38	2290.65
834.56	1809.59
834.74	1883.52
834.92	1944.34
835.10	2480.70
835.28	2003.53
835.46	2007.01
835.64	2152.62
835.82	2048.17
836.01	2258.50
836.19	2196.24
836.37	2096.92
836.55	2007.21
836.73	1927.75
836.91	1915.87
837.09	2286.35
837.27	2433.19
837.45	1873.28
837.63	1903.38
837.81	1989.40
837.99	2199.52
838.17	2060.46
838.35	1950.69
838.53	2602.15
838.71	2305.60
838.89	1972.40
839.07	1975.88
839.25	2209.76
839.43	2467.60
839.61	2679.77
839.79	4534.82
839.97	6936.67
840.15	8207.23
840.33	9095.23
840.51	9731.74
840.69	9560.94
840.87	7795.59
841.05	6753.59
841.23	7479.80
841.41	9914.42
841.59	14295.44
841.77	16054.44
841.95	17562.77
842.13	18916.06
842.31	18141.52
842.49	14350.32
842.67	11914.06
842.85	11868.59
843.03	10189.05
843.21	9502.98
843.39	8718.00
843.57	7901.88
843.75	7105.02
843.93	5866.82
844.11	5245.05
844.29	4923.93
844.47	4466.62
844.65	4108.43
844.83	3589.27
845.01	3295.39
845.19	3162.68
845.36	2571.22
845.54	2393.46
845.72	2413.12
845.90	2435.24
846.08	2023.80
846.26	2098.76
846.44	2295.77
846.62	2291.47
846.80	2139.31
846.98	1949.05
847.16	2128.04
847.34	2235.15
847.52	1943.32
847.70	1859.97
847.88	2140.95
848.06	2419.68
848.24	2087.70
848.41	1894.17
848.59	2354.75
848.77	2236.18
848.95	1950.08
849.13	1905.02
849.31	2265.67
849.49	2197.06
849.67	1914.65
849.85	1890.07
850.03	2231.26
850.21	2219.79
850.39	1881.67
850.57	2077.25
850.74	2439.13
850.92	2617.51
851.10	2958.29
851.28	3794.48
851.46	4679.81
851.64	5431.62
851.82	5146.14
852.00	5229.69
852.18	4924.96
852.36	4238.68
852.53	3925.75
852.71	3715.83
852.89	3771.33
853.07	3617.33
853.25	3144.86
853.43	2936.58
853.61	3057.21
853.79	2916.92
853.97	2478.66
854.14	2432.58
854.32	2782.78
854.50	2611.16
854.68	2201.98
854.86	2128.25
855.04	2118.21
855.22	2353.12
855.40	1870.41
855.57	1935.13
855.75	2290.45
855.93	2221.84
856.11	1810.81
856.29	1951.51
856.47	2007.62
856.65	2197.88
856.82	1863.04
857.00	1830.88
857.18	2087.70
857.36	2026.26
857.54	2041.82
857.72	2108.18
857.89	2261.16
858.07	2160.20
858.25	2124.97
858.43	1837.44
858.61	2093.84
858.79	2136.03
858.97	1865.90
859.14	2030.56
859.32	2115.14
859.50	2069.88
859.68	2011.92
859.86	1904.61
860.03	2186.21
860.21	2262.60
860.39	1944.75
860.57	2120.06
860.75	2220.41
860.93	2503.44
861.10	2146.89
861.28	1904.41
861.46	2226.35
861.64	2237.41
861.82	1958.27
861.99	2063.53
862.17	2324.44
862.35	2344.11
862.53	1996.16
862.71	1964.21
862.88	2221.23
863.06	2269.15
863.24	1941.68
863.42	1903.79
863.60	2125.38
863.77	2248.67
863.95	1807.54
864.13	1928.78
864.31	2066.81
864.49	2267.31
864.66	1882.70
864.84	1888.43
865.02	2192.35
865.20	2621.40
865.37	2048.38
865.55	1911.16
865.73	2039.78
865.91	2502.00
866.09	2446.30
866.26	2414.56
866.44	2780.12
866.62	2621.60
866.80	2323.63
866.97	2279.80
867.15	2445.68
867.33	2450.60
867.51	2281.23
867.68	2199.11
867.86	2236.18
868.04	2198.08
868.22	1864.27
868.39	2015.41
868.57	2303.96
868.75	2502.21
868.93	1899.29
869.10	1976.90
869.28	2519.00
869.46	2425.61
869.64	1972.40
869.81	1951.71
869.99	2171.46
870.17	2146.27
870.35	1893.35
870.52	1946.59
870.70	2299.87
870.88	2028.10
871.05	1882.29
871.23	1759.41
871.41	2138.28
871.59	2126.41
871.76	1899.08
871.94	1833.96
872.12	2115.35
872.29	1896.21
872.47	1911.98
872.65	1837.64
872.83	2164.70
873.00	2389.37
873.18	1932.26
873.36	1882.49
873.53	2287.79
873.71	1885.56
873.89	1813.07
874.06	1909.94
874.24	2180.06
874.42	2372.37
874.60	2050.02
874.77	1995.54
874.95	2018.48
875.13	2305.19
875.30	1912.39
875.48	1863.65
875.66	2419.47
875.83	2030.36
876.01	1914.24
876.19	2018.68
876.36	1958.06
876.54	2159.58
876.72	1864.27
876.89	2043.46
877.07	2249.28
877.25	1827.20
877.42	1959.09
877.60	1925.50
877.78	2458.59
877.95	2057.59
878.13	1855.66
878.31	2035.68
878.48	2286.76
878.66	2265.67
878.84	1916.90
879.01	1937.17
879.19	2200.54
879.37	2250.31
879.54	1925.71
879.72	1802.42
879.90	1806.72
880.07	2285.33
880.25	1674.01
880.42	2067.63
880.60	2198.70
880.78	2249.49
880.95	1904.82
881.13	1968.51
881.31	2125.18
881.48	2042.03
881.66	1852.39
881.83	2006.80
882.01	1997.59
882.19	1920.79
882.36	1969.94
882.54	1893.96
882.72	2266.90
882.89	2142.18
883.07	1878.19
883.24	1903.79
883.42	2268.13
883.60	2151.80
883.77	1825.97
883.95	1961.34
884.12	2278.16
884.30	2176.58
884.48	2058.21
884.65	1944.14
884.83	2146.68
885.00	2157.13
885.18	1814.71
885.36	1904.41
885.53	2246.42
885.71	2370.73
885.88	1831.09
886.06	1897.03
886.23	2247.24
886.41	2060.05
886.59	1903.79
886.76	1834.78
886.94	2217.75
887.11	2575.12
887.29	1937.38
887.47	1854.23
887.64	2346.36
887.82	2390.59
887.99	1764.12
888.17	1965.44
888.34	2064.97
888.52	1947.00
888.69	1903.79
888.87	1835.59
889.05	2086.06
889.22	2045.31
889.40	1874.10
889.57	2112.07
889.75	2386.29
889.92	2064.97
890.10	1836.41
890.27	1960.93
890.45	2021.75
890.62	1864.47
890.80	1825.35
890.98	1754.70
891.15	2406.36
891.33	2290.24
891.50	1873.69
891.68	1785.62
891.85	2268.13
892.03	2264.23
892.20	1850.75
892.38	1842.15
892.55	2234.74
892.73	2275.29
892.90	1747.33
893.08	1879.22
893.25	2017.25
893.43	2046.54
893.60	1947.00
893.78	1733.20
893.95	2189.69
894.13	2127.84
894.30	1880.04
894.48	1908.91
894.65	2256.66
894.83	2163.68
895.00	1739.54
895.18	1711.28
895.35	2278.98
895.53	2243.96
895.70	1810.61
895.88	2010.29
896.05	2207.71
896.23	1894.99
896.40	1882.90
896.58	1942.29
896.75	2231.88
896.93	2393.26
897.10	1927.75
897.28	1790.74
897.45	2166.55
897.63	2213.24
897.80	1981.82
897.98	1875.32
898.15	2211.60
898.33	2035.27
898.50	1923.04
898.67	1890.89
898.85	2117.60
899.02	2230.44
899.20	2150.78
899.37	1911.98
899.55	2140.13
899.72	2373.60
899.90	1869.18
900.07	1839.69
900.25	2201.16
900.42	2345.95
900.59	1860.78
900.77	2010.49
900.94	2230.03
901.12	2208.53
901.29	1892.12
901.47	2059.23
901.64	2228.19
901.82	2111.87
901.99	1693.67
902.16	1865.29
902.34	2335.91
902.51	2167.57
902.69	1888.02
902.86	1937.79
903.03	2799.16
903.21	2128.45
903.38	1893.35
903.56	1867.34
903.73	2294.95
903.91	2073.98
904.08	1816.96
904.25	1741.39
904.43	1998.82
904.60	2268.74
904.78	1874.71
904.95	1847.06
905.12	2097.73
905.30	2433.40
905.47	1974.04
905.65	2061.69
905.82	2106.34
905.99	2197.06
906.17	1894.37
906.34	1871.43
906.52	1976.29
906.69	2252.56
906.86	2004.14
907.04	1973.01
907.21	2321.17
907.38	2326.49
907.56	1859.76
907.73	1851.57
907.91	2387.93
908.08	2338.99
908.25	1911.16
908.43	1806.92
908.60	2223.68
908.77	2183.13
908.95	1933.90
909.12	1834.78
909.30	2272.84
909.47	1891.09
909.64	1945.78
909.82	2119.44
909.99	2115.35
910.16	2164.91
910.34	1883.11
910.51	1918.54
910.68	2196.24
910.86	2184.16
911.03	2026.67
911.20	2798.34
911.38	5247.10
911.55	8429.85
911.72	9811.00
911.90	11034.66
912.07	12140.56
912.24	11696.15
912.42	8868.32
912.59	6355.67
912.76	6094.55
912.94	5044.97
913.11	4369.14
913.28	3922.47
913.46	3753.72
913.63	3734.88
913.80	3676.72
913.98	3190.12
914.15	3476.43
914.32	3415.81
914.49	3003.35
914.67	2780.94
914.84	3108.41
915.01	3174.56
915.19	2818.00
915.36	2555.25
915.53	2852.82
915.71	2627.75
915.88	2262.19
916.05	2060.87
916.22	2435.44
916.40	2261.37
916.57	1872.87
916.74	2094.25
916.92	2446.50
917.09	1973.22
917.26	1879.01
917.43	1818.39
917.61	2064.56
917.78	1867.95
917.95	1830.27
918.13	1811.22
918.30	2542.35
918.47	2166.34
918.64	1900.11
918.82	1842.76
918.99	2133.98
919.16	2457.97
919.33	1962.77
919.51	1964.82
919.68	2145.04
919.85	2351.89
920.02	1818.60
920.20	1939.22
920.37	2427.05
920.54	2290.04
920.71	1871.02
920.89	1892.12
921.06	2463.71
921.23	2057.59
921.40	2036.91
921.58	2655.40
921.75	3835.23
921.92	3351.50
922.09	3463.12
922.27	3458.00
922.44	3525.17
922.61	3138.51
922.78	2470.26
922.96	2394.49
923.13	2492.79
923.30	2633.07
923.47	2086.88
923.64	2144.02
923.82	2473.95
923.99	2390.59
924.16	2189.28
924.33	2033.02
924.50	2285.94
924.68	2558.12
924.85	1995.75
925.02	2061.08
925.19	2419.88
925.36	2288.40
925.54	2031.79
925.71	2066.61
925.88	2774.59
926.05	2133.37
926.22	1866.52
926.40	1995.13
926.57	2175.76
926.74	2226.35
926.91	1859.15
927.08	2038.75
927.26	2318.10
927.43	2156.72
927.60	1862.01
927.77	1914.24
927.94	2418.24
928.11	2329.77
928.29	1760.43
928.46	1966.66
928.63	2016.23
928.80	2096.71
928.97	1993.90
929.14	1859.15
929.32	2523.30
929.49	2132.55
929.66	1823.51
929.83	1786.03
930.00	2046.94
930.17	2193.99
930.35	1809.18
930.52	1875.32
930.69	2390.18
930.86	1930.21
931.03	1915.06
931.20	1688.96
931.37	2321.37
931.55	2093.02
931.72	1907.89
931.89	1782.76
932.06	1956.01
932.23	2412.71
932.40	1997.18
932.57	1984.07
932.74	2333.05
932.92	2318.10
933.09	2050.43
933.26	1629.36
933.43	2071.73
933.60	2164.70
933.77	1949.46
933.94	1973.83
934.11	2057.80
934.29	2152.42
934.46	1829.45
934.63	1997.18
934.80	1975.06
934.97	2169.41
935.14	1980.39
935.31	1783.78
935.48	2080.94
935.65	2215.49
935.82	1934.92
936.00	1786.85
936.17	2423.77
936.34	2106.54
936.51	1963.18
936.68	1807.54
936.85	2175.35
937.02	2150.98
937.19	1996.56
937.36	1907.07
937.53	2204.84
937.70	2291.68
937.87	1875.94
938.05	1995.95
938.22	2151.80
938.39	1968.51
938.56	1906.04
938.73	1773.13
938.90	2074.80
939.07	2017.25
939.24	1981.00
939.41	1725.62
939.58	2205.87
939.75	2218.77
939.92	1853.82
940.09	2153.03
940.26	2067.42
940.43	2277.75
940.60	1933.28
940.77	1872.25
940.95	2199.72
941.12	2228.80
941.29	1875.73
941.46	1900.52
941.63	2293.11
941.80	2352.30
941.97	1758.39
942.14	1743.44
942.31	2252.36
942.48	2064.76
942.65	1999.23
942.82	1907.48
942.99	2212.42
943.16	2149.14
943.33	1780.09
943.50	1854.23
943.67	2275.09
943.84	2303.56
944.01	1861.60
944.18	1845.22
944.35	2349.22
944.52	1982.43
944.69	1966.05
944.86	1773.34
945.03	2224.30
945.20	2551.36
945.37	1730.74
945.54	1913.42
945.71	2349.63
945.88	2421.93
946.05	1826.17
946.22	1804.26
946.39	2364.58
946.56	2110.84
946.73	1752.86
946.90	1789.31
947.07	2030.56
947.24	2081.15
947.41	1716.20
947.58	1974.45
947.75	2241.91
947.92	2181.29
948.09	1686.30
948.26	1737.91
948.43	2156.92
948.60	2442.00
948.77	1803.03
948.94	1868.57
949.11	2250.10
949.27	2181.91
949.44	1843.17
949.61	1768.42
949.78	2172.28
949.95	2330.59
950.12	1748.35
950.29	1754.29
950.46	2028.72
950.63	2300.89
950.80	1830.47
950.97	1836.21
951.14	2307.45
951.31	2088.52
951.48	1793.20
951.65	1789.31
951.82	2448.35
951.99	2146.68
952.15	1784.40
952.32	1857.51
952.49	2013.36
952.66	2022.78
952.83	1852.59
953.00	1815.11
953.17	2100.81
953.34	2247.24
953.51	1907.89
953.68	1890.28
953.85	2323.63
954.02	2313.80
954.18	1895.60
954.35	1886.79
954.52	1979.98
954.69	2144.43
954.86	1731.97
955.03	1915.67
955.20	2243.14
955.37	2108.38
955.54	1845.22
955.71	1820.23
955.87	2197.68
956.04	2435.65
956.21	1836.41
956.38	1803.44
956.55	2114.53
956.72	2566.10
956.89	1924.89
957.06	1795.86
957.23	2005.17
957.39	2338.37
957.56	1867.54
957.73	1770.47
957.90	1778.46
958.07	2458.59
958.24	1872.87
958.41	1872.66
958.57	2260.75
958.74	2122.11
958.91	1783.37
959.08	1808.77
959.25	2221.64
959.42	2088.31
959.59	1874.92
959.75	1870.21
959.92	2341.65
960.09	2304.99
960.26	1835.39
960.43	1927.55
960.60	2183.13
960.76	2074.80
960.93	1743.03
961.10	1924.48
961.27	2311.54
961.44	2075.82
961.61	1763.92
961.77	1744.66
961.94	2181.09
962.11	2258.30
962.28	1828.84
962.45	1765.76
962.62	2084.01
962.78	2276.52
962.95	1740.36
963.12	1831.29
963.29	2218.56
963.46	2634.51
963.62	1939.22
963.79	1837.44
963.96	2578.19
964.13	2075.41
964.30	1949.46
964.46	1867.54
964.63	2015.82
964.80	2724.21
964.97	1987.35
965.14	2455.31
965.30	2722.57
965.47	2847.91
965.64	2604.40
965.81	2539.28
965.98	2843.60
966.14	2510.81
966.31	2114.32
966.48	2070.91
966.65	2576.96
966.81	2424.80
966.98	2061.49
967.15	2052.68
967.32	2258.50
967.49	2144.43
967.65	1861.19
967.82	1830.47
967.99	2207.71
968.16	1975.47
968.32	2128.86
968.49	1951.10
968.66	2203.20
968.83	2499.75
968.99	2038.55
969.16	1900.31
969.33	2427.66
969.50	2295.16
969.66	2021.14
969.83	2156.31
970.00	2323.63
970.17	2234.13
970.33	1898.26
970.50	1765.76
970.67	2403.70
970.84	2380.35
971.00	1779.89
971.17	1743.64
971.34	2219.18
971.50	2114.53
971.67	1939.22
971.84	1876.55
972.01	1948.44
972.17	1780.91
972.34	1751.83
972.51	2015.61
972.67	2335.30
972.84	2182.32
973.01	1803.24
973.18	1864.88
973.34	2269.76
973.51	1955.61
973.68	1866.52
973.84	1893.35
974.01	2059.64
974.18	2405.54
974.34	1929.19
974.51	1957.04
974.68	1984.07
974.85	2457.36
975.01	1988.37
975.18	1842.76
975.35	2088.93
975.51	2007.01
975.68	1739.95
975.85	2015.00
976.01	2019.30
976.18	2350.45
976.35	1859.76
976.51	1891.09
976.68	2438.52
976.85	2316.66
977.01	1886.18
977.18	1944.34
977.35	2217.95
977.51	1932.05
977.68	1726.64
977.85	1820.23
978.01	2360.08
978.18	2277.14
978.35	1988.17
978.51	1971.37
978.68	2350.25
978.85	2473.33
979.01	1945.57
979.18	1907.07
979.34	2139.10
979.51	2172.89
979.68	1830.27
979.84	1922.02
980.01	2628.36
980.18	2186.21
980.34	1832.52
980.51	1941.27
980.67	2304.99
980.84	2279.80
981.01	1864.06
981.17	1916.08
981.34	1837.03
981.51	2250.72
981.67	1817.78
981.84	1951.30
982.00	2209.76
982.17	2114.94
982.34	1714.56
982.50	1595.16
982.67	2418.45
982.83	2034.66
983.00	1747.94
983.17	1640.63
983.33	2325.26
983.50	1857.92
983.66	1733.20
983.83	1650.87
984.00	2069.47
984.16	2097.32
984.33	1650.46
984.49	1655.17
984.66	1945.78
984.83	2257.27
984.99	1681.59
985.16	1622.81
985.32	2233.11
985.49	2267.10
985.65	1773.34
985.82	1643.70
985.99	2380.56
986.15	2153.44
986.32	1774.56
986.48	1686.09
986.65	2036.70
986.81	2240.27
986.98	1660.29
987.14	1734.22
987.31	2174.12
987.48	1855.87
987.64	1564.03
987.81	1613.39
987.97	2509.79
988.14	1969.74
988.30	1659.06
988.47	1549.29
988.63	2164.70
988.80	1937.79
988.96	1729.51
989.13	1772.72
989.30	2085.65
989.46	2275.29
989.63	1617.08
989.79	1627.73
989.96	2091.18
990.12	2388.14
990.29	1659.67
990.45	1709.03
990.62	2091.39
990.78	2341.65
990.95	1776.00
991.11	1696.54
991.28	2028.51
991.44	2162.45
991.61	1561.99
991.77	1730.33
991.94	2187.44
992.10	2309.08
992.27	1723.16
992.43	1717.02
992.60	2223.07
992.76	2022.78
992.93	1878.81
993.09	1611.14
993.26	2298.03
993.42	2456.54
993.59	1680.97
993.75	1606.84
993.92	1960.93
994.08	1991.85
994.25	1747.33
994.41	1660.70
994.58	2230.44
994.74	2362.95
994.91	1592.91
995.07	1768.83
995.24	2092.61
995.40	2094.05
995.56	1797.30
995.73	1793.41
995.89	2435.03
996.06	2090.16
996.22	1650.05
996.39	1577.96
996.55	2096.30
996.72	2198.29
996.88	1626.50
997.05	1623.02
997.21	2472.31
997.37	2212.83
997.54	1764.73
997.70	1707.19
997.87	2190.10
998.03	2109.61
998.20	1558.91
998.36	1596.60
998.52	2227.58
998.69	2293.11
998.85	1600.90
999.02	1707.80
999.18	2284.30
999.35	2253.18
999.51	1732.79
999.67	1712.92
999.84	1950.28
1000.00	2230.65
1000.17	1784.80
1000.33	1662.95
1000.49	2037.73
1000.66	2094.87
1000.82	1663.97
1000.99	1709.03
1001.15	2336.12
1001.31	2052.88
1001.48	1675.24
1001.64	1754.90
1001.81	2071.73
1001.97	2480.50
1002.13	1689.37
1002.30	1712.72
1002.46	2376.46
1002.63	2059.85
1002.79	1771.70
1002.95	1669.71
1003.12	2304.17
1003.28	2192.56
1003.45	1640.83
1003.61	1619.33
1003.77	2152.82
1003.94	1878.19
1004.10	1696.33
1004.26	1755.31
1004.43	2235.36
1004.59	2414.96
1004.75	1646.57
1004.92	1631.21
1005.08	2040.60
1005.25	2169.21
1005.41	1668.48
1005.57	1763.92
1005.74	2334.48
1005.90	2054.11
1006.06	1840.92
1006.23	1668.07
1006.39	2241.50
1006.55	2596.82
1006.72	1823.31
1006.88	1629.36
1007.04	1975.88
1007.21	2061.89
1007.37	1700.02
1007.53	1689.78
1007.70	2379.94
1007.86	2250.10
1008.02	1786.44
1008.19	1640.63
1008.35	2182.52
1008.51	1987.35
1008.68	1699.40
1008.84	1626.91
1009.00	1977.52
1009.17	2318.92
1009.33	1890.48
1009.49	1785.42
1009.65	1984.89
1009.82	2191.74
1009.98	1778.46
1010.14	1601.10
1010.31	2209.35
1010.47	2188.46
1010.63	1744.87
1010.80	1700.84
1010.96	2186.62
1011.12	2069.27
1011.28	1695.92
1011.45	1657.63
1011.61	2589.04
1011.77	1958.88
1011.94	1663.97
1012.10	1647.18
1012.26	1930.21
1012.42	2040.80
1012.59	1744.05
1012.75	1680.97
1012.91	2067.83
1013.07	2275.50
1013.24	1648.21
1013.40	1668.89
1013.56	2149.14
1013.72	2114.94
1013.89	1736.27
1014.05	1770.67
1014.21	2445.27
1014.37	2579.42
1014.54	1712.51
1014.70	1638.99
1014.86	2086.27
1015.02	1939.02
1015.19	1703.30
1015.35	1641.86
1015.51	2066.40
1015.67	2074.59
1015.84	1676.06
1016.00	1691.01
1016.16	2298.64
1016.32	2252.56
1016.49	1680.36
1016.65	1635.10
1016.81	2105.31
1016.97	2194.81
1017.14	1807.54
1017.30	1697.97
1017.46	2006.19
1017.62	2158.56
1017.78	1763.30
1017.95	1659.26
1018.11	2243.96
1018.27	2525.15
1018.43	1850.95
1018.59	1762.28
1018.76	2257.48
1018.92	2589.66
1019.08	1648.61
1019.24	1680.97
1019.40	2361.51
1019.57	2173.10
1019.73	1792.18
1019.89	1683.43
1020.05	2175.35
1020.21	2481.32
1020.38	1650.66
1020.54	1850.13
1020.70	2216.31
1020.86	2220.00
1021.02	1672.58
1021.18	1656.40
1021.35	2030.77
1021.51	2174.33
1021.67	1855.46
1021.83	1717.63
1021.99	2117.60
1022.15	2167.37
1022.32	1740.57
1022.48	1719.06
1022.64	2357.83
1022.80	2386.91
1022.96	1766.78
1023.12	1616.46
1023.29	2323.01
1023.45	2205.46
1023.61	1676.67
1023.77	1916.08
1023.93	2122.11
1024.09	1995.34
1024.25	1655.78
1024.42	1599.87
1024.58	2046.54
1024.74	2166.75
1024.90	1710.46
1025.06	1753.27
1025.22	2018.27
1025.38	2408.00
1025.54	1620.35
1025.71	1768.42
1025.87	2224.50
1026.03	2197.88
1026.19	1655.78
1026.35	1878.81
1026.51	2231.88
1026.67	2125.79
1026.83	1748.56
1026.99	1839.69
1027.16	2208.12
1027.32	2090.57
1027.48	1688.96
1027.64	1668.07
1027.80	2236.79
1027.96	2151.80
1028.12	1704.11
1028.28	1672.99
1028.44	2164.50
1028.60	2399.40
1028.77	1818.60
1028.93	1748.35
1029.09	2040.39
1029.25	1936.35
1029.41	1732.58
1029.57	1785.42
1029.73	2163.68
1029.89	2402.88
1030.05	1808.97
1030.21	1768.42
1030.37	2514.50
1030.53	2218.97
1030.69	1729.92
1030.85	1620.76
1031.02	1964.21
1031.18	2128.66
1031.34	1689.57
1031.50	1776.41
1031.66	1984.69
1031.82	2363.56
1031.98	1733.81
1032.14	1653.53
1032.30	1978.54
1032.46	2235.56
1032.62	1841.94
1032.78	1608.27
1032.94	2006.60
1033.10	2064.15
1033.26	1749.99
1033.42	1862.83
1033.58	2495.25
1033.74	2019.71
1033.90	1684.25
1034.06	1862.83
1034.22	2501.39
1034.38	2324.03
1034.54	1742.82
1034.70	1753.68
1034.86	2449.37
>>>>>End Processed Spectral Data<<<<<
