SpectraSuite Data File
++++++++++++++++++++++++++++++++++++
Date: Thu Mar 30 16:25:20 PDT 2017
User: UCSD _CER
Dark Spectrum Present: No
Reference Spectrum Present: No
Number of Sampled Component Spectra: 1
Spectrometers: USB4C00073
Integration Time (usec): 250000 (USB4C00073)
Spectra Averaged: 10 (USB4C00073)
Boxcar Smoothing: 0 (USB4C00073)
Correct for Electrical Dark: No (USB4C00073)
Strobe/Lamp Enabled: No (USB4C00073)
Correct for Detector Non-linearity: No (USB4C00073)
Correct for Stray Light: No (USB4C00073)
Number of Pixels in Processed Spectrum: 3648
>>>>>Begin Processed Spectral Data<<<<<
345.37	1266.87
345.58	1266.87
345.80	1266.87
346.01	1266.87
346.22	1288.58
346.43	2006.39
346.65	1787.26
346.86	2127.84
347.07	2101.01
347.28	1805.69
347.50	1800.37
347.71	1907.68
347.92	1724.80
348.13	1813.48
348.35	1737.91
348.56	1922.63
348.77	1764.94
348.98	1813.68
349.20	1671.35
349.41	1923.45
349.62	2004.35
349.83	1870.21
350.05	1761.25
350.26	1945.98
350.47	2103.47
350.68	1765.76
350.90	1726.44
351.11	2081.76
351.32	2070.50
351.53	1814.71
351.75	1736.06
351.96	1960.32
352.17	1874.71
352.38	1873.69
352.60	1857.30
352.81	1908.30
353.02	2127.43
353.23	1773.95
353.44	1797.09
353.66	1850.75
353.87	1860.99
354.08	1895.60
354.29	1830.06
354.51	1839.49
354.72	1879.83
354.93	1797.09
355.14	1718.86
355.35	1712.51
355.57	2024.42
355.78	1813.48
355.99	1861.19
356.20	1930.01
356.42	1901.95
356.63	1893.35
356.84	1834.98
357.05	2009.06
357.26	2196.65
357.48	1861.81
357.69	1840.10
357.90	1935.94
358.11	1854.23
358.32	1788.49
358.54	1836.82
358.75	1843.79
358.96	2017.86
359.17	1790.54
359.38	1800.37
359.60	2003.53
359.81	1877.58
360.02	1823.10
360.23	1770.47
360.44	1820.64
360.66	2054.93
360.87	1760.02
361.08	1740.98
361.29	1965.44
361.50	1931.44
361.72	1783.17
361.93	1848.09
362.14	1944.96
362.35	1740.77
362.56	1885.97
362.77	1751.42
362.99	2007.42
363.20	1927.96
363.41	1888.43
363.62	1721.11
363.83	1984.48
364.05	2001.28
364.26	1712.92
364.47	1758.39
364.68	2051.66
364.89	1834.16
365.10	1727.26
365.32	1839.08
365.53	1815.93
365.74	1857.92
365.95	1786.03
366.16	1713.13
366.37	1880.65
366.59	1903.79
366.80	1815.11
367.01	1657.83
367.22	2175.97
367.43	2281.64
367.64	1819.21
367.86	1795.25
368.07	1992.26
368.28	2050.43
368.49	1734.22
368.70	1845.02
368.91	1869.39
369.12	1906.86
369.34	1697.36
369.55	1730.12
369.76	1898.06
369.97	1864.88
370.18	1740.77
370.39	1739.14
370.60	1741.80
370.82	1806.51
371.03	1774.36
371.24	1747.53
371.45	1983.05
371.66	1990.42
371.87	1804.26
372.08	1770.47
372.30	1760.84
372.51	2021.14
372.72	1907.48
372.93	1745.28
373.14	2100.40
373.35	1829.25
373.56	1741.80
373.78	1815.11
373.99	2022.16
374.20	2268.53
374.41	1783.78
374.62	1800.98
374.83	2097.94
375.04	1872.25
375.25	1808.36
375.47	1737.91
375.68	1852.59
375.89	1983.25
376.10	1789.92
376.31	1904.20
376.52	1983.87
376.73	1944.75
376.94	1824.74
377.15	1785.42
377.37	1944.14
377.58	1884.75
377.79	1697.97
378.00	1741.39
378.21	1933.28
378.42	1978.75
378.63	1820.03
378.84	1878.81
379.05	2023.80
379.27	1914.65
379.48	1900.92
379.69	1766.78
379.90	2058.21
380.11	1680.97
380.32	1811.84
380.53	1873.48
380.74	2059.64
380.95	1917.72
381.16	1794.43
381.37	1800.37
381.59	2117.19
381.80	1992.88
382.01	1776.82
382.22	1708.01
382.43	1953.76
382.64	1933.49
382.85	1733.81
383.06	1839.49
383.27	1983.87
383.48	1883.52
383.69	1840.30
383.91	1718.45
384.12	1979.36
384.33	1944.14
384.54	1790.13
384.75	1691.83
384.96	2297.21
385.17	2005.78
385.38	1751.22
385.59	1784.60
385.80	1989.40
386.01	2102.44
386.22	1867.54
386.43	1802.01
386.64	2178.01
386.86	1867.95
387.07	1907.68
387.28	1693.26
387.49	1856.07
387.70	2040.19
387.91	1862.42
388.12	1732.58
388.33	1960.93
388.54	1863.65
388.75	1783.99
388.96	1843.58
389.17	1840.51
389.38	1890.07
389.59	1876.14
389.80	1825.76
390.01	1902.97
390.22	1848.70
390.43	1907.07
390.64	1696.54
390.86	1947.82
391.07	2031.79
391.28	1797.50
391.49	1865.09
391.70	1755.93
391.91	1805.28
392.12	1811.84
392.33	1774.56
392.54	1938.40
392.75	1877.99
392.96	1868.98
393.17	1748.15
393.38	2186.00
393.59	2052.68
393.80	1739.14
394.01	1844.40
394.22	1940.25
394.43	2201.98
394.64	1807.13
394.85	1974.86
395.06	1952.12
395.27	1954.38
395.48	1808.77
395.69	1761.05
395.90	1873.69
396.11	1890.68
396.32	1766.99
396.53	1899.90
396.74	1862.63
396.95	2008.65
397.16	1774.77
397.37	1686.30
397.58	2016.23
397.79	1917.10
398.00	1836.21
398.21	1794.43
398.42	1950.49
398.63	2169.62
398.84	1821.46
399.05	1766.58
399.26	2075.82
399.47	1950.90
399.68	1642.06
399.89	1749.17
400.10	1779.07
400.31	1834.37
400.52	1825.97
400.73	1795.86
400.94	1721.11
401.15	1945.98
401.36	1793.00
401.57	1856.69
401.78	2033.02
401.99	2053.29
402.20	1730.53
402.41	1926.32
402.62	2103.88
402.83	1881.88
403.04	1769.45
403.25	1930.62
403.46	1970.97
403.67	2150.98
403.88	1866.72
404.09	1878.81
404.30	1918.74
404.51	1891.71
404.72	1796.27
404.93	1921.40
405.14	1839.49
405.35	1910.55
405.56	1808.15
405.77	1802.83
405.98	1907.68
406.19	1900.72
406.40	1744.25
406.61	1785.83
406.82	1840.10
407.03	2167.57
407.24	1719.68
407.45	1830.06
407.66	1944.34
407.87	2043.87
408.08	1883.72
408.29	1862.63
408.49	1966.25
408.70	1848.70
408.91	1801.39
409.12	1875.53
409.33	1791.77
409.54	2068.65
409.75	1786.65
409.96	1787.47
410.17	2005.17
410.38	1878.81
410.59	1772.72
410.80	1884.75
411.01	1909.12
411.22	1881.88
411.43	1858.33
411.64	1777.02
411.85	1816.34
412.06	1815.73
412.27	1611.34
412.47	1783.78
412.68	1892.32
412.89	1963.18
413.10	1778.25
413.31	1686.50
413.52	2117.80
413.73	2149.96
413.94	1758.59
414.15	1919.77
414.36	1848.29
414.57	1821.05
414.78	1756.54
414.99	2013.15
415.19	2478.86
415.40	2528.22
415.61	2594.78
415.82	2466.16
416.03	2483.78
416.24	2301.71
416.45	2055.34
416.66	1907.48
416.87	1786.85
417.08	2020.94
417.29	1802.83
417.50	1927.75
417.70	2049.81
417.91	2090.36
418.12	1974.45
418.33	2023.80
418.54	2208.12
418.75	2338.78
418.96	2336.73
419.17	2491.76
419.38	2925.11
419.59	2889.48
419.79	2725.44
420.00	2638.19
420.21	2861.63
420.42	2252.15
420.63	2027.49
420.84	2005.17
421.05	1958.06
421.26	1924.07
421.47	1764.53
421.67	2065.79
421.88	1777.23
422.09	1754.49
422.30	1968.30
422.51	1772.52
422.72	2117.80
422.93	1956.42
423.14	1799.75
423.35	1704.32
423.55	1710.46
423.76	1783.37
423.97	1838.26
424.18	1704.11
424.39	1886.59
424.60	2046.74
424.81	1872.46
425.02	2004.14
425.22	2069.88
425.43	2077.05
425.64	2219.79
425.85	2173.10
426.06	2478.86
426.27	2327.52
426.48	2285.33
426.68	2259.73
426.89	2394.08
427.10	2441.18
427.31	2078.28
427.52	1899.90
427.73	2089.95
427.94	1981.41
428.14	1909.73
428.35	1844.81
428.56	2091.18
428.77	2018.48
428.98	1920.99
429.19	1972.40
429.40	2048.17
429.60	2098.55
429.81	2156.31
430.02	2078.07
430.23	2024.01
430.44	2087.08
430.65	1853.62
430.85	1898.06
431.06	2000.66
431.27	1737.91
431.48	1825.35
431.69	1855.66
431.90	1890.89
432.10	1919.77
432.31	1862.83
432.52	1847.88
432.73	2417.22
432.94	2370.11
433.15	2189.48
433.35	2089.13
433.56	2274.88
433.77	2073.16
433.98	2020.32
434.19	1907.48
434.40	1978.95
434.60	1938.40
434.81	1837.44
435.02	1881.26
435.23	1899.08
435.44	1842.97
435.64	1676.26
435.85	1757.16
436.06	1873.28
436.27	1822.08
436.48	1728.49
436.68	1761.05
436.89	2116.99
437.10	1940.45
437.31	1831.91
437.52	1917.10
437.73	1915.47
437.93	1899.29
438.14	1872.05
438.35	1696.95
438.56	1852.39
438.77	1883.52
438.97	1922.22
439.18	1745.89
439.39	2023.39
439.60	1736.06
439.80	1710.26
440.01	1821.05
440.22	1826.58
440.43	1981.00
440.64	1695.92
440.84	1829.66
441.05	1785.62
441.26	2217.75
441.47	1818.39
441.68	1767.40
441.88	1843.58
442.09	1883.52
442.30	1966.46
442.51	1840.51
442.71	1834.98
442.92	1928.98
443.13	1756.95
443.34	1743.64
443.55	1776.61
443.75	1965.85
443.96	1749.17
444.17	1720.09
444.38	2056.78
444.58	1797.30
444.79	1897.03
445.00	1822.69
445.21	1885.56
445.41	1883.52
445.62	1594.34
445.83	1886.59
446.04	1899.90
446.24	1742.00
446.45	1638.99
446.66	1806.51
446.87	1941.47
447.07	1840.10
447.28	1943.11
447.49	1824.54
447.70	2022.98
447.90	2025.65
448.11	1804.26
448.32	1881.88
448.53	2071.73
448.73	2061.08
448.94	1833.34
449.15	1924.89
449.36	1904.82
449.56	1941.88
449.77	1812.25
449.98	1720.09
450.19	1878.60
450.39	1935.13
450.60	1974.24
450.81	1945.57
451.02	2018.27
451.22	2162.25
451.43	1844.20
451.64	1859.76
451.84	1918.95
452.05	2137.46
452.26	1888.02
452.47	1850.13
452.67	1890.07
452.88	2086.68
453.09	1781.32
453.30	1736.88
453.50	2004.14
453.71	2102.04
453.92	1802.62
454.12	1904.41
454.33	1821.26
454.54	1872.66
454.75	1735.86
454.95	1719.27
455.16	1935.94
455.37	1972.81
455.57	1845.83
455.78	1799.35
455.99	1883.31
456.19	1915.87
456.40	1730.12
456.61	1841.74
456.82	1892.12
457.02	1983.25
457.23	1856.48
457.44	1964.21
457.64	1845.63
457.85	1951.92
458.06	1826.58
458.26	2003.32
458.47	1895.19
458.68	2052.88
458.89	1739.95
459.09	2011.72
459.30	2221.02
459.51	1963.39
459.71	1757.57
459.92	1794.02
460.13	2028.92
460.33	2208.53
460.54	1796.07
460.75	1820.03
460.95	1781.12
461.16	1970.35
461.37	1801.60
461.57	1845.83
461.78	1907.48
461.99	1795.45
462.19	2039.78
462.40	1803.85
462.61	2221.43
462.81	2061.28
463.02	1787.47
463.23	1833.34
463.43	2000.66
463.64	1867.75
463.85	2761.48
464.05	1805.08
464.26	2323.22
464.47	2107.97
464.67	1969.53
464.88	1873.48
465.09	1801.39
465.29	1942.70
465.50	1940.25
465.71	1807.74
465.91	1850.34
466.12	1879.42
466.33	1881.26
466.53	1792.18
466.74	2084.63
466.94	1870.21
467.15	1837.85
467.36	2007.21
467.56	1797.30
467.77	1951.71
467.98	1869.18
468.18	1789.11
468.39	1832.11
468.60	2153.03
468.80	1840.92
469.01	1788.29
469.21	2003.53
469.42	2052.27
469.63	1867.54
469.83	1797.91
470.04	2083.40
470.25	2165.32
470.45	1922.02
470.66	1823.51
470.86	1967.69
471.07	1882.70
471.28	1915.67
471.48	1976.09
471.69	1936.56
471.90	2351.89
472.10	1830.27
472.31	1823.31
472.51	1834.98
472.72	1824.54
472.93	1755.52
473.13	1951.30
473.34	1949.26
473.54	1881.06
473.75	1838.26
473.96	1979.36
474.16	1893.14
474.37	1987.96
474.57	1917.92
474.78	1833.96
474.99	2013.15
475.19	1964.00
475.40	1820.85
475.60	1763.92
475.81	2119.65
476.02	1889.66
476.22	1900.11
476.43	2027.69
476.63	1935.13
476.84	2105.11
477.05	1725.62
477.25	1807.74
477.46	2312.36
477.66	1925.50
477.87	1703.71
478.08	1826.58
478.28	2044.90
478.49	1905.84
478.69	1766.17
478.90	1840.10
479.10	1973.01
479.31	2126.82
479.52	1882.70
479.72	1953.35
479.93	1962.57
480.13	1844.20
480.34	1799.55
480.54	1894.78
480.75	1796.27
480.96	2062.30
481.16	1798.94
481.37	1933.49
481.57	1999.43
481.78	1992.67
481.98	2014.38
482.19	1871.64
482.40	2156.92
482.60	1992.26
482.81	1926.52
483.01	1835.80
483.22	2068.24
483.42	2070.70
483.63	1974.24
483.83	1912.80
484.04	1877.78
484.24	2010.90
484.45	1914.03
484.66	1728.90
484.86	1959.70
485.07	1857.30
485.27	1887.61
485.48	1805.08
485.68	2058.82
485.89	1811.84
486.09	1909.32
486.30	1833.14
486.50	1928.16
486.71	1927.96
486.91	1951.71
487.12	2033.22
487.33	2233.92
487.53	2239.25
487.74	1987.35
487.94	1944.75
488.15	2062.92
488.35	2147.91
488.56	2015.82
488.76	1977.52
488.97	2040.19
489.17	2063.33
489.38	1915.47
489.58	1902.15
489.79	2004.76
489.99	1971.78
490.20	1889.46
490.40	1967.89
490.61	1982.43
490.81	1879.42
491.02	1866.31
491.22	1936.76
491.43	2016.23
491.63	1936.35
491.84	2000.46
492.04	1761.66
492.25	1984.69
492.45	1890.28
492.66	1821.67
492.86	1745.28
493.07	1888.23
493.27	2187.64
493.48	1716.61
493.68	1867.95
493.89	1918.33
494.09	2034.04
494.30	1831.70
494.50	2074.39
494.71	2006.39
494.91	1804.87
495.12	1913.42
495.32	2008.24
495.53	1995.75
495.73	1758.18
495.94	1856.48
496.14	1711.69
496.35	2139.10
496.55	1882.70
496.76	1824.13
496.96	1886.38
497.17	1915.67
497.37	1970.76
497.58	1828.43
497.78	1789.92
497.98	1903.79
498.19	1894.78
498.39	1898.06
498.60	1925.71
498.80	1752.65
499.01	2040.39
499.21	1799.14
499.42	1864.88
499.62	1876.96
499.83	2191.74
500.03	1731.97
500.24	1878.40
500.44	2101.63
500.64	2083.81
500.85	1825.15
501.05	1965.23
501.26	1749.17
501.46	2080.53
501.67	1789.72
501.87	1741.39
502.08	1795.45
502.28	1894.17
502.48	1945.78
502.69	2001.68
502.89	1783.99
503.10	1867.54
503.30	1914.24
503.51	1895.80
503.71	1782.55
503.92	2025.85
504.12	1949.05
504.32	1947.62
504.53	2096.51
504.73	2126.41
504.94	2075.00
505.14	2162.45
505.35	2173.92
505.55	2162.45
505.75	2071.11
505.96	2159.79
506.16	2293.73
506.37	1958.88
506.57	1871.23
506.78	1982.43
506.98	2117.60
507.18	1829.86
507.39	1820.23
507.59	1918.95
507.80	1879.83
508.00	1958.68
508.20	2074.80
508.41	1919.15
508.61	2112.89
508.82	2093.84
509.02	1959.29
509.22	1817.16
509.43	1780.71
509.63	1874.71
509.84	1872.46
510.04	1774.56
510.24	2087.08
510.45	1999.64
510.65	1759.00
510.86	1888.02
511.06	1809.79
511.26	2057.59
511.47	1969.74
511.67	1849.73
511.88	2028.51
512.08	2068.86
512.28	1780.09
512.49	1964.00
512.69	1945.78
512.90	1969.53
513.10	1820.64
513.30	1864.27
513.51	1973.63
513.71	2120.26
513.91	1928.78
514.12	1914.44
514.32	2054.52
514.53	1919.56
514.73	2065.99
514.93	1976.09
515.14	2085.45
515.34	2281.03
515.54	2152.21
515.75	2244.16
515.95	2380.15
516.15	2418.45
516.36	2128.25
516.56	2090.16
516.77	1774.36
516.97	2082.37
517.17	1953.35
517.38	2014.38
517.58	2207.30
517.78	2031.18
517.99	2181.50
518.19	2236.79
518.39	2502.00
518.60	2310.31
518.80	2153.64
519.00	2205.66
519.21	2051.86
519.41	2233.92
519.61	1912.39
519.82	1988.58
520.02	1984.07
520.22	1993.70
520.43	1947.62
520.63	1978.13
520.83	1908.50
521.04	1827.20
521.24	2116.58
521.44	2144.63
521.65	2210.17
521.85	2400.01
522.05	2182.32
522.26	2112.48
522.46	2328.95
522.66	2149.14
522.87	1944.34
523.07	2090.57
523.27	1932.05
523.48	2185.18
523.68	1995.75
523.88	1987.14
524.09	2128.25
524.29	2072.34
524.49	1869.39
524.70	2180.68
524.90	2317.69
525.10	2210.99
525.31	1956.42
525.51	1897.65
525.71	2093.64
525.91	2030.77
526.12	1858.53
526.32	1786.65
526.52	1893.96
526.73	1858.94
526.93	1945.78
527.13	1768.83
527.34	1925.91
527.54	1941.47
527.74	1871.02
527.94	1816.96
528.15	1828.63
528.35	1967.69
528.55	1979.16
528.76	1942.91
528.96	1752.86
529.16	2042.85
529.36	2006.19
529.57	1762.07
529.77	2074.80
529.97	1775.38
530.18	1965.44
530.38	1873.89
530.58	2022.57
530.78	1953.56
530.99	1841.33
531.19	1986.32
531.39	1867.34
531.60	1944.75
531.80	1866.11
532.00	2013.77
532.20	1944.34
532.41	1842.56
532.61	1840.92
532.81	1860.17
533.01	1869.59
533.22	1967.89
533.42	1996.36
533.62	1710.87
533.82	2079.92
534.03	1902.77
534.23	1951.71
534.43	1824.54
534.63	1871.02
534.84	1963.80
535.04	1904.82
535.24	1902.77
535.44	2256.66
535.65	1851.77
535.85	1827.20
536.05	1822.90
536.25	1907.48
536.46	1842.97
536.66	2047.56
536.86	1957.04
537.06	2069.27
537.27	2118.62
537.47	2007.21
537.67	1884.75
537.87	2115.96
538.08	1894.17
538.28	1813.68
538.48	1807.54
538.68	1945.16
538.88	2053.91
539.09	1759.82
539.29	1888.23
539.49	2049.40
539.69	1981.82
539.90	1956.63
540.10	1811.63
540.30	2145.04
540.50	1917.72
540.70	1817.78
540.91	1956.01
541.11	2092.82
541.31	2243.75
541.51	2074.80
541.72	2146.68
541.92	2171.46
542.12	2014.18
542.32	1960.73
542.52	1915.87
542.73	1905.84
542.93	2055.55
543.13	1922.22
543.33	2002.30
543.53	2150.37
543.74	2163.06
543.94	1985.92
544.14	2158.97
544.34	2316.25
544.54	2166.96
544.75	2273.04
544.95	2433.40
545.15	2309.70
545.35	2381.79
545.55	2199.11
545.75	2025.44
545.96	2313.59
546.16	1936.35
546.36	1978.54
546.56	1990.22
546.76	2144.43
546.97	2218.15
547.17	1940.45
547.37	1984.89
547.57	1866.52
547.77	2051.86
547.97	1948.44
548.18	1982.23
548.38	2008.24
548.58	2405.95
548.78	2366.22
548.98	2692.46
549.18	2970.99
549.39	3081.17
549.59	2812.68
549.79	2543.99
549.99	2668.09
550.19	2485.21
550.39	2378.10
550.60	2185.39
550.80	2197.68
551.00	2200.13
551.20	1997.18
551.40	1944.55
551.60	2035.68
551.80	2023.19
552.01	2087.90
552.21	1959.91
552.41	2028.72
552.61	2207.10
552.81	1971.58
553.01	1835.80
553.21	2032.61
553.42	1848.91
553.62	1866.72
553.82	1849.11
554.02	2137.26
554.22	2036.70
554.42	1823.72
554.62	1968.71
554.83	2271.81
555.03	2478.25
555.23	2392.23
555.43	2775.61
555.63	2676.29
555.83	2575.94
556.03	2333.66
556.23	2148.32
556.44	2335.09
556.64	2425.61
556.84	2021.75
557.04	2238.02
557.24	2219.79
557.44	2181.29
557.64	2099.17
557.84	1903.59
558.04	1989.60
558.25	2120.88
558.45	1887.61
558.65	1982.84
558.85	2030.77
559.05	1839.69
559.25	1962.16
559.45	2137.46
559.65	2473.54
559.85	2941.09
560.05	2351.07
560.26	2475.38
560.46	2469.65
560.66	2303.76
560.86	2180.06
561.06	2093.64
561.26	2330.38
561.46	2165.32
561.66	2015.82
561.86	2116.58
562.06	1953.15
562.26	1996.36
562.47	1997.38
562.67	1848.09
562.87	2050.22
563.07	1827.40
563.27	1975.68
563.47	1993.29
563.67	1933.28
563.87	2103.67
564.07	1988.17
564.27	2093.02
564.47	2159.58
564.67	2245.80
564.87	2090.36
565.08	2184.36
565.28	2037.52
565.48	2170.23
565.68	2104.90
565.88	2069.68
566.08	2245.60
566.28	1974.86
566.48	1798.73
566.68	1903.79
566.88	1889.25
567.08	2055.96
567.28	1929.39
567.48	1944.14
567.68	2030.97
567.88	1882.08
568.08	2052.27
568.28	2175.76
568.48	2045.51
568.68	2173.71
568.89	2026.87
569.09	1820.44
569.29	2094.87
569.49	2076.23
569.69	1863.04
569.89	1850.95
570.09	1721.32
570.29	1858.94
570.49	1750.60
570.69	1833.75
570.89	2012.54
571.09	2188.25
571.29	1754.90
571.49	2041.62
571.69	1946.59
571.89	1994.11
572.09	1855.25
572.29	1844.20
572.49	1997.38
572.69	1984.89
572.89	1929.80
573.09	1740.57
573.29	2034.25
573.49	2078.28
573.69	2042.85
573.89	2145.04
574.09	1972.40
574.29	2137.87
574.49	1899.08
574.69	1854.44
574.89	1828.84
575.09	1836.62
575.29	1786.44
575.49	1899.49
575.69	1969.74
575.89	1742.21
576.09	1920.99
576.29	1942.29
576.49	1840.10
576.69	1948.23
576.89	1879.22
577.09	1963.18
577.29	1792.59
577.49	2202.59
577.69	1879.83
577.89	1996.56
578.09	1962.57
578.29	1761.66
578.49	1922.63
578.69	1851.36
578.89	2066.81
579.09	1940.04
579.29	1836.41
579.49	2048.58
579.69	1895.40
579.89	2167.57
580.09	1753.47
580.29	1723.16
580.49	1854.03
580.69	1780.30
580.89	1876.55
581.09	1872.87
581.29	1859.35
581.49	1919.77
581.69	1795.86
581.89	1802.62
582.09	1799.35
582.28	1812.86
582.48	2016.02
582.68	2121.90
582.88	2193.58
583.08	1990.01
583.28	2007.42
583.48	1944.96
583.68	1879.01
583.88	1974.86
584.08	1924.27
584.28	1919.56
584.48	2177.61
584.68	2004.55
584.88	1883.93
585.08	2049.61
585.28	2042.03
585.48	2142.99
585.68	2004.14
585.87	2020.94
586.07	2012.74
586.27	1933.49
586.47	2011.72
586.67	1914.44
586.87	1925.91
587.07	1891.50
587.27	1782.55
587.47	1986.94
587.67	2248.26
587.87	2541.94
588.07	2355.16
588.27	2286.56
588.46	2564.26
588.66	2563.03
588.86	2302.94
589.06	2263.82
589.26	2278.98
589.46	2205.87
589.66	1911.78
589.86	1881.47
590.06	2001.68
590.26	2131.94
590.46	2049.81
590.66	2208.32
590.85	2118.42
591.05	2203.00
591.25	2012.33
591.45	2022.57
591.65	2141.36
591.85	2117.19
592.05	2097.32
592.25	2239.25
592.45	2341.85
592.64	2159.17
592.84	2119.24
593.04	1967.48
593.24	2408.82
593.44	2030.77
593.64	2098.35
593.84	2141.77
594.04	2033.63
594.24	2266.08
594.43	1918.33
594.63	1990.01
594.83	2079.10
595.03	2060.46
595.23	1833.14
595.43	1785.83
595.63	1840.92
595.83	2032.81
596.02	1745.07
596.22	1998.82
596.42	2003.12
596.62	1973.22
596.82	1885.97
597.02	2012.74
597.22	2130.50
597.41	2000.46
597.61	1886.18
597.81	2047.56
598.01	2085.86
598.21	1968.71
598.41	1969.53
598.61	1918.13
598.80	2012.95
599.00	2052.27
599.20	2122.31
599.40	1977.72
599.60	1979.98
599.80	2110.02
599.99	2126.82
600.19	1966.87
600.39	2020.32
600.59	2081.56
600.79	2006.60
600.99	2016.23
601.19	2204.02
601.38	2222.25
601.58	2045.92
601.78	1824.33
601.98	2255.43
602.18	2809.81
602.37	3402.29
602.57	3517.18
602.77	3883.15
602.97	3938.24
603.17	3698.02
603.37	3561.21
603.56	3579.64
603.76	3476.84
603.96	3387.75
604.16	3178.86
604.36	3011.33
604.56	2816.98
604.75	2452.03
604.95	2417.83
605.15	2509.99
605.35	2403.70
605.55	2163.06
605.74	2086.27
605.94	2254.61
606.14	2096.92
606.34	2070.50
606.54	1964.00
606.73	1950.28
606.93	2051.45
607.13	1866.31
607.33	1954.58
607.53	2140.95
607.72	2108.59
607.92	2015.61
608.12	2053.50
608.32	1950.49
608.51	2056.78
608.71	1897.65
608.91	2046.33
609.11	2131.32
609.31	2045.92
609.50	2175.56
609.70	2342.26
609.90	2321.99
610.10	2312.77
610.29	2206.48
610.49	2068.24
610.69	2202.80
610.89	2094.25
611.09	2088.72
611.28	2143.81
611.48	2145.66
611.68	2012.54
611.88	1932.46
612.07	1894.78
612.27	2120.06
612.47	1917.72
612.67	1972.60
612.86	2062.92
613.06	1971.17
613.26	1779.68
613.46	1917.72
613.65	2038.55
613.85	2431.76
614.05	2188.46
614.25	2172.49
614.44	2087.49
614.64	2090.36
614.84	1988.78
615.04	2001.68
615.23	2002.91
615.43	2146.68
615.63	2123.13
615.83	1940.86
616.02	1895.60
616.22	2244.98
616.42	2092.41
616.62	2141.15
616.81	2229.83
617.01	2272.02
617.21	2170.85
617.41	2025.44
617.60	2053.29
617.80	2137.26
618.00	2128.04
618.19	2029.33
618.39	2013.77
618.59	2050.84
618.79	1927.34
618.98	1737.50
619.18	1886.38
619.38	2174.74
619.57	1887.20
619.77	1910.35
619.97	1890.07
620.17	1892.53
620.36	1902.97
620.56	2186.00
620.76	2000.46
620.95	2031.18
621.15	2115.35
621.35	2011.51
621.54	2036.91
621.74	2060.05
621.94	1962.57
622.14	1858.94
622.33	1822.08
622.53	1933.49
622.73	1947.00
622.92	1752.45
623.12	1930.42
623.32	2185.80
623.51	1998.20
623.71	1764.94
623.91	2042.23
624.10	1806.31
624.30	1950.08
624.50	1791.97
624.69	1776.20
624.89	2397.56
625.09	1887.00
625.29	1711.49
625.48	1773.13
625.68	1933.90
625.88	2051.25
626.07	1926.11
626.27	1805.90
626.47	1841.53
626.66	1707.80
626.86	1853.00
627.06	1870.00
627.25	1902.56
627.45	2108.38
627.64	1881.67
627.84	2023.39
628.04	1799.55
628.23	2166.96
628.43	1765.55
628.63	1856.28
628.82	1919.56
629.02	2231.26
629.22	2089.75
629.41	2222.87
629.61	2057.80
629.81	2336.12
630.00	2041.82
630.20	1982.43
630.40	2146.27
630.59	2173.30
630.79	2062.10
630.98	1997.59
631.18	2004.55
631.38	1987.55
631.57	2087.49
631.77	1802.01
631.97	1958.27
632.16	1994.11
632.36	1895.80
632.56	1920.38
632.75	1939.02
632.95	2026.87
633.14	1773.95
633.34	2047.97
633.54	1701.86
633.73	1870.61
633.93	1834.78
634.12	1712.72
634.32	2258.91
634.52	1889.66
634.71	1768.63
634.91	1927.75
635.11	1780.30
635.30	1834.16
635.50	1930.42
635.69	1811.43
635.89	2169.41
636.09	2093.64
636.28	1847.68
636.48	1872.87
636.67	2045.51
636.87	2033.84
637.07	2002.09
637.26	1899.70
637.46	1987.96
637.65	2110.02
637.85	1984.69
638.04	1898.67
638.24	1962.77
638.44	2026.26
638.63	1933.08
638.83	1882.49
639.02	1972.81
639.22	2021.14
639.42	1890.07
639.61	1889.05
639.81	1927.55
640.00	1899.08
640.20	1986.53
640.39	1997.59
640.59	2347.79
640.79	2320.35
640.98	2309.49
641.18	2302.74
641.37	2352.50
641.57	2187.03
641.76	2205.05
641.96	1963.39
642.15	2155.90
642.35	2029.54
642.55	2041.62
642.74	1891.09
642.94	2112.27
643.13	2122.11
643.33	1903.59
643.52	1840.51
643.72	1837.03
643.91	1915.67
644.11	1839.49
644.31	1787.06
644.50	1815.93
644.70	2028.51
644.89	1873.48
645.09	1926.93
645.28	1905.02
645.48	1970.97
645.67	1799.35
645.87	1704.73
646.06	1871.23
646.26	1959.91
646.45	1672.99
646.65	1697.56
646.84	2139.72
647.04	1878.19
647.24	1737.70
647.43	1888.84
647.63	1916.28
647.82	2079.10
648.02	1743.03
648.21	1810.40
648.41	2068.24
648.60	1836.82
648.80	2000.66
648.99	1901.13
649.19	1813.27
649.38	1715.58
649.58	1890.89
649.77	1912.19
649.97	2042.44
650.16	1967.28
650.36	1688.35
650.55	1989.81
650.75	1944.75
650.94	2072.34
651.14	1878.40
651.33	1921.40
651.53	2099.99
651.72	1796.48
651.92	1871.23
652.11	1681.59
652.31	1955.81
652.50	1945.16
652.70	1943.73
652.89	1783.17
653.09	2114.12
653.28	1896.83
653.48	1749.37
653.67	1738.52
653.87	2304.37
654.06	1943.52
654.25	2051.66
654.45	1809.18
654.64	1880.44
654.84	1876.55
655.03	1655.58
655.23	1979.57
655.42	1980.59
655.62	2103.26
655.81	1898.06
656.01	1769.24
656.20	1987.14
656.40	2107.77
656.59	1896.01
656.79	2017.45
656.98	1915.47
657.17	1994.31
657.37	1881.06
657.56	1839.08
657.76	1941.27
657.95	2012.13
658.15	1573.66
658.34	1859.76
658.54	1893.35
658.73	1782.76
658.92	1845.42
659.12	1918.33
659.31	2016.63
659.51	1834.98
659.70	1993.08
659.90	1925.91
660.09	2072.34
660.29	1978.34
660.48	1867.95
660.67	2054.32
660.87	1879.22
661.06	1978.95
661.26	1996.77
661.45	1968.71
661.65	1977.93
661.84	1857.30
662.03	1830.88
662.23	1851.16
662.42	2148.11
662.62	1800.16
662.81	1780.30
663.00	1824.94
663.20	1906.04
663.39	1956.01
663.59	1972.60
663.78	1853.00
663.97	1841.53
664.17	1999.43
664.36	1687.73
664.56	1783.17
664.75	1999.23
664.94	1976.29
665.14	1919.36
665.33	1909.12
665.53	1950.49
665.72	1980.18
665.91	2032.40
666.11	1937.38
666.30	1962.98
666.50	1899.49
666.69	1941.06
666.88	1899.90
667.08	1930.21
667.27	1862.01
667.47	1884.34
667.66	1859.35
667.85	2020.94
668.05	1913.01
668.24	1803.03
668.43	2001.28
668.63	1870.41
668.82	2057.59
669.02	1965.85
669.21	1887.41
669.40	1775.59
669.60	2146.89
669.79	1762.48
669.98	2331.00
670.18	1803.65
670.37	1779.07
670.56	1883.11
670.76	1916.49
670.95	1908.91
671.15	2044.49
671.34	1983.05
671.53	1917.10
671.73	1888.64
671.92	1852.59
672.11	1787.88
672.31	1863.04
672.50	1955.20
672.69	1790.54
672.89	1660.29
673.08	1840.10
673.27	1988.37
673.47	1923.86
673.66	1936.35
673.85	1789.92
674.05	1991.44
674.24	2222.25
674.43	2224.09
674.63	2584.33
674.82	2879.85
675.01	2406.98
675.21	2585.56
675.40	2371.75
675.59	2323.42
675.79	2535.79
675.98	2226.14
676.17	2338.78
676.37	2247.65
676.56	2089.75
676.75	2067.22
676.95	2004.14
677.14	1957.24
677.33	2101.42
677.52	1821.26
677.72	1872.25
677.91	1962.57
678.10	1743.85
678.30	1794.23
678.49	1760.64
678.68	2195.42
678.88	1699.81
679.07	2036.09
679.26	1840.71
679.45	2141.77
679.65	2038.14
679.84	1712.51
680.03	1716.20
680.23	1859.97
680.42	2201.98
680.61	1760.84
680.81	1811.63
681.00	1898.47
681.19	1972.40
681.38	2000.46
681.58	1966.46
681.77	1872.05
681.96	2042.03
682.15	1883.93
682.35	1959.29
682.54	1982.84
682.73	1767.60
682.93	1799.55
683.12	1822.90
683.31	1994.52
683.50	2229.62
683.70	1818.39
683.89	1913.21
684.08	1797.30
684.27	2032.40
684.47	1726.85
684.66	1904.82
684.85	2171.26
685.04	2040.60
685.24	1813.27
685.43	1899.49
685.62	1683.43
685.81	1966.66
686.01	2024.83
686.20	2074.59
686.39	2082.99
686.58	2550.54
686.78	2355.98
686.97	2326.08
687.16	2335.71
687.35	2242.53
687.55	2108.79
687.74	2123.33
687.93	2026.47
688.12	2088.72
688.32	2113.71
688.51	1918.33
688.70	2077.46
688.89	1854.03
689.08	1800.37
689.28	1866.93
689.47	1980.80
689.66	1956.22
689.85	1998.61
690.05	1829.45
690.24	1821.26
690.43	1932.26
690.62	1909.73
690.81	1835.39
691.01	1893.35
691.20	1885.56
691.39	1798.32
691.58	1903.18
691.77	2124.56
691.97	1933.69
692.16	1933.28
692.35	1873.07
692.54	1851.16
692.73	2048.58
692.93	2024.42
693.12	2085.04
693.31	2120.88
693.50	2097.73
693.69	2099.58
693.89	1997.38
694.08	2180.27
694.27	2183.95
694.46	1924.07
694.65	1993.70
694.85	2071.93
695.04	2081.35
695.23	1980.59
695.42	2389.37
695.61	2679.77
695.80	2940.88
696.00	3130.73
696.19	3225.96
696.38	2832.14
696.57	2678.33
696.76	2644.95
696.95	2444.05
697.15	2608.91
697.34	2533.34
697.53	2216.31
697.72	2239.45
697.91	2117.19
698.10	2286.76
698.30	1974.45
698.49	1982.02
698.68	2003.94
698.87	1915.26
699.06	1828.63
699.25	1891.30
699.45	2052.47
699.64	1946.18
699.83	1999.84
700.02	1779.68
700.21	1985.71
700.40	1841.94
700.59	1863.04
700.79	1850.34
700.98	1989.81
701.17	1834.37
701.36	1812.25
701.55	1817.16
701.74	2108.59
701.93	2032.40
702.12	2303.15
702.32	2334.68
702.51	2595.39
702.70	2639.42
702.89	2432.58
703.08	2238.43
703.27	2425.00
703.46	2304.17
703.65	2159.99
703.85	2038.34
704.04	2092.20
704.23	2239.25
704.42	1966.25
704.61	1954.58
704.80	2160.61
704.99	1848.09
705.18	1946.80
705.37	1899.70
705.57	2240.27
705.76	2729.33
705.95	2739.57
706.14	3226.78
706.33	3413.76
706.52	3520.87
706.71	2887.23
706.90	2636.15
707.09	2685.91
707.28	2585.56
707.47	2370.52
707.67	2452.65
707.86	2240.68
708.05	2392.03
708.24	2157.94
708.43	2093.84
708.62	1980.59
708.81	1872.87
709.00	1817.57
709.19	1806.72
709.38	2049.20
709.57	1819.42
709.76	1953.15
709.96	1916.90
710.15	2178.63
710.34	2011.72
710.53	2080.12
710.72	1962.77
710.91	2128.25
711.10	2035.27
711.29	2018.48
711.48	1893.96
711.67	1862.83
711.86	2029.33
712.05	1856.89
712.24	1857.10
712.43	2033.02
712.62	2131.94
712.81	1915.67
713.00	2039.98
713.19	1787.88
713.39	1983.46
713.58	1773.54
713.77	1934.10
713.96	2023.19
714.15	1943.32
714.34	1921.20
714.53	1818.39
714.72	2188.25
714.91	1850.13
715.10	1983.66
715.29	1846.65
715.48	2373.60
715.67	2095.07
715.86	1960.93
716.05	1942.29
716.24	1926.52
716.43	1895.40
716.62	1830.06
716.81	1785.21
717.00	1905.43
717.19	2140.13
717.38	1925.71
717.57	1897.44
717.76	1740.98
717.95	2042.85
718.14	1916.49
718.33	1851.77
718.52	1700.22
718.71	1725.62
718.90	1731.76
719.09	1847.47
719.28	1886.38
719.47	2021.14
719.66	2044.69
719.85	2047.56
720.04	2024.21
720.23	2112.48
720.42	1968.51
720.61	2088.31
720.80	1838.05
720.99	2017.45
721.18	1915.26
721.37	1876.35
721.56	1891.71
721.75	2054.32
721.94	1834.37
722.13	1912.39
722.32	1897.24
722.51	2027.90
722.70	1860.37
722.89	1924.68
723.08	1875.12
723.27	2007.01
723.46	1918.54
723.65	1860.99
723.84	1847.47
724.03	2073.36
724.22	1757.57
724.41	1903.18
724.60	1869.80
724.79	2003.94
724.98	1945.16
725.16	1861.81
725.35	1973.42
725.54	1778.25
725.73	1912.80
725.92	1901.54
726.11	1969.74
726.30	2160.40
726.49	2001.68
726.68	2133.37
726.87	2231.47
727.06	2305.60
727.25	2013.36
727.44	2123.74
727.63	2077.46
727.82	2002.50
728.01	2028.10
728.20	2072.34
728.38	2191.94
728.57	1954.99
728.76	1943.11
728.95	2029.54
729.14	1819.01
729.33	1807.54
729.52	1689.37
729.71	1814.91
729.90	1788.90
730.09	1878.40
730.28	1952.53
730.47	1927.34
730.66	2184.36
730.84	2096.30
731.03	2027.90
731.22	2088.93
731.41	2042.85
731.60	2066.40
731.79	1796.27
731.98	1903.59
732.17	2050.43
732.36	1999.23
732.55	1874.51
732.73	1807.95
732.92	2097.12
733.11	1978.13
733.30	1848.91
733.49	1751.83
733.68	2001.89
733.87	1964.41
734.06	1867.54
734.25	1949.87
734.43	2082.78
734.62	2273.86
734.81	2222.25
735.00	2185.80
735.19	2205.46
735.38	2201.36
735.57	1950.28
735.76	2142.99
735.94	2227.37
736.13	2711.31
736.32	2659.90
736.51	2727.28
736.70	3037.14
736.89	3103.29
737.08	2956.24
737.27	3155.72
737.45	3785.06
737.64	3869.43
737.83	4199.77
738.02	4206.94
738.21	4165.98
738.40	3746.96
738.59	3335.32
738.77	3276.34
738.96	2992.90
739.15	2934.33
739.34	2815.96
739.53	2687.14
739.72	2665.43
739.90	2532.31
740.09	2187.64
740.28	2215.08
740.47	2234.74
740.66	2130.71
740.85	1926.52
741.03	1997.79
741.22	1860.37
741.41	1952.94
741.60	1808.36
741.79	1998.41
741.98	2149.34
742.16	2217.34
742.35	2039.78
742.54	2050.63
742.73	2384.45
742.92	2108.38
743.10	1970.56
743.29	2048.17
743.48	2388.96
743.67	2010.08
743.86	1872.46
744.05	1892.73
744.23	1922.43
744.42	1882.70
744.61	1954.58
744.80	1846.65
744.99	1891.09
745.17	1733.40
745.36	1741.80
745.55	1931.64
745.74	1911.57
745.93	1821.87
746.11	1805.08
746.30	1769.65
746.49	2019.91
746.68	1776.20
746.86	1843.58
747.05	1874.10
747.24	1980.39
747.43	2025.03
747.62	1799.35
747.80	1865.70
747.99	2107.16
748.18	2064.76
748.37	1993.90
748.56	1980.80
748.74	2067.83
748.93	1998.00
749.12	2162.04
749.31	2674.24
749.49	3040.21
749.68	3313.41
749.87	3618.76
750.06	3611.80
750.24	3695.97
750.43	3944.59
750.62	4209.19
750.81	4451.87
750.99	4693.94
751.18	4694.97
751.37	4067.68
751.56	3724.44
751.74	3885.20
751.93	3772.36
752.12	3050.04
752.31	2878.01
752.49	2756.36
752.68	2849.95
752.87	2541.73
753.06	2352.91
753.24	2267.31
753.43	2307.24
753.62	2035.68
753.81	1974.24
753.99	2181.50
754.18	2014.38
754.37	1828.63
754.55	1935.13
754.74	2174.74
754.93	1726.64
755.12	1845.22
755.30	1811.02
755.49	2035.89
755.68	1920.18
755.86	1949.67
756.05	1779.48
756.24	2102.04
756.43	1774.97
756.61	1776.20
756.80	1943.52
756.99	2066.20
757.17	1879.83
757.36	1787.06
757.55	1886.18
757.74	1956.42
757.92	1896.42
758.11	1739.75
758.30	1692.85
758.48	1855.05
758.67	1776.41
758.86	1895.80
759.04	1763.71
759.23	1845.42
759.42	1926.52
759.60	1829.25
759.79	1875.94
759.98	1843.17
760.16	1787.06
760.35	1800.16
760.54	1718.04
760.73	1929.39
760.91	1734.22
761.10	1922.84
761.29	1927.34
761.47	1915.06
761.66	2175.76
761.85	1932.05
762.03	2018.89
762.22	2568.77
762.41	4154.10
762.59	5963.68
762.78	6782.46
762.97	8180.20
763.15	8636.28
763.34	7909.66
763.52	6197.97
763.71	5810.91
763.90	5595.87
764.08	5168.46
764.27	4903.66
764.46	4720.98
764.64	4186.05
764.83	3921.45
765.02	3605.04
765.20	3301.53
765.39	2977.54
765.58	2455.92
765.76	2380.15
765.95	2261.37
766.13	2132.35
766.32	2009.47
766.51	2019.91
766.69	2540.51
766.88	1981.41
767.07	1813.89
767.25	1710.05
767.44	2041.82
767.62	2061.69
767.81	1822.08
768.00	1916.28
768.18	1931.03
768.37	1819.42
768.56	1728.08
768.74	1857.51
768.93	1791.56
769.11	1966.46
769.30	1918.13
769.49	1826.99
769.67	1883.11
769.86	1850.54
770.04	1850.54
770.23	1866.93
770.42	2054.32
770.60	1907.48
770.79	1801.60
770.97	1844.81
771.16	2235.77
771.35	2611.98
771.53	3028.33
771.72	3323.65
771.90	3692.28
772.09	3982.89
772.27	3633.10
772.46	3036.93
772.65	3146.91
772.83	2987.78
773.02	2890.50
773.20	2644.34
773.39	2716.84
773.58	2636.35
773.76	2306.22
773.95	2296.59
774.13	2300.48
774.32	2120.06
774.50	1961.75
774.69	2013.56
774.87	1943.11
775.06	2215.90
775.25	1827.20
775.43	1879.42
775.62	1940.45
775.80	1983.25
775.99	1925.71
776.17	1812.86
776.36	1911.16
776.54	2024.21
776.73	1830.68
776.92	1887.61
777.10	2007.21
777.29	1915.06
777.47	1770.47
777.66	1835.39
777.84	1899.90
778.03	1873.28
778.21	1778.66
778.40	1893.35
778.58	1937.17
778.77	2015.82
778.95	1734.42
779.14	1794.84
779.32	2122.11
779.51	2018.48
779.70	1837.44
779.88	1746.71
780.07	1839.69
780.25	2218.15
780.44	1861.81
780.62	1998.00
780.81	1975.27
780.99	1965.23
781.18	1825.97
781.36	1828.84
781.55	1875.73
781.73	2093.23
781.92	1765.76
782.10	1773.95
782.29	1951.71
782.47	2090.36
782.66	1867.95
782.84	1721.73
783.03	1819.83
783.21	2029.54
783.40	1859.76
783.58	1831.09
783.77	1815.93
783.95	1863.65
784.14	1784.60
784.32	1868.57
784.51	2062.30
784.69	1828.84
784.88	1742.62
785.06	1894.58
785.24	1759.41
785.43	2015.61
785.61	1978.75
785.80	1815.93
785.98	1973.01
786.17	1909.73
786.35	1798.94
786.54	1964.21
786.72	2017.25
786.91	2036.91
787.09	1863.86
787.28	1766.17
787.46	1920.79
787.65	1985.10
787.83	1770.26
788.01	1890.28
788.20	1792.18
788.38	1927.14
788.57	1871.43
788.75	1895.40
788.94	2190.92
789.12	2083.19
789.31	1911.78
789.49	1975.68
789.67	1871.02
789.86	1952.94
790.04	1815.32
790.23	1762.28
790.41	2242.94
790.60	1908.09
790.78	1905.84
790.96	1899.49
791.15	1987.14
791.33	1922.84
791.52	1871.64
791.70	1787.06
791.89	1905.63
792.07	2025.85
792.25	1893.55
792.44	1737.29
792.62	2027.28
792.81	1831.91
792.99	1890.07
793.17	1815.52
793.36	1799.96
793.54	2238.63
793.73	2391.00
793.91	2680.38
794.10	3111.89
794.28	3393.69
794.46	3296.21
794.65	3241.32
794.83	2818.62
795.01	2765.17
795.20	2846.27
795.38	2643.93
795.57	2619.97
795.75	2576.75
795.93	2380.56
796.12	2364.18
796.30	2372.37
796.49	2324.85
796.67	2062.51
796.85	2160.61
797.04	2058.21
797.22	2070.91
797.40	1811.22
797.59	1953.76
797.77	1956.01
797.96	1816.96
798.14	1792.59
798.32	1813.89
798.51	1991.65
798.69	2164.29
798.87	1873.28
799.06	1847.27
799.24	1753.68
799.42	2115.14
799.61	2260.34
799.79	2400.22
799.98	2812.07
800.16	2765.58
800.34	3212.44
800.53	3754.75
800.71	3876.19
800.89	4529.90
801.08	4520.28
801.26	4522.53
801.44	3949.10
801.63	3438.74
801.81	3415.19
801.99	3236.81
802.18	3092.02
802.36	3048.40
802.54	2878.01
802.73	2607.06
802.91	2589.25
803.09	2490.13
803.28	2413.33
803.46	2306.83
803.64	2388.96
803.83	1969.94
804.01	1954.99
804.19	1858.12
804.38	2103.26
804.56	2042.23
804.74	1944.75
804.92	1952.33
805.11	1817.16
805.29	2108.79
805.47	1884.34
805.66	1787.67
805.84	1799.96
806.02	2038.96
806.21	1854.03
806.39	2004.96
806.57	2050.84
806.76	2045.10
806.94	1906.45
807.12	1855.05
807.30	1867.54
807.49	1984.28
807.67	1945.16
807.85	2065.17
808.04	2067.63
808.22	2259.11
808.40	1807.54
808.58	1787.06
808.77	2003.12
808.95	2137.46
809.13	2155.69
809.31	3000.68
809.50	3751.26
809.68	4222.71
809.86	4494.27
810.05	4743.91
810.23	5309.56
810.41	6346.86
810.59	9666.21
810.78	11760.46
810.96	13399.86
811.14	14486.92
811.32	14001.35
811.51	11572.46
811.69	9555.00
811.87	9468.58
812.05	8427.80
812.24	7932.40
812.42	7473.45
812.60	6870.73
812.78	5841.42
812.97	5139.99
813.15	4932.74
813.33	4313.43
813.51	3889.50
813.70	3229.65
813.88	2881.29
814.06	2654.78
814.24	2410.87
814.42	2079.30
814.61	2154.67
814.79	2252.15
814.97	1826.79
815.15	1903.59
815.34	1958.88
815.52	2048.38
815.70	1778.25
815.88	1835.18
816.06	1815.32
816.25	1854.64
816.43	1801.19
816.61	1966.66
816.79	2093.23
816.98	1744.25
817.16	1853.00
817.34	1814.71
817.52	1988.99
817.70	2167.77
817.89	1879.83
818.07	1795.66
818.25	1877.78
818.43	1926.11
818.61	1879.22
818.80	1839.90
818.98	2119.24
819.16	1938.40
819.34	1764.53
819.52	2080.12
819.70	1798.73
819.89	1896.42
820.07	1726.03
820.25	1715.79
820.43	1923.25
820.61	1984.89
820.80	1862.22
820.98	1771.90
821.16	1703.91
821.34	1751.83
821.52	1833.96
821.70	1897.85
821.89	1891.50
822.07	1853.21
822.25	1841.33
822.43	1791.56
822.61	2071.32
822.79	1941.68
822.98	1832.11
823.16	1687.94
823.34	1919.97
823.52	2035.48
823.70	1961.34
823.88	1707.80
824.06	1972.19
824.25	1883.93
824.43	1983.46
824.61	1808.36
824.79	1938.61
824.97	1996.77
825.15	2072.95
825.33	2290.45
825.52	2567.74
825.70	2603.58
825.88	2681.61
826.06	2881.29
826.24	2927.57
826.42	2790.97
826.60	2514.29
826.78	2514.09
826.97	2398.38
827.15	2506.71
827.33	2179.24
827.51	2275.70
827.69	2115.35
827.87	2178.63
828.05	2164.91
828.23	1921.40
828.41	2150.16
828.60	2122.31
828.78	1797.91
828.96	1973.63
829.14	1864.68
829.32	1902.15
829.50	1838.26
829.68	1838.26
829.86	1848.29
830.04	1960.93
830.22	1901.95
830.41	1758.80
830.59	1876.96
830.77	1983.46
830.95	1792.38
831.13	1780.91
831.31	1798.53
831.49	2005.17
831.67	1991.04
831.85	1948.44
832.03	1847.68
832.21	1999.64
832.39	1761.46
832.57	1782.55
832.76	2052.06
832.94	1886.18
833.12	1718.04
833.30	1850.34
833.48	2022.37
833.66	1938.20
833.84	1784.60
834.02	1888.84
834.20	1974.04
834.38	1989.60
834.56	1682.20
834.74	1753.06
834.92	1722.75
835.10	2160.81
835.28	1910.75
835.46	1853.21
835.64	1858.74
835.82	1832.73
836.01	2064.76
836.19	1976.70
836.37	1813.07
836.55	1778.66
836.73	1785.42
836.91	1719.06
837.09	1988.58
837.27	2088.31
837.45	1735.86
837.63	1775.59
837.81	1766.99
837.99	1906.66
838.17	1871.84
838.35	1811.02
838.53	2250.10
838.71	2049.40
838.89	1890.68
839.07	1858.74
839.25	2003.94
839.43	2100.40
839.61	2023.80
839.79	2652.73
839.97	3208.14
840.15	3516.98
840.33	3677.33
840.51	4019.75
840.69	3823.35
840.87	3361.13
841.05	3191.76
841.23	3263.85
841.41	3806.97
841.59	4958.75
841.77	5382.06
841.95	5708.92
842.13	6225.83
842.31	5873.16
842.49	4962.23
842.67	4447.16
842.85	4405.18
843.03	3886.43
843.21	3758.64
843.39	3682.66
843.57	3452.26
843.75	3235.18
843.93	2956.86
844.11	2717.24
844.29	2657.44
844.47	2516.54
844.65	2535.18
844.83	2253.99
845.01	2195.83
845.19	2244.98
845.36	2020.12
845.54	2057.39
845.72	2003.32
845.90	2010.49
846.08	1787.06
846.26	1858.12
846.44	1960.93
846.62	1969.33
846.80	1882.08
846.98	1795.66
847.16	1840.92
847.34	1927.34
847.52	1725.00
847.70	1759.41
847.88	1874.10
848.06	2092.41
848.24	1906.04
848.41	1713.95
848.59	1995.75
848.77	1947.82
848.95	1820.64
849.13	1799.75
849.31	1977.52
849.49	1933.69
849.67	1781.32
849.85	1743.23
850.03	1913.83
850.21	1920.18
850.39	1798.12
850.57	1918.74
850.74	2065.79
850.92	2078.07
851.10	2085.45
851.28	2192.56
851.46	2455.31
851.64	2758.00
851.82	2529.24
852.00	2609.11
852.18	2576.55
852.36	2423.16
852.53	2220.00
852.71	2276.32
852.89	2279.18
853.07	2242.32
853.25	2055.55
853.43	1943.52
853.61	2065.99
853.79	2082.78
853.97	1888.02
854.14	1864.88
854.32	2132.55
854.50	2086.06
854.68	1873.48
854.86	1857.92
855.04	1808.77
855.22	2002.30
855.40	1750.19
855.57	1811.02
855.75	1977.52
855.93	1955.81
856.11	1699.61
856.29	1773.95
856.47	1789.11
856.65	1936.56
856.82	1763.10
857.00	1704.11
857.18	1898.47
857.36	1817.57
857.54	1860.78
857.72	1955.81
857.89	1979.77
858.07	1878.60
858.25	1987.35
858.43	1746.30
858.61	1873.89
858.79	1883.52
858.97	1791.15
859.14	1900.72
859.32	1839.49
859.50	1847.88
859.68	1894.78
859.86	1815.32
860.03	1939.63
860.21	1987.55
860.39	1820.64
860.57	1918.33
860.75	1956.22
860.93	2152.82
861.10	2015.00
861.28	1814.91
861.46	1937.79
861.64	1974.45
861.82	1834.37
861.99	1935.74
862.17	2019.91
862.35	2016.43
862.53	1857.51
862.71	1881.67
862.88	1932.46
863.06	1968.92
863.24	1854.23
863.42	1775.38
863.60	1865.49
863.77	1940.25
863.95	1659.26
864.13	1862.83
864.31	1842.35
864.49	1991.65
864.66	1743.85
864.84	1812.66
865.02	1893.55
865.20	2227.17
865.37	1849.11
865.55	1774.16
865.73	1775.59
865.91	2029.74
866.09	2007.21
866.26	1956.42
866.44	2086.68
866.62	1961.95
866.80	1865.29
866.97	1926.52
867.15	1939.22
867.33	1978.34
867.51	1959.29
867.68	1883.52
867.86	1871.84
868.04	1842.56
868.22	1689.98
868.39	1838.67
868.57	1929.80
868.75	2066.61
868.93	1703.30
869.10	1800.98
869.28	2129.48
869.46	2032.61
869.64	1845.83
869.81	1838.46
869.99	1905.23
870.17	1902.36
870.35	1772.93
870.52	1772.31
870.70	2021.96
870.88	1807.95
871.05	1730.12
871.23	1631.41
871.41	1885.77
871.59	1862.42
871.76	1845.02
871.94	1780.71
872.12	1880.65
872.29	1739.34
872.47	1790.13
872.65	1732.99
872.83	1918.13
873.00	2084.83
873.18	1828.02
873.36	1803.44
873.53	1971.17
873.71	1751.83
873.89	1791.36
874.06	1865.09
874.24	1925.30
874.42	2033.84
874.60	1939.43
874.77	1871.43
874.95	1799.96
875.13	2007.62
875.30	1822.90
875.48	1821.67
875.66	2104.70
875.83	1824.74
876.01	1856.69
876.19	1957.65
876.36	1750.19
876.54	1920.59
876.72	1756.34
876.89	1906.25
877.07	1985.51
877.25	1688.76
877.42	1863.24
877.60	1839.08
877.78	2082.99
877.95	1833.14
878.13	1793.00
878.31	1926.11
878.48	2012.13
878.66	1976.49
878.84	1822.49
879.01	1869.80
879.19	1926.11
879.37	1970.35
879.54	1805.90
879.72	1728.69
879.90	1656.40
880.07	1980.59
880.25	1603.97
880.42	1931.23
880.60	1898.88
880.78	1971.37
880.95	1798.73
881.13	1816.14
881.31	1881.88
881.48	1792.59
881.66	1762.69
881.83	1885.56
882.01	1820.03
882.19	1715.99
882.36	1864.68
882.54	1833.14
882.72	1950.49
882.89	1897.03
883.07	1746.10
883.24	1797.09
883.42	1979.57
883.60	1881.06
883.77	1765.96
883.95	1808.97
884.12	1998.20
884.30	1952.12
884.48	1990.01
884.65	1908.50
884.83	1973.63
885.00	1983.46
885.18	1798.53
885.36	1816.34
885.53	1981.82
885.71	2071.52
885.88	1723.57
886.06	1807.13
886.23	1966.05
886.41	1809.79
886.59	1787.47
886.76	1774.16
886.94	1953.56
887.11	2242.53
887.29	1838.26
887.47	1691.83
887.64	2027.08
887.82	2052.27
887.99	1680.97
888.17	1857.10
888.34	1825.76
888.52	1747.94
888.69	1841.94
888.87	1760.64
889.05	1849.11
889.22	1838.46
889.40	1774.16
889.57	1942.70
889.75	2087.29
889.92	1850.34
890.10	1738.93
890.27	1824.74
890.45	1801.80
890.62	1679.13
890.80	1737.91
890.98	1683.64
891.15	2066.61
891.33	1982.43
891.50	1774.56
891.68	1707.39
891.85	1989.60
892.03	1934.51
892.20	1783.78
892.38	1712.51
892.55	1970.35
892.73	1955.81
892.90	1745.69
893.08	1782.55
893.25	1786.85
893.43	1776.00
893.60	1924.89
893.78	1657.83
893.95	1927.75
894.13	1869.39
894.30	1763.92
894.48	1858.94
894.65	1983.66
894.83	1890.89
895.00	1652.92
895.18	1693.47
895.35	1993.49
895.53	1969.12
895.70	1736.06
895.88	1943.93
896.05	1968.30
896.23	1739.54
896.40	1791.77
896.58	1862.01
896.75	1988.58
896.93	2054.52
897.10	1809.59
897.28	1740.16
897.45	1919.36
897.63	1954.17
897.80	1925.09
897.98	1807.33
898.15	1944.75
898.33	1779.89
898.50	1864.88
898.67	1815.32
898.85	1847.47
899.02	1939.63
899.20	1956.01
899.37	1825.56
899.55	1901.33
899.72	2051.45
899.90	1764.94
900.07	1751.01
900.25	1941.06
900.42	2028.31
900.59	1797.50
900.77	1914.24
900.94	1931.85
901.12	1924.07
901.29	1791.56
901.47	1921.61
901.64	1936.56
901.82	1877.17
901.99	1595.37
902.16	1747.33
902.34	2034.25
902.51	1923.04
902.69	1793.00
902.86	1856.69
903.03	2334.07
903.21	1868.36
903.38	1829.86
903.56	1804.26
903.73	1991.85
903.91	1836.82
904.08	1720.29
904.25	1670.94
904.43	1809.99
904.60	1972.81
904.78	1816.55
904.95	1741.18
905.12	1862.83
905.30	2107.97
905.47	1923.66
905.65	1944.75
905.82	1873.07
905.99	1982.43
906.17	1890.48
906.34	1797.71
906.52	1817.16
906.69	2024.83
906.86	1976.09
907.04	1900.31
907.21	2044.28
907.38	2048.99
907.56	1785.83
907.73	1796.48
907.91	2088.11
908.08	2008.03
908.25	1766.78
908.43	1759.21
908.60	1932.26
908.77	1930.42
908.95	1800.16
909.12	1738.11
909.30	1965.03
909.47	1727.87
909.64	1847.06
909.82	1939.43
909.99	1843.99
910.16	1898.67
910.34	1765.14
910.51	1821.05
910.68	1927.34
910.86	1890.07
911.03	1762.89
911.20	1878.60
911.38	2414.35
911.55	3109.43
911.72	3307.47
911.90	3329.59
912.07	3663.82
912.24	3722.59
912.42	3045.74
912.59	2564.67
912.76	2664.61
912.94	2403.91
913.11	2246.83
913.28	2095.89
913.46	2020.94
913.63	2192.76
913.80	2303.76
913.98	2008.85
914.15	2200.54
914.32	2187.23
914.49	2038.14
914.67	1868.98
914.84	2009.67
915.01	2091.80
915.19	1986.53
915.36	1890.28
915.53	2062.71
915.71	1958.47
915.88	1932.67
916.05	1772.31
916.22	2008.85
916.40	1919.15
916.57	1744.87
916.74	1884.95
916.92	2081.97
917.09	1750.60
917.26	1762.89
917.43	1710.87
917.61	1826.79
917.78	1688.55
917.95	1657.22
918.13	1724.80
918.30	2163.06
918.47	1890.89
918.64	1752.24
918.82	1757.36
918.99	1892.12
919.16	2123.13
919.33	1872.66
919.51	1834.37
919.68	1940.66
919.85	2089.34
920.02	1737.70
920.20	1829.86
920.37	2092.41
920.54	2020.94
920.71	1775.38
920.89	1806.31
921.06	2102.04
921.23	1793.00
921.40	1771.49
921.58	1998.82
921.75	2514.50
921.92	2075.00
922.09	2180.27
922.27	2160.61
922.44	2161.22
922.61	2108.59
922.78	1941.68
922.96	1910.55
923.13	1911.98
923.30	2052.06
923.47	1747.53
923.64	1809.38
923.82	1999.43
923.99	1953.15
924.16	1914.65
924.33	1745.28
924.50	1900.72
924.68	2093.84
924.85	1764.53
925.02	1816.96
925.19	1997.79
925.36	1916.69
925.54	1868.36
925.71	1845.02
925.88	2274.27
926.05	1841.94
926.22	1773.95
926.40	1854.85
926.57	1916.28
926.74	1957.24
926.91	1768.63
927.08	1975.06
927.26	2005.58
927.43	1908.50
927.60	1768.01
927.77	1831.70
927.94	2078.07
928.11	2042.44
928.29	1723.98
928.46	1837.85
928.63	1800.98
928.80	1829.86
928.97	1918.13
929.14	1745.28
929.32	2147.30
929.49	1923.04
929.66	1788.70
929.83	1709.03
930.00	1843.38
930.17	1899.29
930.35	1723.98
930.52	1767.19
930.69	2058.21
930.86	1729.92
931.03	1899.08
931.20	1649.43
931.37	2024.83
931.55	1862.42
931.72	1869.59
931.89	1695.31
932.06	1750.81
932.23	2074.39
932.40	1906.86
932.57	1896.01
932.74	2049.20
932.92	2037.11
933.09	1914.24
933.26	1583.08
933.43	1815.32
933.60	1916.69
933.77	1822.28
933.94	1874.10
934.11	1844.40
934.29	1894.58
934.46	1723.98
934.63	1854.85
934.80	1718.04
934.97	1887.82
935.14	1824.74
935.31	1713.74
935.48	1774.56
935.65	1908.50
935.82	1851.16
936.00	1723.78
936.17	2086.06
936.34	1866.11
936.51	1925.09
936.68	1719.88
936.85	1906.86
937.02	1913.83
937.19	1857.10
937.36	1795.86
937.53	1934.51
937.70	1997.38
937.87	1812.86
938.05	1907.89
938.22	1899.29
938.39	1771.49
938.56	1808.77
938.73	1719.88
938.90	1849.32
939.07	1791.77
939.24	1867.95
939.41	1670.53
939.58	1913.42
939.75	1942.70
939.92	1770.67
940.09	1952.94
940.26	1832.52
940.43	1980.39
940.60	1794.02
940.77	1808.15
940.95	1915.87
941.12	1954.38
941.29	1774.77
941.46	1831.09
941.63	2024.42
941.80	2036.30
941.97	1675.03
942.14	1721.11
942.31	1957.45
942.48	1849.73
942.65	1877.37
942.82	1815.73
942.99	1952.53
943.16	1865.49
943.33	1718.86
943.50	1803.24
943.67	1988.17
943.84	2006.39
944.01	1800.78
944.18	1737.09
944.35	2053.29
944.52	1778.25
944.69	1856.07
944.86	1693.87
945.03	1984.89
945.20	2196.24
945.37	1666.23
945.54	1826.99
945.71	2037.32
945.88	2108.18
946.05	1710.67
946.22	1728.90
946.39	2051.86
946.56	1880.24
946.73	1694.08
946.90	1752.45
947.07	1813.48
947.24	1856.28
947.41	1659.67
947.58	1915.06
947.75	1986.12
947.92	1908.09
948.09	1583.90
948.26	1663.77
948.43	1922.84
948.60	2121.90
948.77	1726.03
948.94	1819.01
949.11	1943.52
949.27	1933.90
949.44	1765.55
949.61	1766.37
949.78	1927.55
949.95	1999.23
950.12	1727.26
950.29	1710.67
950.46	1826.17
950.63	2016.23
950.80	1766.37
950.97	1822.28
951.14	1989.19
951.31	1839.69
951.48	1747.94
951.65	1704.73
951.82	2138.49
951.99	1915.87
952.15	1686.50
952.32	1789.92
952.49	1802.21
952.66	1816.34
952.83	1763.30
953.00	1735.65
953.17	1888.84
953.34	1996.77
953.51	1813.89
953.68	1826.17
953.85	2015.41
954.02	2020.53
954.18	1815.32
954.35	1827.61
954.52	1803.65
954.69	1902.36
954.86	1643.90
955.03	1819.62
955.20	1974.04
955.37	1860.17
955.54	1774.77
955.71	1761.87
955.87	1900.11
956.04	2102.65
956.21	1792.38
956.38	1744.25
956.55	1888.23
956.72	2188.87
956.89	1817.37
957.06	1736.47
957.23	1780.30
957.39	2040.60
957.56	1771.29
957.73	1713.13
957.90	1646.36
958.07	2134.60
958.24	1834.16
958.41	1786.24
958.57	1974.24
958.74	1884.95
958.91	1725.21
959.08	1797.09
959.25	1946.80
959.42	1858.94
959.59	1829.66
959.75	1789.11
959.92	2001.89
960.09	2028.10
960.26	1730.94
960.43	1831.70
960.60	1910.35
960.76	1857.71
960.93	1677.70
961.10	1840.92
961.27	1993.29
961.44	1814.09
961.61	1718.25
961.77	1717.43
961.94	1864.68
962.11	1977.11
962.28	1806.72
962.45	1703.91
962.62	1841.74
962.78	2000.87
962.95	1715.38
963.12	1782.55
963.29	1951.71
963.46	2217.13
963.62	1878.81
963.79	1788.70
963.96	2188.25
964.13	1843.17
964.30	1882.70
964.46	1782.76
964.63	1763.92
964.80	2221.02
964.97	1654.96
965.14	1918.54
965.30	1983.87
965.47	2070.91
965.64	1979.16
965.81	1948.85
965.98	2133.37
966.14	1949.26
966.31	1810.40
966.48	1821.87
966.65	2073.57
966.81	1955.61
966.98	1814.71
967.15	1841.12
967.32	1902.77
967.49	1826.58
967.65	1675.44
967.82	1642.06
967.99	1849.93
968.16	1713.74
968.32	1927.75
968.49	1780.50
968.66	1855.25
968.83	2068.24
968.99	1841.12
969.16	1700.63
969.33	2068.45
969.50	1965.23
969.66	1885.77
969.83	1984.89
970.00	1959.70
970.17	1945.37
970.33	1798.12
970.50	1714.76
970.67	2073.77
970.84	2038.55
971.00	1719.88
971.17	1712.10
971.34	1952.33
971.50	1899.49
971.67	1896.83
971.84	1837.85
972.01	1740.77
972.17	1634.28
972.34	1715.17
972.51	1845.83
972.67	2015.41
972.84	1923.25
973.01	1747.94
973.18	1775.38
973.34	1991.04
973.51	1771.70
973.68	1808.97
973.84	1811.02
974.01	1805.28
974.18	2095.28
974.34	1860.99
974.51	1889.87
974.68	1785.83
974.85	2132.14
975.01	1883.72
975.18	1816.75
975.35	1880.24
975.51	1814.50
975.68	1695.51
975.85	1896.83
976.01	1811.22
976.18	2007.83
976.35	1784.80
976.51	1779.68
976.68	2095.07
976.85	2060.26
977.01	1815.73
977.18	1875.73
977.35	1982.23
977.51	1734.63
977.68	1641.86
977.85	1687.12
978.01	2029.95
978.18	1947.21
978.35	1832.73
978.51	1821.26
978.68	2011.11
978.85	2077.25
979.01	1783.99
979.18	1792.18
979.34	1868.36
979.51	1898.67
979.68	1741.80
979.84	1820.64
980.01	2187.44
980.18	1881.06
980.34	1775.38
980.51	1852.39
980.67	1965.03
980.84	1969.94
981.01	1814.71
981.17	1857.92
981.34	1677.08
981.51	1965.23
981.67	1718.86
981.84	1896.42
982.00	1948.23
982.17	1882.70
982.34	1643.09
982.50	1561.99
982.67	2073.16
982.83	1819.42
983.00	1716.20
983.17	1608.07
983.33	2012.95
983.50	1694.90
983.66	1701.04
983.83	1621.79
984.00	1817.78
984.16	1870.61
984.33	1603.97
984.49	1602.33
984.66	1775.79
984.83	1979.77
984.99	1671.96
985.16	1609.91
985.32	1932.67
985.49	1979.77
985.65	1746.30
985.82	1618.51
985.99	2084.83
986.15	1905.84
986.32	1715.58
986.48	1667.05
986.65	1821.05
986.81	1978.75
986.98	1629.57
987.14	1698.79
987.31	1886.79
987.48	1711.49
987.64	1552.97
987.81	1573.66
987.97	2131.94
988.14	1790.95
988.30	1623.02
988.47	1512.63
988.63	1916.69
988.80	1735.04
988.96	1696.54
989.13	1713.95
989.30	1855.25
989.46	1970.76
989.63	1588.81
989.79	1587.59
989.96	1862.42
990.12	2048.58
990.29	1637.76
990.45	1674.62
990.62	1849.52
990.78	2024.01
990.95	1775.59
991.11	1658.85
991.28	1805.28
991.44	1907.07
991.61	1561.17
991.77	1655.17
991.94	1895.80
992.10	2015.61
992.27	1700.02
992.43	1668.07
992.60	1939.43
992.76	1836.41
992.93	1809.79
993.09	1583.90
993.26	2009.47
993.42	2104.49
993.59	1663.36
993.75	1580.83
993.92	1797.71
994.08	1787.26
994.25	1730.33
994.41	1622.61
994.58	1954.99
994.74	2058.41
994.91	1621.38
995.07	1696.74
995.24	1844.20
995.40	1866.72
995.56	1769.04
995.73	1725.00
995.89	2064.76
996.06	1839.08
996.22	1673.80
996.39	1566.70
996.55	1836.82
996.72	1938.40
996.88	1561.58
997.05	1614.41
997.21	2120.88
997.37	1933.69
997.54	1698.79
997.70	1663.77
997.87	1913.83
998.03	1855.25
998.20	1594.96
998.36	1587.38
998.52	1928.98
998.69	1976.49
998.85	1568.54
999.02	1689.98
999.18	2012.33
999.35	1962.16
999.51	1678.92
999.67	1684.04
999.84	1748.97
1000.00	1986.12
1000.17	1757.36
1000.33	1628.14
1000.49	1779.07
1000.66	1851.16
1000.82	1649.02
1000.99	1713.74
1001.15	2032.20
1001.31	1808.97
1001.48	1684.25
1001.64	1718.25
1001.81	1815.32
1001.97	2157.33
1002.13	1657.01
1002.30	1653.53
1002.46	2041.82
1002.63	1855.25
1002.79	1734.02
1002.95	1628.54
1003.12	1998.41
1003.28	1915.47
1003.45	1621.99
1003.61	1604.17
1003.77	1895.19
1003.94	1706.78
1004.10	1657.83
1004.26	1729.92
1004.43	1955.61
1004.59	2088.31
1004.75	1633.26
1004.92	1634.69
1005.08	1830.88
1005.25	1906.04
1005.41	1649.23
1005.57	1708.01
1005.74	2030.77
1005.90	1862.01
1006.06	1747.12
1006.23	1665.41
1006.39	1987.96
1006.55	2205.05
1006.72	1823.51
1006.88	1600.08
1007.04	1788.08
1007.21	1865.70
1007.37	1679.33
1007.53	1652.71
1007.70	2064.15
1007.86	1979.77
1008.02	1734.63
1008.19	1613.80
1008.35	1892.73
1008.51	1770.06
1008.68	1691.01
1008.84	1600.49
1009.00	1775.18
1009.17	1994.52
1009.33	1768.42
1009.49	1692.65
1009.65	1768.63
1009.82	1908.91
1009.98	1714.97
1010.14	1565.06
1010.31	1987.35
1010.47	1938.61
1010.63	1706.37
1010.80	1695.31
1010.96	1929.39
1011.12	1847.47
1011.28	1653.33
1011.45	1663.77
1011.61	2205.87
1011.77	1765.96
1011.94	1623.83
1012.10	1604.17
1012.26	1731.76
1012.42	1810.40
1012.59	1684.45
1012.75	1711.28
1012.91	1877.99
1013.07	1958.88
1013.24	1597.62
1013.40	1656.60
1013.56	1883.11
1013.72	1850.95
1013.89	1711.69
1014.05	1707.39
1014.21	2125.79
1014.37	2198.90
1014.54	1702.07
1014.70	1619.53
1014.86	1813.27
1015.02	1744.46
1015.19	1645.34
1015.35	1584.92
1015.51	1842.97
1015.67	1831.29
1015.84	1649.02
1016.00	1647.39
1016.16	2004.35
1016.32	1985.51
1016.49	1652.51
1016.65	1609.70
1016.81	1868.98
1016.97	1940.86
1017.14	1759.00
1017.30	1655.58
1017.46	1822.49
1017.62	1877.37
1017.78	1708.83
1017.95	1596.39
1018.11	1979.98
1018.27	2196.04
1018.43	1779.28
1018.59	1716.20
1018.76	1948.44
1018.92	2200.95
1019.08	1598.85
1019.24	1646.77
1019.40	2018.68
1019.57	1873.28
1019.73	1727.26
1019.89	1670.53
1020.05	1897.65
1020.21	2145.66
1020.38	1617.28
1020.54	1782.96
1020.70	1957.04
1020.86	1937.58
1021.02	1679.95
1021.18	1655.17
1021.35	1822.28
1021.51	1958.68
1021.67	1775.18
1021.83	1682.61
1021.99	1873.28
1022.15	1882.08
1022.32	1746.51
1022.48	1676.47
1022.64	2022.37
1022.80	2067.83
1022.96	1719.06
1023.12	1594.55
1023.29	2002.09
1023.45	1926.52
1023.61	1620.35
1023.77	1803.65
1023.93	1911.37
1024.09	1768.22
1024.25	1632.64
1024.42	1602.54
1024.58	1821.05
1024.74	1918.13
1024.90	1662.13
1025.06	1731.56
1025.22	1807.13
1025.38	2108.79
1025.54	1593.73
1025.71	1742.82
1025.87	1949.26
1026.03	1955.81
1026.19	1632.03
1026.35	1822.49
1026.51	1906.25
1026.67	1899.08
1026.83	1696.33
1026.99	1784.80
1027.16	1916.28
1027.32	1863.86
1027.48	1684.45
1027.64	1624.24
1027.80	1939.43
1027.96	1875.12
1028.12	1668.89
1028.28	1628.54
1028.44	1908.71
1028.60	2085.65
1028.77	1775.38
1028.93	1694.90
1029.09	1803.44
1029.25	1761.46
1029.41	1707.60
1029.57	1744.05
1029.73	1940.66
1029.89	2049.81
1030.05	1765.96
1030.21	1733.20
1030.37	2148.52
1030.53	1956.01
1030.69	1685.89
1030.85	1606.63
1031.02	1762.69
1031.18	1887.61
1031.34	1675.03
1031.50	1745.07
1031.66	1765.96
1031.82	2071.93
1031.98	1698.99
1032.14	1620.35
1032.30	1769.24
1032.46	1983.25
1032.62	1777.64
1032.78	1609.50
1032.94	1820.64
1033.10	1846.86
1033.26	1721.11
1033.42	1754.90
1033.58	2128.86
1033.74	1805.08
1033.90	1637.15
1034.06	1824.54
1034.22	2155.08
1034.38	2010.70
1034.54	1668.68
1034.70	1721.52
1034.86	2084.01
>>>>>End Processed Spectral Data<<<<<
