SpectraSuite Data File
++++++++++++++++++++++++++++++++++++
Date: Thu Mar 30 14:11:17 PDT 2017
User: UCSD _CER
Dark Spectrum Present: No
Reference Spectrum Present: No
Number of Sampled Component Spectra: 1
Spectrometers: USB4C00073
Integration Time (usec): 380000 (USB4C00073)
Spectra Averaged: 10 (USB4C00073)
Boxcar Smoothing: 0 (USB4C00073)
Correct for Electrical Dark: No (USB4C00073)
Strobe/Lamp Enabled: No (USB4C00073)
Correct for Detector Non-linearity: No (USB4C00073)
Correct for Stray Light: No (USB4C00073)
Number of Pixels in Processed Spectrum: 3648
>>>>>Begin Processed Spectral Data<<<<<
345.37	1230.42
345.58	1230.42
345.80	1230.42
346.01	1208.71
346.22	1204.41
346.43	1992.06
346.65	1849.93
346.86	2351.48
347.07	2304.58
347.28	1793.82
347.50	1787.88
347.71	2076.23
347.92	1818.39
348.13	1783.78
348.35	1764.53
348.56	2080.33
348.77	1835.18
348.98	1782.35
349.20	1669.71
349.41	2091.80
349.62	2178.42
349.83	1872.66
350.05	1774.97
350.26	2113.30
350.47	2253.58
350.68	1780.30
350.90	1735.04
351.11	2302.74
351.32	2292.70
351.53	1834.37
351.75	1755.11
351.96	2104.08
352.17	2056.98
352.38	1885.36
352.60	1881.67
352.81	2113.09
353.02	2360.49
353.23	1809.59
353.44	1809.18
353.66	1983.87
353.87	2017.04
354.08	1902.56
354.29	1805.49
354.51	1962.57
354.72	1985.71
354.93	1789.92
355.14	1763.51
355.35	1811.02
355.57	2238.02
355.78	1829.66
355.99	1897.44
356.20	2084.42
356.42	2042.64
356.63	1926.32
356.84	1811.43
357.05	2216.11
357.26	2450.19
357.48	1953.76
357.69	1874.71
357.90	2147.91
358.11	2018.48
358.32	1838.46
358.54	1871.64
358.75	2018.07
358.96	2173.71
359.17	1781.32
359.38	1834.57
359.60	2160.81
359.81	2021.75
360.02	1799.96
360.23	1769.85
360.44	1949.26
360.66	2233.72
360.87	1754.70
361.08	1765.55
361.29	2124.15
361.50	2103.06
361.72	1779.28
361.93	1868.98
362.14	2029.74
362.35	1855.87
362.56	1946.18
362.77	1708.83
362.99	2150.98
363.20	2051.04
363.41	1871.02
363.62	1672.99
363.83	2167.77
364.05	2215.70
364.26	1739.14
364.47	1776.00
364.68	2243.14
364.89	1933.08
365.10	1722.34
365.32	1824.74
365.53	1914.85
365.74	1961.75
365.95	1836.21
366.16	1665.20
366.37	2015.20
366.59	1977.93
366.80	1795.45
367.01	1695.31
367.22	2394.89
367.43	2538.87
367.64	1839.28
367.86	1807.54
368.07	2122.11
368.28	2234.33
368.49	1711.69
368.70	1849.11
368.91	2018.27
369.12	2045.92
369.34	1726.23
369.55	1722.14
369.76	2048.99
369.97	1979.77
370.18	1691.21
370.39	1765.35
370.60	1828.22
370.82	1891.30
371.03	1846.65
371.24	1782.55
371.45	2178.63
371.66	2149.34
371.87	1800.98
372.08	1829.66
372.30	1905.63
372.51	2216.93
372.72	1965.23
372.93	1818.19
373.14	2337.76
373.35	1967.89
373.56	1730.94
373.78	1805.28
373.99	2217.34
374.20	2534.77
374.41	1792.18
374.62	1793.61
374.83	2311.95
375.04	1986.94
375.25	1833.14
375.47	1815.52
375.68	1981.82
375.89	2205.46
376.10	1843.17
376.31	1892.32
376.52	2121.29
376.73	2107.77
376.94	1869.80
377.15	1777.43
377.37	2050.43
377.58	2027.49
377.79	1721.52
378.00	1775.79
378.21	2102.24
378.42	2151.19
378.63	1863.65
378.84	1913.42
379.05	2229.62
379.27	2099.17
379.48	1901.13
379.69	1754.90
379.90	2253.18
380.11	1758.59
380.32	1816.34
380.53	1964.21
380.74	2322.40
380.95	2074.18
381.16	1886.79
381.37	1863.24
381.59	2302.33
381.80	2225.73
382.01	1807.13
382.22	1738.32
382.43	2168.39
382.64	2052.47
382.85	1753.27
383.06	1906.25
383.27	2169.82
383.48	2022.57
383.69	1857.92
383.91	1764.12
384.12	2176.99
384.33	2202.80
384.54	1896.01
384.75	1786.24
384.96	2624.47
385.17	2284.30
385.38	1861.60
385.59	1843.17
385.80	2201.98
386.01	2365.81
386.22	1937.38
386.43	1881.06
386.64	2452.65
386.86	2089.34
387.07	1971.37
387.28	1765.14
387.49	2001.68
387.70	2303.56
387.91	1973.83
388.12	1864.47
388.33	2161.63
388.54	2023.60
388.75	1784.80
388.96	1900.31
389.17	1968.51
389.38	2065.99
389.59	1890.68
389.80	1923.45
390.01	2078.89
390.22	2010.90
390.43	1946.39
390.64	1725.62
390.86	2189.89
391.07	2252.15
391.28	1853.21
391.49	1874.92
391.70	1859.76
391.91	1961.34
392.12	1809.59
392.33	1893.76
392.54	2085.65
392.75	2033.02
392.96	1929.80
393.17	1809.38
393.38	2457.97
393.59	2247.03
393.80	1739.75
394.01	1850.34
394.22	2085.04
394.43	2423.16
394.64	1789.31
394.85	1954.99
395.06	2104.70
395.27	2079.92
395.48	1825.97
395.69	1729.30
395.90	2029.74
396.11	2054.73
396.32	1807.54
396.53	1929.39
396.74	2043.46
396.95	2222.46
397.16	1815.32
397.37	1696.13
397.58	2208.12
397.79	2084.83
398.00	1863.65
398.21	1844.81
398.42	2094.05
398.63	2387.93
398.84	1814.91
399.05	1779.89
399.26	2241.50
399.47	2134.19
399.68	1666.02
399.89	1757.77
400.10	1896.83
400.31	1999.64
400.52	1885.97
400.73	1834.16
400.94	1879.83
401.15	2168.39
401.36	1875.73
401.57	1906.25
401.78	2278.77
401.99	2218.15
402.20	1768.63
402.41	1954.58
402.62	2307.24
402.83	2019.71
403.04	1799.75
403.25	2017.04
403.46	2159.79
403.67	2384.65
403.88	1910.35
404.09	1893.14
404.30	2041.01
404.51	2033.84
404.72	1819.01
404.93	1994.31
405.14	1958.88
405.35	2071.52
405.56	1859.15
405.77	1771.08
405.98	2099.99
406.19	2051.45
406.40	1794.43
406.61	1839.49
406.82	2026.87
407.03	2535.39
407.24	1803.85
407.45	1901.74
407.66	2194.81
407.87	2256.86
408.08	1910.14
408.29	1916.90
408.49	2155.08
408.70	2039.57
408.91	1800.16
409.12	1980.18
409.33	1924.07
409.54	2285.33
409.75	1791.36
409.96	1864.68
410.17	2228.60
410.38	2039.98
410.59	1826.58
410.80	1938.61
411.01	2051.25
411.22	2016.23
411.43	1915.26
411.64	1788.70
411.85	1940.66
412.06	1927.55
412.27	1635.71
412.47	1794.64
412.68	2062.71
412.89	2143.20
413.10	1824.33
413.31	1743.85
413.52	2378.10
413.73	2388.14
413.94	1773.34
414.15	1971.17
414.36	1969.94
414.57	1925.09
414.78	1779.28
414.99	1961.95
415.19	2464.94
415.40	2475.58
415.61	2473.33
415.82	2322.60
416.03	2493.20
416.24	2369.09
416.45	1999.84
416.66	1848.50
416.87	1873.48
417.08	2185.18
417.29	1819.62
417.50	1941.68
417.70	2213.24
417.91	2225.94
418.12	2015.41
418.33	1994.11
418.54	2331.41
418.75	2475.79
418.96	2312.36
419.17	2528.01
419.38	3061.51
419.59	2993.11
419.79	2742.23
420.00	2575.73
420.21	3030.17
420.42	2401.65
420.63	1998.82
420.84	1979.36
421.05	2094.05
421.26	2095.89
421.47	1748.35
421.67	2169.62
421.88	1953.76
422.09	1928.57
422.30	2085.86
422.51	1874.71
422.72	2398.17
422.93	2249.49
423.14	1880.44
423.35	1731.15
423.55	1832.11
423.76	1963.18
423.97	1855.25
424.18	1724.80
424.39	2061.89
424.60	2229.21
424.81	1880.04
425.02	2091.80
425.22	2277.75
425.43	2311.54
425.64	2385.88
425.85	2328.54
426.06	2815.14
426.27	2591.29
426.48	2366.84
426.68	2317.48
426.89	2550.95
427.10	2685.30
427.31	2085.04
427.52	1935.74
427.73	2268.13
427.94	2208.12
428.14	2019.91
428.35	1901.33
428.56	2322.60
428.77	2230.03
428.98	1887.41
429.19	1968.30
429.40	2142.58
429.60	2180.06
429.81	2148.11
430.02	2010.90
430.23	2155.90
430.44	2250.31
430.65	1872.25
430.85	1868.77
431.06	2155.28
431.27	1831.09
431.48	1842.35
431.69	1847.68
431.90	2093.64
432.10	2089.75
432.31	1982.43
432.52	2028.72
432.73	2743.05
432.94	2666.46
433.15	2324.85
433.35	2124.15
433.56	2518.39
433.77	2334.68
433.98	2637.78
434.19	2770.90
434.40	3118.85
434.60	3095.91
434.81	2926.34
435.02	2504.67
435.23	2487.67
435.44	2327.72
435.64	1967.07
435.85	1860.17
436.06	2086.88
436.27	2065.58
436.48	1867.13
436.68	1938.20
436.89	2526.58
437.10	2367.66
437.31	2048.58
437.52	2120.26
437.73	2266.49
437.93	2229.62
438.14	1983.05
438.35	1773.13
438.56	2029.74
438.77	2071.93
438.97	2038.34
439.18	1942.70
439.39	2456.74
439.60	2126.61
439.80	2090.77
440.01	2116.58
440.22	2193.99
440.43	2273.45
440.64	1863.45
440.84	1941.68
441.05	1927.55
441.26	2543.17
441.47	1926.93
441.68	1991.65
441.88	2404.52
442.09	2485.41
442.30	2580.44
442.51	2644.95
442.71	2583.51
442.92	2507.74
443.13	2151.19
443.34	2018.27
443.55	2077.05
443.75	2220.82
443.96	1842.15
444.17	1785.83
444.38	2263.62
444.58	1930.82
444.79	1946.59
445.00	1900.52
445.21	2031.58
445.41	2028.51
445.62	1690.60
445.83	1972.81
446.04	2118.01
446.24	1854.64
446.45	1688.55
446.66	1854.23
446.87	2104.90
447.07	1974.04
447.28	2088.72
447.49	1910.55
447.70	2276.52
447.90	2293.52
448.11	1920.79
448.32	1991.04
448.53	2330.38
448.73	2290.65
448.94	1862.22
449.15	2013.97
449.36	2078.69
449.56	2126.00
449.77	1858.12
449.98	1753.27
450.19	2034.04
450.39	2137.67
450.60	2093.23
450.81	2062.71
451.02	2234.13
451.22	2401.45
451.43	1870.00
451.64	1923.66
451.84	2082.78
452.05	2334.68
452.26	1923.04
452.47	1887.82
452.67	2000.66
452.88	2303.56
453.09	1792.38
453.30	1779.68
453.50	2211.40
453.71	2449.99
453.92	1984.89
454.12	2152.42
454.33	2151.19
454.54	2168.39
454.75	1917.10
454.95	1855.66
455.16	2125.79
455.37	2181.09
455.57	1984.48
455.78	1901.33
455.99	2048.79
456.19	2096.92
456.40	1792.18
456.61	1881.88
456.82	2090.98
457.02	2241.30
457.23	2060.05
457.44	2203.20
457.64	2166.34
457.85	2304.37
458.06	2042.03
458.26	2174.94
458.47	2195.22
458.68	2335.50
458.89	1979.16
459.09	2117.80
459.30	2514.29
459.51	2144.02
459.71	1822.90
459.92	1880.04
460.13	2379.94
460.33	2644.13
460.54	2119.24
460.75	2128.45
460.95	2102.65
461.16	2267.31
461.37	1963.80
461.57	1938.40
461.78	2137.87
461.99	1928.37
462.19	2152.21
462.40	1827.61
462.61	2689.60
462.81	2240.89
463.02	1839.90
463.23	1872.05
463.43	2186.62
463.64	1972.81
463.85	3110.45
464.05	1847.06
464.26	2581.06
464.47	2289.42
464.67	2061.28
464.88	1999.43
465.09	2090.57
465.29	2285.53
465.50	2179.45
465.71	2087.29
465.91	2109.20
466.12	2132.14
466.33	1993.70
466.53	1882.08
466.74	2303.76
466.94	2049.61
467.15	1930.62
467.36	2100.19
467.56	1910.35
467.77	2084.63
467.98	1945.98
468.18	1865.90
468.39	2011.31
468.60	2385.47
468.80	1873.48
469.01	1809.18
469.21	2154.26
469.42	2301.51
469.63	1937.17
469.83	1853.62
470.04	2220.61
470.25	2357.42
470.45	2024.01
470.66	1872.46
470.86	2129.07
471.07	2015.61
471.28	1965.03
471.48	1958.47
471.69	2107.16
471.90	2788.72
472.10	2076.64
472.31	2094.46
472.51	2199.72
472.72	2281.03
472.93	2157.33
473.13	2349.84
473.34	2494.22
473.54	2409.84
473.75	2146.68
473.96	2207.71
474.16	2141.77
474.37	2234.54
474.57	1996.97
474.78	1891.09
474.99	2151.19
475.19	2138.28
475.40	1895.80
475.60	1893.14
475.81	2558.12
476.02	2288.61
476.22	2223.48
476.43	2256.25
476.63	2172.89
476.84	2370.73
477.05	1811.22
477.25	1880.85
477.46	2596.21
477.66	2118.21
477.87	1847.88
478.08	1880.44
478.28	2222.46
478.49	2029.95
478.69	1847.88
478.90	1864.27
479.10	2127.84
479.31	2342.47
479.52	1946.39
479.72	2279.39
479.93	2754.93
480.13	2723.59
480.34	2617.51
480.54	2711.10
480.75	2383.63
480.96	2550.13
481.16	2004.55
481.37	2124.77
481.57	2351.48
481.78	2300.28
481.98	2221.43
482.19	2063.53
482.40	2460.84
482.60	2196.04
482.81	1988.99
483.01	1820.44
483.22	2201.77
483.42	2227.99
483.63	1977.11
483.83	1968.10
484.04	2122.11
484.24	2407.59
484.45	2191.12
484.66	2037.11
484.86	2328.75
485.07	2061.89
485.27	1991.65
485.48	1890.07
485.68	2309.49
485.89	2000.66
486.09	2028.51
486.30	1884.54
486.50	2133.98
486.71	2108.79
486.91	2010.08
487.12	2412.92
487.33	3098.37
487.53	3285.35
487.74	3012.97
487.94	2891.32
488.15	2644.75
488.35	2489.92
488.56	2182.52
488.76	2066.20
488.97	2258.50
489.17	2310.31
489.38	2088.11
489.58	1995.34
489.79	2276.52
489.99	2216.31
490.20	1947.41
490.40	2037.11
490.61	2159.17
490.81	2018.68
491.02	1970.97
491.22	1957.04
491.43	2188.66
491.63	2076.85
491.84	2038.75
492.04	1814.09
492.25	2187.03
492.45	2047.97
492.66	1934.10
492.86	1897.44
493.07	2130.91
493.27	2531.08
493.48	1847.47
493.68	1907.27
493.89	2081.15
494.09	2226.35
494.30	1914.03
494.50	2141.15
494.71	2138.69
494.91	1844.61
495.12	1921.61
495.32	1971.99
495.53	2086.68
495.73	1900.31
495.94	2093.64
496.14	1987.35
496.35	2620.79
496.55	2209.35
496.76	1981.41
496.96	2034.25
497.17	2106.75
497.37	2176.58
497.58	1928.16
497.78	1823.51
497.98	2055.14
498.19	2061.69
498.39	1911.98
498.60	1960.52
498.80	1796.07
499.01	2202.18
499.21	1801.39
499.42	1961.95
499.62	2013.36
499.83	2450.60
500.03	1863.86
500.24	2129.27
500.44	2453.26
500.64	2455.51
500.85	2110.02
501.05	2167.98
501.26	1966.05
501.46	2372.57
501.67	1932.87
501.87	1844.61
502.08	1977.11
502.28	2068.65
502.48	2012.74
502.69	2044.90
502.89	1870.21
503.10	1954.17
503.30	1995.34
503.51	1968.92
503.71	1857.51
503.92	2203.61
504.12	1948.23
504.32	1912.39
504.53	2213.85
504.73	2163.47
504.94	2049.81
505.14	2187.44
505.35	2268.53
505.55	2258.70
505.75	2069.47
505.96	2214.88
506.16	2552.59
506.37	2124.15
506.57	1914.44
506.78	2071.32
506.98	2268.33
507.18	1918.33
507.39	1888.64
507.59	1964.21
507.80	2015.00
508.00	2140.33
508.20	2107.56
508.41	1931.85
508.61	2306.63
508.82	2218.36
509.02	2051.66
509.22	1869.59
509.43	1923.04
509.63	1981.41
509.84	1951.10
510.04	1771.49
510.24	2334.89
510.45	2203.00
510.65	1847.06
510.86	1985.30
511.06	1904.20
511.26	2225.73
511.47	2107.56
511.67	1842.76
511.88	2185.59
512.08	2221.02
512.28	1849.52
512.49	1994.11
512.69	2079.30
512.90	2117.80
513.10	1870.61
513.30	2001.89
513.51	2205.46
513.71	2412.10
513.91	2060.87
514.12	2083.81
514.32	2317.07
514.53	2071.93
514.73	2061.08
514.93	1974.65
515.14	2133.37
515.34	2337.96
515.54	1925.91
515.75	2032.20
515.95	2222.05
516.15	2373.19
516.36	1997.18
516.56	2005.17
516.77	1757.36
516.97	2150.78
517.17	1974.86
517.38	2043.67
517.58	2302.12
517.78	2018.48
517.99	2051.66
518.19	1973.01
518.39	2328.95
518.60	2046.33
518.80	1879.01
519.00	1998.41
519.21	2049.20
519.41	2382.20
519.61	1850.54
519.82	2004.14
520.02	2070.29
520.22	2048.79
520.43	1883.52
520.63	1925.71
520.83	1979.77
521.04	1807.13
521.24	2005.17
521.44	1945.98
521.65	1947.21
521.85	2177.20
522.05	1904.82
522.26	1872.66
522.46	2365.81
522.66	2211.19
522.87	1933.08
523.07	2097.53
523.27	1982.43
523.48	2271.20
523.68	1924.27
523.88	1979.98
524.09	2243.14
524.29	2115.35
524.49	1819.42
524.70	2023.60
524.90	2251.33
525.10	2168.18
525.31	1787.47
525.51	1827.61
525.71	2207.51
525.91	2155.49
526.12	1914.03
526.32	1836.62
526.52	2001.28
526.73	1939.43
526.93	1990.22
527.13	1812.66
527.34	2041.42
527.54	2056.57
527.74	1936.56
527.94	1835.18
528.15	1904.00
528.35	2082.99
528.55	2020.12
528.76	1990.22
528.96	1794.23
529.16	2228.19
529.36	2033.43
529.57	1852.18
529.77	2278.98
529.97	1935.13
530.18	2019.71
530.38	1900.92
530.58	2136.03
530.78	2077.66
530.99	1904.41
531.19	2012.33
531.39	1968.30
531.60	2067.63
531.80	1967.69
532.00	2109.82
532.20	2130.91
532.41	1989.40
532.61	1902.56
532.81	1892.73
533.01	2023.39
533.22	2150.98
533.42	2064.56
533.62	1785.83
533.82	2265.26
534.03	2059.03
534.23	2059.85
534.43	1868.98
534.63	2010.70
534.84	2130.71
535.04	2031.38
535.24	1981.00
535.44	2554.64
535.65	2002.71
535.85	1948.03
536.05	1894.17
536.25	2099.78
536.46	1929.80
536.66	2101.01
536.86	2004.14
537.06	2207.30
537.27	2295.98
537.47	2014.38
537.67	1933.90
537.87	2331.82
538.08	2054.11
538.28	1855.46
538.48	1832.73
538.68	2035.48
538.88	2165.11
539.09	1777.84
539.29	1924.48
539.49	2198.08
539.69	2135.01
539.90	2006.80
540.10	1857.51
540.30	2283.28
540.50	1988.37
540.70	1819.21
540.91	1902.77
541.11	2211.19
541.31	2349.43
541.51	1987.96
541.72	2035.27
541.92	2130.50
542.12	1965.64
542.32	1961.34
542.52	1931.85
542.73	1980.39
542.93	2150.57
543.13	1942.50
543.33	2056.78
543.53	2229.62
543.74	2203.61
543.94	1928.16
544.14	2038.14
544.34	2302.33
544.54	2097.94
544.75	2089.95
544.95	2189.89
545.15	2251.74
545.35	2375.64
545.55	2090.98
545.75	1977.11
545.96	2435.03
546.16	1960.93
546.36	1965.85
546.56	2002.50
546.76	2275.70
546.97	2397.35
547.17	2010.49
547.37	2064.35
547.57	2015.00
547.77	2221.43
547.97	2036.09
548.18	2030.15
548.38	2071.93
548.58	2315.02
548.78	1928.57
548.98	2012.74
549.18	2305.60
549.39	2430.73
549.59	2094.25
549.79	2025.85
549.99	2356.19
550.19	2272.22
550.39	2141.56
550.60	2011.51
550.80	2139.72
551.00	2213.24
551.20	1929.60
551.40	1954.58
551.60	2152.01
551.80	2118.42
552.01	2023.80
552.21	2002.30
552.41	2105.52
552.61	2403.50
552.81	2023.80
553.01	1873.89
553.21	2159.99
553.42	1936.97
553.62	1922.43
553.82	1873.07
554.02	2320.76
554.22	2225.12
554.42	1874.10
554.62	2075.21
554.83	2353.32
555.03	2376.67
555.23	2062.92
555.43	2298.23
555.63	2258.50
555.83	2194.40
556.03	2090.77
556.23	1933.08
556.44	2130.71
556.64	2287.99
556.84	1768.01
557.04	2003.12
557.24	2149.55
557.44	2106.95
557.64	2015.20
557.84	1905.63
558.04	2022.57
558.25	2214.88
558.45	1896.01
558.65	1981.61
558.85	2106.54
559.05	1787.06
559.25	1956.63
559.45	2032.81
559.65	2474.56
559.85	2934.33
560.05	2093.84
560.26	2200.75
560.46	2194.40
560.66	2100.81
560.86	2020.12
561.06	1940.45
561.26	2329.77
561.46	2208.12
561.66	1944.96
561.86	2067.42
562.06	1956.63
562.26	2057.18
562.47	1979.77
562.67	1854.44
562.87	2176.99
563.07	1869.18
563.27	1976.49
563.47	1985.10
563.67	2013.56
563.87	2184.77
564.07	1937.38
564.27	1978.34
564.47	2117.60
564.67	2208.53
564.87	1981.82
565.08	2067.83
565.28	1996.16
565.48	2182.11
565.68	2048.79
565.88	2094.66
566.08	2394.49
566.28	2080.12
566.48	1849.73
566.68	1964.62
566.88	2012.74
567.08	2223.68
567.28	1998.61
567.48	1983.87
567.68	2154.46
567.88	1915.67
568.08	2001.89
568.28	2120.26
568.48	2045.51
568.68	2273.25
568.89	2002.91
569.09	1832.52
569.29	2201.77
569.49	2205.46
569.69	1885.97
569.89	1869.39
570.09	1786.44
570.29	1960.52
570.49	1845.83
570.69	1909.73
570.89	2217.13
571.09	2424.18
571.29	1806.31
571.49	2126.61
571.69	2140.13
571.89	2171.46
572.09	1927.34
572.29	1990.83
572.49	2210.78
572.69	2179.86
572.89	2018.89
573.09	1723.37
573.29	2102.65
573.49	2121.08
573.69	1986.94
573.89	2047.15
574.09	2018.27
574.29	2307.04
574.49	1972.60
574.69	1894.78
574.89	1929.39
575.09	1921.81
575.29	1843.79
575.49	1955.81
575.69	2134.39
575.89	1885.77
576.09	1958.88
576.29	1986.53
576.49	1905.23
576.69	2062.92
576.89	1928.16
577.09	2011.92
577.29	1856.48
577.49	2385.68
577.69	1920.99
577.89	2101.22
578.09	2101.63
578.29	1831.70
578.49	1992.26
578.69	1885.16
578.89	2236.38
579.09	2109.00
579.29	1870.41
579.49	2104.29
579.69	2014.18
579.89	2350.86
580.09	1746.92
580.29	1821.46
580.49	1992.06
580.69	1893.35
580.89	1913.62
581.09	1935.13
581.29	1998.41
581.49	2060.67
581.69	1863.65
581.89	1897.65
582.09	1942.50
582.28	1971.99
582.48	2023.60
582.68	2119.03
582.88	2329.77
583.08	2059.64
583.28	1980.18
583.48	2003.94
583.68	1951.10
583.88	2086.88
584.08	2004.55
584.28	1993.29
584.48	2404.72
584.68	2191.33
584.88	1943.73
585.08	2156.72
585.28	2244.37
585.48	2295.57
585.68	2033.22
585.87	2117.39
586.07	2167.77
586.27	2089.34
586.47	2060.26
586.67	1998.20
586.87	2085.45
587.07	2025.44
587.27	1904.20
587.47	2075.62
587.67	2420.08
587.87	2596.21
588.07	2144.63
588.27	2026.87
588.46	2313.18
588.66	2320.35
588.86	2064.35
589.06	2085.45
589.26	2316.05
589.46	2247.65
589.66	1916.90
589.86	1885.97
590.06	2062.10
590.26	2221.23
590.46	2042.03
590.66	2143.40
590.85	2110.02
591.05	2234.33
591.25	1962.57
591.45	2034.66
591.65	2247.24
591.85	2155.08
592.05	1976.29
592.25	2116.37
592.45	2273.25
592.64	2079.10
592.84	2029.13
593.04	1931.64
593.24	2514.29
593.44	2009.06
593.64	2027.90
593.84	2068.45
594.04	2038.34
594.24	2364.58
594.43	1957.04
594.63	1984.48
594.83	2256.66
595.03	2223.27
595.23	1896.42
595.43	1834.37
595.63	1976.29
595.83	2238.43
596.02	1749.78
596.22	1968.10
596.42	2119.03
596.62	2061.69
596.82	1922.43
597.02	2021.14
597.22	2299.87
597.41	2112.07
597.61	1910.55
597.81	2077.05
598.01	2234.74
598.21	2033.02
598.41	1882.90
598.61	1884.13
598.80	2105.93
599.00	2129.48
599.20	2130.71
599.40	1967.69
599.60	2073.57
599.80	2222.46
599.99	2129.89
600.19	1954.99
600.39	2145.86
600.59	2205.66
600.79	2092.61
600.99	2041.21
601.19	2359.46
601.38	2430.12
601.58	2070.29
601.78	1769.65
601.98	2219.79
602.18	2333.66
602.37	2484.80
602.57	2302.33
602.77	2573.07
602.97	2522.69
603.17	2499.14
603.37	2400.42
603.56	2553.20
603.76	2495.86
603.96	2304.78
604.16	2255.02
604.36	2514.70
604.56	2429.91
604.75	2061.28
604.95	2146.68
605.15	2422.54
605.35	2365.61
605.55	2070.70
605.74	2002.50
605.94	2333.66
606.14	2156.10
606.34	2040.19
606.54	2046.33
606.73	2067.01
606.93	2207.71
607.13	1907.48
607.33	2030.97
607.53	2359.06
607.72	2240.27
607.92	2082.17
608.12	2118.62
608.32	2039.16
608.51	2207.10
608.71	1887.82
608.91	2033.22
609.11	2203.20
609.31	2063.94
609.50	2020.94
609.70	2223.68
609.90	2275.70
610.10	2297.00
610.29	1984.69
610.49	1935.33
610.69	2251.13
610.89	2159.99
611.09	2019.91
611.28	2170.03
611.48	2297.00
611.68	2097.12
611.88	1973.01
612.07	1920.79
612.27	2211.60
612.47	1964.41
612.67	2016.02
612.86	2091.80
613.06	2074.80
613.26	1837.64
613.46	1889.25
613.65	2011.92
613.85	2562.01
614.05	2212.63
614.25	2067.42
614.44	1993.49
614.64	2071.73
614.84	2018.89
615.04	1928.78
615.23	1940.86
615.43	2182.73
615.63	2195.83
615.83	1910.75
616.02	1849.73
616.22	2218.77
616.42	1936.97
616.62	1927.34
616.81	2000.46
617.01	2159.79
617.21	2115.55
617.41	1871.43
617.60	2003.73
617.80	2187.23
618.00	2200.75
618.19	2067.83
618.39	1973.83
618.59	2155.90
618.79	2082.58
618.98	1803.85
619.18	1961.34
619.38	2448.35
619.57	2032.81
619.77	1940.66
619.97	1935.94
620.17	1953.76
620.36	1902.97
620.56	2129.27
620.76	1849.93
620.95	1896.01
621.15	2007.21
621.35	1881.88
621.54	1950.28
621.74	2102.24
621.94	1930.01
622.14	1843.79
622.33	1811.63
622.53	2034.45
622.73	2029.13
622.92	1814.91
623.12	1943.73
623.32	2380.35
623.51	2205.05
623.71	1848.29
623.91	2133.37
624.10	1945.37
624.30	2093.23
624.50	1844.81
624.69	1832.73
624.89	2699.63
625.09	2023.39
625.29	1725.41
625.48	1844.61
625.68	2095.89
625.88	2240.48
626.07	2007.83
626.27	1893.35
626.47	1983.87
626.66	1836.41
626.86	1981.82
627.06	1946.18
627.25	2050.84
627.45	2338.17
627.64	1942.09
627.84	2127.23
628.04	1943.52
628.23	2422.13
628.43	1830.68
628.63	1903.18
628.82	1981.20
629.02	2367.66
629.22	2021.14
629.41	2120.88
629.61	2101.42
629.81	2431.76
630.00	1945.78
630.20	1900.31
630.40	2130.09
630.59	2188.05
630.79	1985.92
630.98	1935.33
631.18	2045.31
631.38	2056.78
631.57	2111.25
631.77	1830.88
631.97	2079.30
632.16	2121.90
632.36	1970.76
632.56	1998.82
632.75	2098.35
632.95	2204.02
633.14	1802.42
633.34	2117.19
633.54	1816.34
633.73	1994.31
633.93	1921.61
634.12	1792.18
634.32	2528.42
634.52	2070.50
634.71	1792.79
634.91	2000.46
635.11	1892.53
635.30	1974.04
635.50	1973.42
635.69	1884.34
635.89	2416.19
636.09	2227.17
636.28	1901.13
636.48	1906.86
636.67	2174.53
636.87	2177.20
637.07	2028.31
637.26	1927.55
637.46	2114.53
637.65	2262.19
637.85	2065.79
638.04	1952.74
638.24	2063.53
638.44	2161.84
638.63	2016.02
638.83	1960.52
639.02	2145.04
639.22	2187.85
639.42	1948.85
639.61	1966.05
639.81	2100.40
640.00	2057.18
640.20	2071.11
640.39	2041.42
640.59	2517.77
640.79	2358.65
640.98	2198.90
641.18	2176.17
641.37	2270.79
641.57	2134.80
641.76	2152.82
641.96	1905.43
642.15	2176.79
642.35	2070.50
642.55	2085.65
642.74	1904.61
642.94	2263.21
643.13	2363.15
643.33	1946.80
643.52	1907.89
643.72	2051.04
643.91	2071.93
644.11	1869.80
644.31	1889.25
644.50	1959.29
644.70	2286.76
644.89	1996.97
645.09	2051.86
645.28	2124.56
645.48	2156.51
645.67	1913.62
645.87	1811.02
646.06	2042.64
646.26	2115.14
646.45	1777.64
646.65	1759.00
646.84	2354.14
647.04	2027.49
647.24	1847.68
647.43	1943.93
647.63	2124.77
647.82	2332.64
648.02	1861.40
648.21	1905.63
648.41	2330.18
648.60	2009.67
648.80	2102.65
648.99	1983.05
649.19	1977.31
649.38	1851.77
649.58	1971.37
649.77	2029.54
649.97	2271.81
650.16	2170.23
650.36	1755.11
650.55	2130.50
650.75	2128.45
650.94	2323.42
651.14	2020.53
651.33	2012.54
651.53	2393.05
651.72	1979.98
651.92	1947.21
652.11	1777.84
652.31	2205.46
652.50	2165.32
652.70	2003.32
652.89	1877.17
653.09	2364.99
653.28	2056.57
653.48	1783.17
653.67	1818.60
653.87	2609.93
654.06	2115.96
654.25	2175.15
654.45	1919.15
654.64	2015.00
654.84	2050.63
655.03	1786.03
655.23	2108.18
655.42	2197.47
655.62	2347.18
655.81	2068.65
656.01	1909.12
656.20	2244.16
656.40	2361.10
656.59	2021.96
656.79	2112.68
656.98	2121.08
657.17	2250.51
657.37	1963.59
657.56	1942.91
657.76	2151.80
657.95	2263.62
658.15	1640.83
658.34	2018.68
658.54	2074.39
658.73	1917.72
658.92	1952.33
659.12	1972.19
659.31	2166.14
659.51	1936.76
659.70	2061.28
659.90	1928.57
660.09	2238.63
660.29	2113.91
660.48	1896.01
660.67	2144.84
660.87	2011.11
661.06	2147.09
661.26	2056.57
661.45	2078.48
661.65	2167.37
661.84	1979.77
662.03	1899.49
662.23	1925.91
662.42	2420.70
662.62	1906.86
662.81	1832.93
663.00	1954.58
663.20	2163.27
663.39	2251.54
663.59	2165.32
663.78	2040.19
663.97	2140.54
664.17	2358.03
664.36	1909.32
664.56	1973.42
664.75	2285.12
664.94	2250.92
665.14	2088.52
665.33	2032.61
665.53	2120.47
665.72	2088.11
665.91	2097.32
666.11	2025.24
666.30	2116.58
666.50	2108.18
666.69	2092.41
666.88	2002.71
667.08	2237.41
667.27	2193.17
667.47	2117.39
667.66	2084.01
667.85	2364.99
668.05	2213.65
668.24	1975.47
668.43	2247.03
668.63	2084.01
668.82	2329.36
669.02	2107.56
669.21	1980.18
669.40	1937.38
669.60	2410.87
669.79	1834.78
669.98	2559.55
670.18	1934.51
670.37	1896.42
670.56	1956.01
670.76	2026.26
670.95	2062.51
671.15	2194.19
671.34	2005.78
671.53	1956.42
671.73	1982.02
671.92	1957.45
672.11	1858.53
672.31	1901.33
672.50	2142.58
672.69	1866.31
672.89	1725.41
673.08	1939.84
673.27	2169.62
673.47	2115.55
673.66	1986.73
673.85	1851.77
674.05	2123.13
674.24	2291.68
674.43	2157.54
674.63	2407.80
674.82	2925.73
675.01	2223.89
675.21	2424.59
675.40	2206.48
675.59	2256.45
675.79	2558.94
675.98	2141.77
676.17	2310.11
676.37	2290.04
676.56	2170.23
676.75	2073.36
676.95	2046.94
677.14	2034.04
677.33	2281.85
677.52	1851.16
677.72	1887.20
677.91	2121.08
678.10	1851.57
678.30	1837.85
678.49	1842.15
678.68	2451.42
678.88	1807.95
679.07	2091.80
679.26	1902.56
679.45	2334.48
679.65	2306.01
679.84	1758.18
680.03	1781.53
680.23	1988.99
680.42	2469.44
680.61	1816.55
680.81	1900.31
681.00	2057.39
681.19	2093.43
681.38	2046.74
681.58	2004.14
681.77	2003.32
681.96	2198.49
682.15	1863.86
682.35	2014.79
682.54	2122.51
682.73	1876.76
682.93	1825.97
683.12	1866.52
683.31	2175.97
683.50	2496.27
683.70	1819.01
683.89	1996.56
684.08	1901.13
684.27	2235.15
684.47	1783.17
684.66	1964.00
684.85	2408.82
685.04	2280.41
685.24	1872.46
685.43	1920.59
685.62	1819.83
685.81	2162.45
686.01	2153.85
686.20	2096.51
686.39	2163.88
686.58	2753.70
686.78	2370.11
686.97	2340.21
687.16	2481.73
687.35	2323.63
687.55	2129.68
687.74	2143.20
687.93	2061.89
688.12	2202.80
688.32	2105.52
688.51	1913.21
688.70	2197.68
688.89	1952.94
689.08	1821.67
689.28	1915.87
689.47	2099.17
689.66	2102.04
689.85	2055.14
690.05	1865.09
690.24	1954.79
690.43	2085.65
690.62	1955.61
690.81	1880.04
691.01	2077.46
691.20	1991.24
691.39	1815.32
691.58	1988.99
691.77	2376.87
691.97	2069.68
692.16	2002.30
692.35	1942.50
692.54	1988.17
692.73	2209.14
692.93	2076.64
693.12	2124.77
693.31	2270.79
693.50	2232.90
693.69	2139.10
693.89	1991.85
694.08	2385.68
694.27	2350.25
694.46	1965.23
694.65	2016.02
694.85	2216.52
695.04	2222.87
695.23	2275.09
695.42	3617.33
695.61	4767.47
695.80	5545.69
696.00	6133.67
696.19	6505.17
696.38	5644.61
696.57	4801.67
696.76	4575.57
696.95	4222.09
697.15	4297.05
697.34	4018.52
697.53	3423.18
697.72	3312.18
697.91	3012.97
698.10	3050.86
698.30	2442.61
698.49	2249.69
698.68	2299.05
698.87	2158.15
699.06	1936.76
699.25	2025.85
699.45	2257.48
699.64	2100.60
699.83	2121.08
700.02	1914.65
700.21	2135.01
700.40	1957.24
700.59	1918.95
700.79	1953.56
700.98	2125.18
701.17	1936.15
701.36	1860.17
701.55	1879.42
701.74	2268.74
701.93	2015.00
702.12	2122.11
702.32	2108.79
702.51	2515.72
702.70	2480.09
702.89	2222.25
703.08	2107.56
703.27	2420.08
703.46	2304.58
703.65	1984.07
703.85	1935.94
704.04	2047.56
704.23	2327.11
704.42	1928.57
704.61	1918.13
704.80	2351.27
704.99	1927.55
705.18	2035.27
705.37	2119.24
705.57	3118.65
705.76	4300.94
705.95	4573.32
706.14	5483.64
706.33	5979.86
706.52	5849.41
706.71	4487.10
706.90	4147.55
707.09	4124.40
707.28	3859.60
707.47	3400.86
707.67	3380.79
707.86	3104.52
708.05	3177.63
708.24	2691.03
708.43	2494.22
708.62	2323.63
708.81	2088.52
709.00	1956.63
709.19	1916.90
709.38	2248.87
709.57	1869.39
709.76	1992.06
709.96	1923.25
710.15	2326.49
710.34	2111.25
710.53	2114.53
710.72	1936.56
710.91	2268.53
711.10	2182.32
711.29	2050.22
711.48	1909.12
711.67	1887.20
711.86	2126.41
712.05	1819.83
712.24	1860.37
712.43	2181.50
712.62	2290.65
712.81	1965.44
713.00	2098.96
713.19	1873.89
713.39	2146.48
713.58	1944.75
713.77	2197.06
713.96	2453.67
714.15	2370.11
714.34	2276.32
714.53	2128.45
714.72	2625.70
714.91	2135.21
715.10	2198.90
715.29	2048.79
715.48	2697.58
715.67	2324.85
715.86	2080.33
716.05	2024.42
716.24	2076.85
716.43	2041.62
716.62	1863.24
716.81	1819.21
717.00	2001.28
717.19	2314.41
717.38	1910.55
717.57	1925.09
717.76	1830.06
717.95	2161.63
718.14	1916.49
718.33	1958.88
718.52	1790.74
718.71	1821.46
718.90	1815.32
719.09	1892.73
719.28	2026.67
719.47	2170.85
719.66	2049.81
719.85	2077.87
720.04	2073.77
720.23	2143.20
720.42	1945.16
720.61	2044.49
720.80	1879.22
720.99	2124.97
721.18	1907.68
721.37	1884.75
721.56	2007.21
721.75	2191.94
721.94	1855.87
722.13	1949.87
722.32	2008.03
722.51	2200.75
722.70	1974.86
722.89	2023.80
723.08	2053.50
723.27	2205.46
723.46	2013.97
723.65	1936.76
723.84	2007.42
724.03	2257.68
724.22	1806.10
724.41	1950.69
724.60	2020.94
724.79	2189.89
724.98	2010.29
725.16	1903.18
725.35	2169.00
725.54	1887.00
725.73	1973.42
725.92	2033.43
726.11	2268.33
726.30	2743.66
726.49	2555.86
726.68	2802.85
726.87	3114.14
727.06	3154.49
727.25	2566.92
727.44	2605.22
727.63	2576.34
727.82	2480.70
728.01	2426.23
728.20	2403.29
728.38	2614.03
728.57	2293.32
728.76	2132.55
728.95	2217.34
729.14	2009.47
729.33	1998.00
729.52	1758.59
729.71	1867.75
729.90	1958.06
730.09	1996.16
730.28	1959.29
730.47	1968.30
730.66	2331.20
730.84	2190.30
731.03	2043.05
731.22	2077.25
731.41	2160.20
731.60	2192.35
731.79	1827.61
731.98	1905.23
732.17	2227.99
732.36	2152.62
732.55	1915.67
732.73	1849.52
732.92	2282.87
733.11	2179.45
733.30	1909.94
733.49	1856.48
733.68	2176.79
733.87	2167.37
734.06	1861.19
734.25	1945.37
734.43	2075.62
734.62	2279.59
734.81	2111.87
735.00	2069.47
735.19	2188.05
735.38	2280.00
735.57	1925.71
735.76	2133.37
735.94	2269.56
736.13	2707.82
736.32	2398.38
736.51	2397.76
736.70	2878.42
736.89	2942.73
737.08	3027.72
737.27	4589.70
737.45	6620.88
737.64	7430.44
737.83	8491.08
738.02	8938.56
738.21	8417.15
738.40	6828.34
738.59	6027.38
738.77	5673.08
738.96	5352.37
739.15	5045.38
739.34	4698.86
739.53	4273.29
739.72	4239.91
739.90	3850.80
740.09	3093.25
740.28	2815.75
740.47	2751.24
740.66	2555.05
740.85	2101.42
741.03	2094.66
741.22	2036.09
741.41	2141.36
741.60	1881.06
741.79	2047.76
741.98	2337.96
742.16	2410.66
742.35	2033.43
742.54	2080.94
742.73	2532.11
742.92	2172.89
743.10	1966.66
743.29	2099.78
743.48	2612.39
743.67	2099.58
743.86	1926.11
744.05	1950.28
744.23	1990.01
744.42	2003.12
744.61	2065.38
744.80	1897.85
744.99	2071.73
745.17	1867.13
745.36	1889.25
745.55	2119.65
745.74	2163.27
745.93	2063.53
746.11	1978.75
746.30	1905.63
746.49	2325.67
746.68	2003.12
746.86	2030.77
747.05	1995.34
747.24	2251.95
747.43	2272.02
747.62	1917.92
747.80	1996.77
747.99	2389.77
748.18	2322.60
748.37	2080.33
748.56	2174.94
748.74	2377.08
748.93	2471.08
749.12	3792.22
749.31	7956.56
749.49	11420.70
749.68	13815.80
749.87	15944.26
750.06	16681.32
750.24	15720.41
750.43	14966.35
750.62	16257.19
750.81	16690.74
750.99	17245.13
751.18	16743.37
751.37	13869.87
751.56	11861.63
751.74	11456.95
751.93	10357.19
752.12	8385.41
752.31	7230.15
752.49	6380.86
752.68	5833.64
752.87	4787.95
753.06	4147.34
753.24	3662.59
753.43	3399.22
753.62	2623.65
753.81	2414.35
753.99	2639.63
754.18	2401.24
754.37	2055.96
754.55	2075.82
754.74	2464.12
754.93	1888.02
755.12	1969.53
755.30	1920.79
755.49	2317.48
755.68	2135.01
755.86	2069.06
756.05	1873.69
756.24	2360.49
756.43	1942.09
756.61	1918.54
756.80	2031.59
756.99	2339.60
757.17	2101.22
757.36	1914.85
757.55	1973.83
757.74	2204.02
757.92	2129.07
758.11	1891.30
758.30	1823.10
758.48	2090.98
758.67	1940.25
758.86	2062.92
759.04	1958.27
759.23	2109.41
759.42	2180.47
759.60	1996.36
759.79	2036.70
759.98	2076.23
760.16	2025.65
760.35	1941.68
760.54	1883.52
760.73	2152.82
760.91	1923.66
761.10	1984.28
761.29	2067.83
761.47	2137.46
761.66	2510.40
761.85	2122.31
762.03	2537.84
762.22	4790.40
762.41	11780.33
762.59	19204.62
762.78	23064.84
762.97	28028.71
763.15	30127.67
763.34	26757.74
763.52	19499.32
763.71	18317.44
763.90	16541.65
764.08	15538.76
764.27	14095.96
764.46	13170.49
764.64	11445.69
764.83	10196.63
765.02	8952.70
765.20	7611.07
765.39	6249.79
765.58	4582.33
765.76	3758.02
765.95	3238.66
766.13	2793.43
766.32	2369.09
766.51	2239.25
766.69	3011.74
766.88	2290.86
767.07	1943.73
767.25	1795.04
767.44	2302.94
767.62	2303.56
767.81	1920.59
768.00	1962.36
768.18	2121.08
768.37	2009.26
768.56	1798.53
768.74	1921.40
768.93	1909.94
769.11	2107.16
769.30	2009.06
769.49	1908.71
769.67	2031.99
769.86	2002.09
770.04	1944.96
770.23	1867.13
770.42	2323.63
770.60	2098.14
770.79	1877.17
770.97	2048.17
771.16	3092.43
771.35	4733.27
771.53	6194.29
771.72	7090.48
771.90	8381.93
772.09	8845.59
772.27	7663.09
772.46	5928.05
772.65	6095.57
772.83	5522.35
773.02	5219.66
773.20	4759.68
773.39	4728.96
773.58	4361.76
773.76	3765.40
773.95	3482.57
774.13	3425.64
774.32	2976.72
774.50	2518.18
774.69	2404.72
774.87	2270.17
775.06	2608.29
775.25	1971.17
775.43	1969.12
775.62	2167.77
775.80	2189.28
775.99	2025.65
776.17	1941.88
776.36	2088.52
776.54	2316.46
776.73	1959.91
776.92	2069.27
777.10	2300.28
777.29	2171.05
777.47	1896.62
777.66	1938.20
777.84	2105.31
778.03	2076.03
778.21	1882.90
778.40	1996.77
778.58	2138.08
778.77	2273.25
778.95	1829.25
779.14	1877.78
779.32	2373.19
779.51	2205.46
779.70	1887.82
779.88	1800.98
780.07	1977.11
780.25	2478.04
780.44	1905.02
780.62	2040.80
780.81	2147.91
780.99	2139.92
781.18	1893.14
781.36	1864.27
781.55	2042.44
781.73	2299.87
781.92	1792.59
782.10	1823.10
782.29	2094.25
782.47	2330.79
782.66	1917.92
782.84	1789.72
783.03	1966.46
783.21	2266.08
783.40	1878.40
783.58	1881.67
783.77	1942.09
783.95	2055.34
784.14	1843.99
784.32	1958.47
784.51	2236.59
784.69	1922.22
784.88	1788.29
785.06	1908.50
785.24	1861.81
785.43	2210.99
785.61	2020.12
785.80	1854.64
785.98	2170.23
786.17	2079.51
786.35	1846.45
786.54	2030.15
786.72	2221.84
786.91	2246.01
787.09	1914.85
787.28	1840.51
787.46	2074.18
787.65	2207.10
787.83	1812.66
788.01	1965.03
788.20	1911.98
788.38	2109.00
788.57	1947.82
788.75	1941.06
788.94	2411.89
789.12	2301.10
789.31	2019.09
789.49	2113.50
789.67	1994.31
789.86	2188.25
790.04	1907.48
790.23	1833.75
790.41	2464.32
790.60	2047.35
790.78	1916.69
790.96	1964.82
791.15	2237.41
791.33	2047.56
791.52	1959.50
791.70	1856.07
791.89	2106.34
792.07	2219.18
792.25	1962.16
792.44	1837.03
792.62	2266.08
792.81	2039.78
792.99	1980.18
793.17	1965.44
793.36	2089.95
793.54	2928.39
793.73	3997.02
793.91	5507.19
794.10	6704.23
794.28	7717.36
794.46	7824.88
794.65	7495.16
794.83	5970.24
795.01	5616.96
795.20	5365.27
795.38	5039.85
795.57	4881.54
795.75	4664.66
795.93	4097.17
796.12	3853.87
796.30	3822.53
796.49	3544.42
796.67	2971.60
796.85	2892.35
797.04	2764.76
797.22	2672.80
797.40	2190.71
797.59	2221.23
797.77	2290.45
797.96	2119.03
798.14	2028.10
798.32	2050.63
798.51	2302.94
798.69	2506.51
798.87	2055.14
799.06	2032.40
799.24	2036.30
799.42	2827.22
799.61	3633.51
799.79	4306.06
799.98	5293.79
800.16	5673.28
800.34	7108.50
800.53	8796.23
800.71	9373.76
800.89	11009.06
801.08	11022.37
801.26	10933.49
801.44	9187.80
801.63	7595.10
801.81	7346.68
801.99	6663.89
802.18	6312.04
802.36	5976.18
802.54	5361.99
802.73	4690.46
802.91	4439.38
803.09	4100.03
803.28	3645.59
803.46	3287.19
803.64	3299.89
803.83	2581.06
804.01	2315.02
804.19	2173.51
804.38	2434.42
804.56	2326.70
804.74	2109.20
804.92	2149.14
805.11	2039.78
805.29	2354.14
805.47	1980.59
805.66	1915.26
805.84	1993.08
806.02	2319.32
806.21	2003.32
806.39	2201.36
806.57	2321.17
806.76	2289.83
806.94	2074.18
807.12	2043.67
807.30	2149.55
807.49	2280.82
807.67	2207.30
807.85	2264.44
808.04	2383.22
808.22	2570.20
808.40	1941.47
808.58	1871.64
808.77	2279.18
808.95	2535.79
809.13	2983.48
809.31	5471.15
809.50	8087.02
809.68	9458.13
809.86	10636.74
810.05	11589.66
810.23	13637.42
810.41	21046.16
810.59	36539.65
810.78	45323.80
810.96	53112.02
811.14	57292.54
811.32	56181.11
811.51	44623.19
811.69	35680.53
811.87	35212.77
812.05	30693.52
812.24	28665.42
812.42	26488.02
812.60	23466.45
812.78	19830.69
812.97	16859.49
813.15	14960.62
813.33	12717.68
813.51	10650.26
813.70	8376.60
813.88	6591.18
814.06	5175.22
814.24	3965.07
814.42	3117.83
814.61	2943.55
814.79	2981.23
814.97	2251.33
815.15	2222.25
815.34	2364.58
815.52	2419.06
815.70	1986.94
815.88	2077.46
816.06	2031.99
816.25	2073.57
816.43	1971.78
816.61	2108.18
816.79	2342.26
816.98	1876.55
817.16	1870.82
817.34	1862.83
817.52	2114.32
817.70	2319.94
817.89	1937.38
818.07	1839.28
818.25	2039.98
818.43	2105.11
818.61	1933.69
818.80	1891.09
818.98	2333.05
819.16	2077.25
819.34	1794.64
819.52	2153.64
819.70	1942.50
819.89	2027.90
820.07	1812.25
820.25	1754.29
820.43	2097.12
820.61	2199.31
820.80	1906.86
820.98	1791.36
821.16	1792.59
821.34	1838.26
821.52	1876.76
821.70	1997.18
821.89	2058.21
822.07	2018.89
822.25	1968.71
822.43	1842.15
822.61	2316.05
822.79	2111.25
822.98	1911.98
823.16	1725.41
823.34	2070.50
823.52	2240.68
823.70	1991.44
823.88	1771.49
824.06	2145.45
824.25	2037.93
824.43	1989.81
824.61	1832.73
824.79	2034.45
824.97	2089.75
825.15	2178.01
825.33	2877.60
825.52	4036.14
825.70	4497.95
825.88	4870.27
826.06	5334.55
826.24	5547.95
826.42	4999.50
826.60	4014.63
826.78	4114.98
826.97	3781.16
827.15	3914.90
827.33	3359.90
827.51	3329.38
827.69	3136.05
827.87	3079.94
828.05	2830.09
828.23	2525.96
828.41	2805.72
828.60	2638.81
828.78	2132.14
828.96	2255.02
829.14	2103.88
829.32	2095.48
829.50	1955.40
829.68	1941.06
829.86	2000.05
830.04	2191.53
830.22	2034.04
830.41	1844.61
830.59	2006.60
830.77	2149.55
830.95	1848.09
831.13	1860.37
831.31	1934.10
831.49	2200.95
831.67	2047.35
831.85	2025.85
832.03	1968.30
832.21	2136.44
832.39	1774.56
832.57	1826.79
832.76	2197.47
832.94	1986.94
833.12	1722.55
833.30	1890.07
833.48	2219.59
833.66	2062.71
833.84	1850.54
834.02	1915.87
834.20	2175.35
834.38	2127.84
834.56	1724.59
834.74	1805.90
834.92	1837.44
835.10	2302.33
835.28	1908.09
835.46	1935.74
835.64	2010.90
835.82	1913.83
836.01	2168.18
836.19	2063.94
836.37	1945.57
836.55	1891.71
836.73	1843.99
836.91	1801.80
837.09	2162.66
837.27	2271.81
837.45	1779.89
837.63	1807.33
837.81	1873.48
837.99	2053.91
838.17	1935.94
838.35	1832.52
838.53	2414.15
838.71	2182.11
838.89	1893.55
839.07	1919.77
839.25	2084.63
839.43	2330.79
839.61	2511.63
839.79	4148.98
839.97	6166.23
840.15	7164.82
840.33	7979.09
840.51	8510.54
840.69	8256.59
840.87	6742.12
841.05	6011.40
841.23	6585.45
841.41	8625.63
841.59	12289.86
841.77	13782.42
841.95	15189.99
842.13	16290.98
842.31	15456.22
842.49	12345.97
842.67	10329.14
842.85	10250.08
843.03	8873.44
843.21	8281.78
843.39	7678.45
843.57	6929.92
843.75	6261.87
843.93	5259.59
844.11	4712.58
844.29	4456.18
844.47	4015.45
844.65	3765.60
844.83	3258.73
845.01	3000.07
845.19	2889.89
845.36	2379.13
845.54	2263.01
845.72	2251.13
845.90	2259.93
846.08	1920.38
846.26	2016.43
846.44	2175.56
846.62	2151.80
846.80	2007.83
846.98	1869.59
847.16	2046.33
847.34	2076.44
847.52	1825.35
847.70	1780.91
847.88	2034.66
848.06	2286.97
848.24	2002.50
848.41	1786.85
848.59	2224.71
848.77	2099.37
848.95	1888.02
849.13	1857.71
849.31	2188.25
849.49	2089.34
849.67	1794.43
849.85	1784.60
850.03	2092.41
850.21	2032.61
850.39	1781.12
850.57	2011.31
850.74	2301.10
850.92	2451.01
851.10	2741.21
851.28	3416.63
851.46	4097.17
851.64	4782.42
851.82	4529.29
852.00	4571.07
852.18	4391.87
852.36	3839.74
852.53	3486.26
852.71	3381.40
852.89	3387.95
853.07	3253.61
853.25	2875.35
853.43	2700.66
853.61	2790.36
853.79	2686.94
853.97	2341.44
854.14	2271.20
854.32	2579.83
854.50	2450.80
854.68	2092.00
854.86	2031.99
855.04	1974.65
855.22	2215.08
855.40	1791.77
855.57	1830.06
855.75	2161.84
855.93	2101.83
856.11	1727.26
856.29	1839.69
856.47	1901.54
856.65	2061.69
856.82	1779.89
857.00	1753.68
857.18	1992.26
857.36	1919.97
857.54	1932.87
857.72	1993.08
857.89	2118.83
858.07	2010.90
858.25	2061.28
858.43	1761.25
858.61	2002.50
858.79	2002.09
858.97	1799.35
859.14	1956.22
859.32	1997.18
859.50	1951.51
859.68	1953.56
859.86	1828.63
860.03	2041.01
860.21	2130.50
860.39	1853.82
860.57	1980.80
860.75	2095.89
860.93	2324.44
861.10	2060.87
861.28	1821.67
861.46	2089.34
861.64	2124.36
861.82	1866.52
861.99	2005.37
862.17	2181.50
862.35	2202.59
862.53	1914.03
862.71	1884.54
862.88	2093.43
863.06	2115.14
863.24	1858.12
863.42	1818.80
863.60	1979.98
863.77	2112.68
863.95	1714.35
864.13	1852.39
864.31	1977.31
864.49	2150.98
864.66	1772.52
864.84	1810.20
865.02	2072.13
865.20	2498.73
865.37	1958.06
865.55	1832.11
865.73	1935.54
865.91	2315.43
866.09	2297.21
866.26	2305.19
866.44	2541.32
866.62	2438.93
866.80	2164.09
866.97	2147.70
867.15	2264.44
867.33	2319.12
867.51	2158.35
867.68	2104.08
867.86	2107.36
868.04	2034.66
868.22	1774.56
868.39	1954.17
868.57	2140.13
868.75	2329.97
868.93	1804.67
869.10	1896.42
869.28	2373.60
869.46	2261.16
869.64	1900.92
869.81	1836.41
869.99	2059.23
870.17	2030.97
870.35	1801.39
870.52	1855.66
870.70	2208.73
870.88	1929.19
871.05	1801.19
871.23	1667.05
871.41	1988.58
871.59	2011.51
871.76	1861.81
871.94	1785.21
872.12	2005.78
872.29	1784.60
872.47	1820.64
872.65	1759.41
872.83	2066.81
873.00	2242.32
873.18	1870.61
873.36	1794.43
873.53	2116.17
873.71	1791.36
873.89	1753.68
874.06	1849.32
874.24	2082.37
874.42	2202.80
874.60	1986.94
874.77	1904.82
874.95	1894.37
875.13	2140.54
875.30	1835.59
875.48	1815.93
875.66	2269.97
875.83	1908.30
876.01	1828.43
876.19	1938.81
876.36	1834.16
876.54	2022.78
876.72	1762.89
876.89	1928.98
877.07	2117.80
877.25	1739.75
877.42	1895.19
877.60	1843.58
877.78	2303.15
877.95	1962.16
878.13	1794.64
878.31	1988.58
878.48	2165.11
878.66	2132.55
878.84	1837.64
879.01	1879.42
879.19	2074.80
879.37	2110.64
879.54	1855.66
879.72	1741.80
879.90	1738.11
880.07	2134.39
880.25	1605.61
880.42	1986.12
880.60	2061.08
880.78	2163.47
880.95	1838.67
881.13	1904.41
881.31	2004.55
881.48	1932.87
881.66	1787.67
881.83	1919.15
882.01	1867.95
882.19	1829.25
882.36	1889.66
882.54	1801.39
882.72	2111.25
882.89	2019.71
883.07	1812.25
883.24	1814.91
883.42	2111.46
883.60	2018.27
883.77	1743.23
883.95	1842.76
884.12	2173.71
884.30	2046.54
884.48	1972.40
884.65	1874.51
884.83	2041.21
885.00	2070.91
885.18	1736.27
885.36	1847.27
885.53	2102.04
885.71	2215.70
885.88	1743.23
886.06	1832.32
886.23	2087.49
886.41	1935.74
886.59	1823.10
886.76	1760.02
886.94	2096.10
887.11	2490.53
887.29	1876.35
887.47	1764.73
887.64	2187.44
887.82	2216.52
887.99	1694.28
888.17	1884.13
888.34	1987.76
888.52	1831.09
888.69	1840.30
888.87	1757.98
889.05	1926.73
889.22	1964.82
889.40	1811.22
889.57	2043.05
889.75	2284.51
889.92	1960.52
890.10	1747.74
890.27	1865.09
890.45	1917.51
890.62	1759.21
890.80	1772.72
890.98	1698.99
891.15	2259.32
891.33	2178.63
891.50	1818.60
891.68	1697.36
891.85	2118.21
892.03	2126.00
892.20	1791.97
892.38	1776.82
892.55	2100.81
892.73	2113.91
892.90	1707.60
893.08	1806.31
893.25	1895.60
893.43	1905.63
893.60	1882.90
893.78	1672.17
893.95	2080.53
894.13	1979.77
894.30	1781.32
894.48	1830.27
894.65	2138.49
894.83	2005.17
895.00	1662.34
895.18	1668.07
895.35	2143.40
895.53	2094.87
895.70	1705.14
895.88	1965.44
896.05	2095.89
896.23	1805.08
896.40	1790.33
896.58	1876.14
896.75	2109.20
896.93	2229.01
897.10	1831.09
897.28	1712.10
897.45	2041.82
897.63	2095.28
897.80	1908.50
897.98	1840.92
898.15	2077.66
898.33	1934.31
898.50	1862.01
898.67	1818.80
898.85	1962.57
899.02	2087.70
899.20	2042.44
899.37	1840.30
899.55	2035.68
899.72	2203.82
899.90	1802.01
900.07	1764.94
900.25	2089.54
900.42	2205.46
900.59	1803.85
900.77	1915.67
900.94	2093.43
901.12	2072.75
901.29	1803.65
901.47	1962.98
901.64	2059.44
901.82	1984.89
901.99	1602.33
902.16	1757.77
902.34	2183.95
902.51	2054.52
902.69	1825.56
902.86	1850.75
903.03	2605.02
903.21	2025.03
903.38	1804.87
903.56	1781.73
903.73	2186.21
903.91	1949.05
904.08	1761.87
904.25	1667.87
904.43	1931.64
904.60	2127.84
904.78	1844.61
904.95	1766.99
905.12	1952.53
905.30	2292.70
905.47	1911.78
905.65	1965.64
905.82	2002.09
905.99	2083.81
906.17	1864.88
906.34	1771.70
906.52	1857.51
906.69	2099.17
906.86	1926.32
907.04	1912.39
907.21	2190.51
907.38	2155.08
907.56	1790.13
907.73	1793.41
907.91	2249.69
908.08	2186.21
908.25	1846.86
908.43	1740.57
908.60	2086.68
908.77	2021.55
908.95	1849.93
909.12	1776.00
909.30	2136.65
909.47	1811.84
909.64	1878.81
909.82	2026.47
909.99	2011.11
910.16	2039.16
910.34	1796.48
910.51	1811.84
910.68	2070.09
910.86	2029.74
911.03	1924.48
911.20	2590.89
911.38	4737.98
911.55	7423.68
911.72	8569.73
911.90	9576.10
912.07	10457.95
912.24	10196.84
912.42	7700.77
912.59	5611.43
912.76	5390.25
912.94	4502.05
913.11	3934.76
913.28	3507.97
913.46	3387.14
913.63	3373.62
913.80	3372.19
913.98	2883.74
914.15	3160.63
914.32	3095.30
914.49	2777.86
914.67	2571.22
914.84	2846.27
915.01	2898.90
915.19	2588.22
915.36	2402.27
915.53	2605.02
915.71	2409.44
915.88	2126.82
916.05	1973.42
916.22	2290.86
916.40	2094.66
916.57	1768.42
916.74	2000.66
916.92	2303.15
917.09	1926.32
917.26	1796.68
917.43	1743.85
917.61	1951.92
917.78	1769.24
917.95	1757.77
918.13	1717.43
918.30	2372.16
918.47	2048.79
918.64	1814.30
918.82	1781.32
918.99	2026.87
919.16	2308.06
919.33	1883.72
919.51	1870.82
919.68	1988.58
919.85	2198.08
920.02	1712.51
920.20	1839.49
920.37	2266.08
920.54	2157.13
920.71	1783.37
920.89	1823.92
921.06	2320.14
921.23	1884.13
921.40	1928.98
921.58	2464.32
921.75	3481.14
921.92	3034.48
922.09	3197.90
922.27	3165.55
922.44	3151.82
922.61	2894.39
922.78	2274.68
922.96	2272.84
923.13	2310.93
923.30	2446.71
923.47	1954.17
923.64	2014.59
923.82	2287.17
923.99	2244.16
924.16	2114.53
924.33	1903.18
924.50	2206.89
924.68	2404.52
924.85	1890.28
925.02	1949.05
925.19	2273.65
925.36	2150.98
925.54	1955.81
925.71	1931.23
925.88	2566.10
926.05	1973.42
926.22	1789.92
926.40	1914.03
926.57	2066.40
926.74	2097.32
926.91	1788.70
927.08	1956.83
927.26	2183.54
927.43	2005.37
927.60	1775.79
927.77	1841.74
927.94	2273.04
928.11	2220.20
928.29	1699.20
928.46	1872.66
928.63	1895.40
928.80	1992.67
928.97	1899.08
929.14	1778.46
929.32	2360.49
929.49	2020.53
929.66	1755.31
929.83	1698.59
930.00	1932.26
930.17	2072.34
930.35	1733.40
930.52	1772.72
930.69	2259.73
930.86	1821.46
931.03	1852.80
931.20	1616.46
931.37	2221.64
931.55	1972.81
931.72	1861.60
931.89	1743.85
932.06	1834.78
932.23	2245.80
932.40	1884.75
932.57	1912.80
932.74	2187.44
932.92	2208.53
933.09	1957.65
933.26	1562.60
933.43	1922.22
933.60	2034.45
933.77	1845.02
933.94	1886.59
934.11	1954.79
934.29	2041.01
934.46	1749.99
934.63	1906.04
934.80	1853.62
934.97	2038.75
935.14	1911.16
935.31	1743.64
935.48	1902.97
935.65	2082.99
935.82	1864.47
936.00	1754.09
936.17	2249.90
936.34	1987.96
936.51	1907.68
936.68	1751.42
936.85	2056.57
937.02	2030.77
937.19	1912.80
937.36	1856.89
937.53	2055.34
937.70	2126.20
937.87	1774.56
938.05	1912.19
938.22	2011.31
938.39	1850.95
938.56	1833.96
938.73	1725.21
938.90	1975.68
939.07	1895.80
939.24	1899.70
939.41	1671.55
939.58	2042.44
939.75	2042.64
939.92	1784.60
940.09	2036.09
940.26	1958.68
940.43	2123.33
940.60	1847.88
940.77	1791.97
940.95	2073.57
941.12	2102.65
941.29	1816.75
941.46	1854.23
941.63	2194.81
941.80	2242.73
941.97	1714.97
942.14	1670.73
942.31	2087.08
942.48	1958.06
942.65	1911.57
942.82	1848.91
942.99	2077.87
943.16	2012.33
943.33	1715.99
943.50	1771.90
943.67	2134.60
943.84	2190.51
944.01	1795.86
944.18	1763.51
944.35	2217.13
944.52	1876.55
944.69	1866.72
944.86	1706.98
945.03	2128.45
945.20	2402.27
945.37	1649.43
945.54	1822.90
945.71	2188.25
945.88	2288.61
946.05	1757.57
946.22	1734.63
946.39	2239.25
946.56	1977.11
946.73	1678.31
946.90	1706.57
947.07	1928.98
947.24	1988.99
947.41	1638.78
947.58	1909.94
947.75	2107.77
947.92	2087.70
948.09	1600.08
948.26	1688.55
948.43	2023.39
948.60	2301.10
948.77	1753.88
948.94	1784.80
949.11	2126.82
949.27	2054.93
949.44	1761.25
949.61	1706.37
949.78	2057.39
949.95	2178.01
950.12	1687.94
950.29	1687.32
950.46	1913.42
950.63	2173.92
950.80	1765.55
950.97	1819.21
951.14	2161.43
951.31	1979.36
951.48	1773.13
951.65	1687.73
951.82	2323.83
951.99	2052.06
952.15	1712.31
952.32	1766.37
952.49	1890.68
952.66	1920.79
952.83	1791.77
953.00	1745.07
953.17	1979.98
953.34	2162.25
953.51	1838.26
953.68	1868.98
953.85	2183.34
954.02	2167.37
954.18	1853.21
954.35	1816.55
954.52	1867.13
954.69	2027.49
954.86	1702.68
955.03	1848.70
955.20	2103.67
955.37	1992.88
955.54	1787.47
955.71	1734.63
955.87	2049.81
956.04	2307.24
956.21	1775.38
956.38	1736.06
956.55	2031.99
956.72	2406.57
956.89	1859.97
957.06	1730.94
957.23	1911.16
957.39	2191.33
957.56	1803.85
957.73	1711.28
957.90	1660.90
958.07	2311.75
958.24	1811.84
958.41	1811.02
958.57	2110.64
958.74	2001.28
958.91	1723.37
959.08	1748.56
959.25	2125.59
959.42	1957.65
959.59	1837.64
959.75	1816.34
959.92	2186.62
960.09	2162.45
960.26	1760.02
960.43	1849.93
960.60	2056.78
960.76	1976.70
960.93	1679.54
961.10	1866.93
961.27	2161.22
961.44	1945.98
961.61	1692.44
961.77	1699.81
961.94	2020.73
962.11	2141.56
962.28	1786.65
962.45	1695.31
962.62	1967.48
962.78	2154.67
962.95	1681.59
963.12	1759.61
963.29	2120.67
963.46	2490.53
963.62	1862.83
963.79	1774.36
963.96	2401.65
964.13	1982.84
964.30	1892.12
964.46	1792.79
964.63	1891.71
964.80	2536.00
964.97	1869.59
965.14	2270.99
965.30	2549.31
965.47	2657.24
965.64	2456.95
965.81	2370.11
965.98	2634.10
966.14	2315.02
966.31	1993.49
966.48	1990.01
966.65	2387.52
966.81	2270.99
966.98	1945.37
967.15	1950.28
967.32	2149.96
967.49	2007.21
967.65	1759.21
967.82	1727.67
967.99	2094.05
968.16	1827.81
968.32	2014.38
968.49	1845.63
968.66	2035.89
968.83	2320.55
968.99	1955.81
969.16	1779.28
969.33	2279.39
969.50	2137.26
969.66	1967.69
969.83	2061.49
970.00	2163.88
970.17	2115.76
970.33	1826.17
970.50	1711.28
970.67	2267.31
970.84	2244.37
971.00	1738.32
971.17	1692.03
971.34	2131.12
971.50	2021.55
971.67	1856.28
971.84	1809.59
972.01	1824.54
972.17	1694.49
972.34	1701.45
972.51	1921.40
972.67	2191.94
972.84	2064.97
973.01	1740.98
973.18	1756.13
973.34	2134.39
973.51	1859.97
973.68	1797.50
973.84	1819.21
974.01	1974.86
974.18	2274.88
974.34	1856.69
974.51	1890.89
974.68	1888.23
974.85	2341.44
975.01	1923.04
975.18	1796.27
975.35	2005.58
975.51	1857.71
975.68	1669.09
975.85	1934.51
976.01	1919.77
976.18	2242.32
976.35	1777.84
976.51	1807.33
976.68	2268.33
976.85	2188.87
977.01	1815.32
977.18	1868.57
977.35	2099.17
977.51	1819.21
977.68	1657.63
977.85	1742.00
978.01	2207.71
978.18	2139.51
978.35	1874.51
978.51	1883.72
978.68	2185.59
978.85	2281.23
979.01	1867.95
979.18	1830.88
979.34	1998.20
979.51	2049.61
979.68	1735.65
979.84	1860.58
980.01	2456.95
980.18	2051.45
980.34	1770.26
980.51	1870.21
980.67	2142.99
980.84	2160.61
981.01	1808.97
981.17	1859.97
981.34	1781.94
981.51	2113.91
981.67	1723.98
981.84	1889.66
982.00	2120.26
982.17	1983.05
982.34	1674.01
982.50	1547.45
982.67	2280.62
982.83	1927.55
983.00	1682.20
983.17	1590.04
983.33	2171.05
983.50	1760.64
983.66	1674.01
983.83	1584.72
984.00	1945.78
984.16	2018.48
984.33	1596.39
984.49	1562.60
984.66	1856.28
984.83	2118.62
984.99	1614.21
985.16	1569.36
985.32	2081.97
985.49	2125.38
985.65	1712.10
985.82	1565.67
985.99	2238.84
986.15	2012.33
986.32	1689.78
986.48	1625.68
986.65	1960.11
986.81	2115.14
986.98	1578.16
987.14	1676.88
987.31	2010.90
987.48	1750.19
987.64	1519.39
987.81	1554.82
987.97	2348.41
988.14	1858.74
988.30	1581.03
988.47	1488.26
988.63	2043.26
988.80	1863.24
988.96	1673.40
989.13	1702.68
989.30	1950.49
989.46	2123.74
989.63	1553.79
989.79	1565.26
989.96	1987.35
990.12	2236.59
990.29	1616.87
990.45	1621.38
990.62	1991.44
990.78	2208.53
990.95	1705.75
991.11	1620.97
991.28	1927.96
991.44	2041.42
991.61	1517.54
991.77	1687.73
991.94	2003.73
992.10	2175.15
992.27	1674.21
992.43	1652.92
992.60	2076.03
992.76	1937.79
992.93	1803.44
993.09	1558.91
993.26	2150.57
993.42	2295.57
993.59	1600.08
993.75	1544.37
993.92	1881.67
994.08	1895.80
994.25	1651.69
994.41	1570.79
994.58	2102.65
994.74	2230.44
994.91	1560.55
995.07	1688.96
995.24	1953.76
995.40	1943.73
995.56	1754.29
995.73	1727.05
995.89	2270.99
996.06	1976.09
996.22	1582.06
996.39	1549.29
996.55	1976.29
996.72	2028.51
996.88	1554.41
997.05	1598.23
997.21	2318.10
997.37	2081.76
997.54	1690.80
997.70	1649.64
997.87	2053.09
998.03	1986.32
998.20	1526.97
998.36	1534.34
998.52	2100.60
998.69	2130.50
998.85	1566.90
999.02	1667.05
999.18	2157.74
999.35	2132.35
999.51	1668.89
999.67	1619.74
999.84	1834.57
1000.00	2105.93
1000.17	1719.06
1000.33	1608.47
1000.49	1926.93
1000.66	1960.52
1000.82	1598.03
1000.99	1649.43
1001.15	2189.28
1001.31	1940.25
1001.48	1642.68
1001.64	1703.50
1001.81	1952.33
1001.97	2334.89
1002.13	1629.16
1002.30	1641.04
1002.46	2203.20
1002.63	1941.47
1002.79	1702.27
1002.95	1601.10
1003.12	2191.74
1003.28	2058.21
1003.45	1612.57
1003.61	1562.80
1003.77	2011.31
1003.94	1803.03
1004.10	1636.12
1004.26	1689.78
1004.43	2076.44
1004.59	2263.42
1004.75	1616.05
1004.92	1590.04
1005.08	1920.59
1005.25	2035.27
1005.41	1604.58
1005.57	1683.84
1005.74	2185.59
1005.90	1912.60
1006.06	1725.41
1006.23	1631.82
1006.39	2105.93
1006.55	2448.55
1006.72	1757.36
1006.88	1574.89
1007.04	1835.18
1007.21	1968.30
1007.37	1637.97
1007.53	1587.38
1007.70	2250.31
1007.86	2137.46
1008.02	1705.14
1008.19	1588.20
1008.35	1990.83
1008.51	1881.06
1008.68	1594.34
1008.84	1573.45
1009.00	1860.37
1009.17	2161.02
1009.33	1786.85
1009.49	1724.18
1009.65	1849.32
1009.82	2051.66
1009.98	1690.60
1010.14	1525.12
1010.31	2124.56
1010.47	2101.42
1010.63	1672.99
1010.80	1662.95
1010.96	2089.75
1011.12	1943.11
1011.28	1643.09
1011.45	1574.07
1011.61	2467.19
1011.77	1848.91
1011.94	1606.63
1012.10	1558.30
1012.26	1847.27
1012.42	1918.33
1012.59	1676.26
1012.75	1663.77
1012.91	1941.88
1013.07	2139.10
1013.24	1554.61
1013.40	1605.61
1013.56	2035.89
1013.72	1998.00
1013.89	1675.24
1014.05	1727.67
1014.21	2293.93
1014.37	2391.00
1014.54	1694.90
1014.70	1559.32
1014.86	1961.75
1015.02	1824.94
1015.19	1628.54
1015.35	1564.24
1015.51	1957.04
1015.67	1941.27
1015.84	1628.54
1016.00	1627.93
1016.16	2189.48
1016.32	2118.42
1016.49	1630.18
1016.65	1570.59
1016.81	2002.30
1016.97	2072.75
1017.14	1737.29
1017.30	1640.83
1017.46	1918.74
1017.62	2061.69
1017.78	1690.39
1017.95	1602.13
1018.11	2137.67
1018.27	2402.27
1018.43	1781.94
1018.59	1672.17
1018.76	2124.36
1018.92	2415.17
1019.08	1581.85
1019.24	1622.40
1019.40	2243.55
1019.57	2041.62
1019.73	1703.30
1019.89	1638.99
1020.05	2019.09
1020.21	2292.91
1020.38	1599.46
1020.54	1765.35
1020.70	2097.32
1020.86	2092.00
1021.02	1626.29
1021.18	1611.14
1021.35	1910.35
1021.51	2053.91
1021.67	1786.65
1021.83	1679.74
1021.99	1979.98
1022.15	2071.32
1022.32	1680.77
1022.48	1656.81
1022.64	2250.72
1022.80	2269.35
1022.96	1687.94
1023.12	1581.03
1023.29	2161.84
1023.45	2052.88
1023.61	1584.51
1023.77	1804.67
1023.93	2042.44
1024.09	1877.78
1024.25	1638.78
1024.42	1541.30
1024.58	1917.51
1024.74	2032.20
1024.90	1599.87
1025.06	1698.59
1025.22	1917.10
1025.38	2258.70
1025.54	1587.59
1025.71	1718.66
1025.87	2074.18
1026.03	2082.78
1026.19	1560.76
1026.35	1794.43
1026.51	2097.32
1026.67	2004.55
1026.83	1672.58
1026.99	1773.34
1027.16	2074.80
1027.32	2184.77
1027.48	1658.65
1027.64	1600.49
1027.80	2085.24
1027.96	2003.53
1028.12	1631.41
1028.28	1608.68
1028.44	2056.78
1028.60	2255.43
1028.77	1780.71
1028.93	1665.61
1029.09	1956.01
1029.25	1837.85
1029.41	1677.49
1029.57	1716.40
1029.73	2049.20
1029.89	2227.78
1030.05	1734.83
1030.21	1718.86
1030.37	2395.92
1030.53	2108.38
1030.69	1665.61
1030.85	1557.28
1031.02	1868.57
1031.18	2003.94
1031.34	1628.75
1031.50	1729.10
1031.66	1872.25
1031.82	2237.41
1031.98	1664.18
1032.14	1598.03
1032.30	1870.82
1032.46	2099.78
1032.62	1754.49
1032.78	1554.82
1032.94	1878.19
1033.10	1952.74
1033.26	1699.61
1033.42	1752.86
1033.58	2353.32
1033.74	1925.09
1033.90	1619.53
1034.06	1807.74
1034.22	2358.85
1034.38	2155.49
1034.54	1661.93
1034.70	1685.07
1034.86	2325.06
>>>>>End Processed Spectral Data<<<<<
