SpectraSuite Data File
++++++++++++++++++++++++++++++++++++
Date: Thu Mar 30 16:23:43 PDT 2017
User: UCSD _CER
Dark Spectrum Present: No
Reference Spectrum Present: No
Number of Sampled Component Spectra: 1
Spectrometers: USB4C00073
Integration Time (usec): 250000 (USB4C00073)
Spectra Averaged: 10 (USB4C00073)
Boxcar Smoothing: 0 (USB4C00073)
Correct for Electrical Dark: No (USB4C00073)
Strobe/Lamp Enabled: No (USB4C00073)
Correct for Detector Non-linearity: No (USB4C00073)
Correct for Stray Light: No (USB4C00073)
Number of Pixels in Processed Spectrum: 3648
>>>>>Begin Processed Spectral Data<<<<<
345.37	1281.62
345.58	1281.62
345.80	1281.62
346.01	1285.51
346.22	1263.19
346.43	1977.31
346.65	1773.13
346.86	2118.42
347.07	2099.37
347.28	1802.83
347.50	1806.51
347.71	1914.65
347.92	1737.50
348.13	1792.79
348.35	1695.92
348.56	1927.34
348.77	1759.82
348.98	1836.62
349.20	1658.04
349.41	1915.47
349.62	2000.05
349.83	1834.98
350.05	1709.03
350.26	1948.03
350.47	2074.39
350.68	1763.10
350.90	1723.37
351.11	2128.66
351.32	2058.82
351.53	1806.10
351.75	1712.72
351.96	1943.52
352.17	1889.66
352.38	1857.30
352.60	1861.40
352.81	1899.70
353.02	2120.67
353.23	1761.05
353.44	1819.21
353.66	1840.30
353.87	1894.58
354.08	1895.40
354.29	1811.02
354.51	1839.49
354.72	1897.65
354.93	1802.21
355.14	1748.97
355.35	1756.75
355.57	2073.36
355.78	1831.91
355.99	1925.50
356.20	1956.22
356.42	1932.26
356.63	1924.27
356.84	1842.97
357.05	2022.78
357.26	2198.49
357.48	1896.21
357.69	1841.12
357.90	1957.04
358.11	1871.23
358.32	1822.08
358.54	1842.15
358.75	1831.29
358.96	1998.00
359.17	1778.87
359.38	1806.72
359.60	1984.69
359.81	1875.32
360.02	1825.76
360.23	1774.56
360.44	1840.92
360.66	2036.30
360.87	1735.24
361.08	1749.78
361.29	1979.57
361.50	1904.61
361.72	1792.59
361.93	1854.44
362.14	1939.43
362.35	1765.14
362.56	1884.34
362.77	1749.58
362.99	2005.37
363.20	1923.45
363.41	1887.82
363.62	1732.58
363.83	1996.56
364.05	2019.71
364.26	1711.69
364.47	1761.46
364.68	2048.99
364.89	1825.56
365.10	1752.04
365.32	1809.18
365.53	1819.42
365.74	1855.87
365.95	1786.85
366.16	1697.77
366.37	1882.90
366.59	1893.55
366.80	1809.38
367.01	1660.70
367.22	2160.40
367.43	2264.64
367.64	1822.49
367.86	1809.99
368.07	1976.29
368.28	2067.83
368.49	1751.22
368.70	1883.72
368.91	1850.95
369.12	1874.10
369.34	1699.81
369.55	1709.85
369.76	1908.50
369.97	1840.71
370.18	1728.49
370.39	1740.98
370.60	1745.89
370.82	1771.90
371.03	1788.08
371.24	1753.47
371.45	2003.53
371.66	1985.30
371.87	1813.27
372.08	1747.94
372.30	1784.40
372.51	2012.33
372.72	1887.00
372.93	1769.45
373.14	2061.69
373.35	1833.14
373.56	1748.56
373.78	1808.97
373.99	2017.45
374.20	2243.14
374.41	1817.98
374.62	1791.36
374.83	2079.51
375.04	1844.61
375.25	1841.33
375.47	1775.79
375.68	1863.04
375.89	1969.94
376.10	1829.04
376.31	1907.07
376.52	1961.75
376.73	1979.98
376.94	1842.56
377.15	1769.45
377.37	1925.71
377.58	1897.24
377.79	1690.80
378.00	1740.16
378.21	1949.05
378.42	1988.37
378.63	1811.02
378.84	1877.17
379.05	2017.04
379.27	1948.85
379.48	1909.94
379.69	1759.00
379.90	2063.94
380.11	1673.60
380.32	1794.02
380.53	1907.68
380.74	2050.63
380.95	1917.72
381.16	1826.38
381.37	1796.68
381.59	2059.64
381.80	2046.74
382.01	1768.83
382.22	1708.42
382.43	1976.29
382.64	1936.15
382.85	1760.02
383.06	1848.29
383.27	2030.97
383.48	1904.82
383.69	1852.59
383.91	1745.69
384.12	1969.33
384.33	1969.53
384.54	1794.43
384.75	1680.77
384.96	2282.46
385.17	2018.48
385.38	1770.88
385.59	1764.73
385.80	1983.66
386.01	2083.81
386.22	1890.48
386.43	1835.59
386.64	2185.80
386.86	1892.53
387.07	1926.93
387.28	1724.80
387.49	1842.56
387.70	2087.49
387.91	1872.66
388.12	1733.61
388.33	1968.51
388.54	1855.66
388.75	1782.35
388.96	1858.94
389.17	1861.81
389.38	1871.43
389.59	1899.90
389.80	1828.22
390.01	1895.60
390.22	1842.76
390.43	1880.44
390.64	1687.94
390.86	1933.08
391.07	2041.42
391.28	1808.36
391.49	1804.87
391.70	1775.18
391.91	1812.25
392.12	1792.59
392.33	1794.23
392.54	1927.14
392.75	1871.84
392.96	1870.00
393.17	1744.25
393.38	2183.54
393.59	2033.63
393.80	1775.79
394.01	1901.33
394.22	2026.87
394.43	2283.08
394.64	1899.70
394.85	2053.29
395.06	2029.33
395.27	1995.54
395.48	1859.97
395.69	1755.52
395.90	1896.42
396.11	1893.96
396.32	1774.97
396.53	1909.12
396.74	1864.27
396.95	2024.01
397.16	1767.19
397.37	1696.33
397.58	2000.87
397.79	1915.87
398.00	1834.57
398.21	1793.41
398.42	1968.30
398.63	2187.03
398.84	1795.66
399.05	1765.96
399.26	2061.08
399.47	1974.24
399.68	1646.98
399.89	1745.69
400.10	1768.83
400.31	1862.22
400.52	1834.57
400.73	1769.24
400.94	1732.99
401.15	1941.06
401.36	1799.96
401.57	1832.32
401.78	2060.05
401.99	2024.42
402.20	1730.33
402.41	1914.44
402.62	2101.83
402.83	1877.17
403.04	1775.59
403.25	1936.15
403.46	2001.68
403.67	2210.58
403.88	1987.55
404.09	1984.48
404.30	2049.61
404.51	2000.87
404.72	1863.24
404.93	1973.63
405.14	1868.16
405.35	1918.74
405.56	1813.68
405.77	1781.12
405.98	1937.38
406.19	1872.66
406.40	1739.75
406.61	1781.53
406.82	1821.26
407.03	2186.62
407.24	1716.20
407.45	1830.68
407.66	1942.50
407.87	1995.34
408.08	1843.17
408.29	1880.44
408.49	1997.38
408.70	1917.51
408.91	1806.51
409.12	1873.69
409.33	1795.66
409.54	2075.41
409.75	1775.79
409.96	1805.08
410.17	2003.94
410.38	1870.00
410.59	1794.64
410.80	1902.97
411.01	1885.97
411.22	1885.97
411.43	1850.34
411.64	1774.16
411.85	1806.31
412.06	1815.32
412.27	1641.45
412.47	1778.05
412.68	1895.60
412.89	1946.18
413.10	1776.82
413.31	1687.32
413.52	2159.17
413.73	2174.94
413.94	1779.68
414.15	1931.85
414.36	1848.91
414.57	1819.01
414.78	1827.40
414.99	2355.98
415.19	2941.70
415.40	3151.21
415.61	3301.33
415.82	3164.52
416.03	3008.26
416.24	2666.66
416.45	2326.08
416.66	2046.33
416.87	1872.05
417.08	2045.10
417.29	1855.87
417.50	2002.50
417.70	2201.16
417.91	2190.51
418.12	2185.18
418.33	2295.98
418.54	2508.76
418.75	2653.14
418.96	2786.88
419.17	3162.06
419.38	3824.38
419.59	3827.24
419.79	3729.35
420.00	3545.44
420.21	3439.77
420.42	2650.69
420.63	2321.37
420.84	2164.91
421.05	1984.89
421.26	1944.75
421.47	1750.81
421.67	2053.29
421.88	1807.74
422.09	1791.97
422.30	1955.81
422.51	1821.26
422.72	2109.20
422.93	1977.11
423.14	1803.85
423.35	1693.26
423.55	1712.10
423.76	1817.57
423.97	1828.22
424.18	1711.49
424.39	1938.20
424.60	2102.44
424.81	1908.50
425.02	2158.56
425.22	2286.56
425.43	2319.32
425.64	2517.16
425.85	2523.10
426.06	2806.95
426.27	2703.52
426.48	2734.86
426.68	2719.50
426.89	2781.55
427.10	2834.80
427.31	2361.92
427.52	2056.37
427.73	2170.03
427.94	2067.83
428.14	1957.24
428.35	1814.50
428.56	2089.34
428.77	2043.05
428.98	1936.35
429.19	2112.07
429.40	2251.74
429.60	2353.94
429.81	2391.21
430.02	2279.59
430.23	2162.25
430.44	2184.16
430.65	1923.66
430.85	1950.69
431.06	1997.18
431.27	1722.75
431.48	1831.29
431.69	1856.28
431.90	1923.04
432.10	1923.86
432.31	1880.44
432.52	2032.81
432.73	2691.44
432.94	2697.17
433.15	2559.14
433.35	2432.99
433.56	2573.68
433.77	2291.06
433.98	2247.03
434.19	2113.30
434.40	2135.62
434.60	2045.51
434.81	1898.47
435.02	1944.55
435.23	1949.87
435.44	1876.76
435.64	1726.64
435.85	1770.47
436.06	1884.13
436.27	1861.60
436.48	1704.32
436.68	1783.37
436.89	2123.95
437.10	1982.43
437.31	1824.33
437.52	1900.11
437.73	1936.35
437.93	1923.25
438.14	1846.86
438.35	1687.53
438.56	1852.18
438.77	1896.21
438.97	1921.40
439.18	1770.88
439.39	2047.15
439.60	1756.13
439.80	1688.96
440.01	1804.67
440.22	1857.71
440.43	1979.77
440.64	1721.11
440.84	1820.64
441.05	1775.79
441.26	2263.62
441.47	1860.37
441.68	1771.29
441.88	1893.96
442.09	1864.06
442.30	1962.16
442.51	1853.82
442.71	1857.51
442.92	1954.17
443.13	1787.88
443.34	1754.90
443.55	1794.43
443.75	1971.58
443.96	1773.95
444.17	1739.75
444.38	2025.44
444.58	1804.47
444.79	1874.30
445.00	1819.62
445.21	1873.48
445.41	1875.94
445.62	1640.22
445.83	1888.43
446.04	1933.69
446.24	1779.07
446.45	1639.81
446.66	1785.21
446.87	1943.93
447.07	1856.48
447.28	2007.62
447.49	1837.03
447.70	2018.07
447.90	2045.31
448.11	1819.83
448.32	1882.08
448.53	2080.74
448.73	2054.32
448.94	1809.79
449.15	1920.59
449.36	1908.09
449.56	1957.04
449.77	1809.99
449.98	1751.22
450.19	1948.64
450.39	2065.17
450.60	2080.12
450.81	2071.52
451.02	2119.85
451.22	2251.13
451.43	1915.06
451.64	1943.32
451.84	1979.36
452.05	2188.46
452.26	1962.36
452.47	1858.33
452.67	1884.13
452.88	2118.83
453.09	1790.54
453.30	1763.71
453.50	2021.96
453.71	2101.01
453.92	1807.74
454.12	1917.31
454.33	1826.38
454.54	1874.30
454.75	1776.41
454.95	1760.23
455.16	1926.93
455.37	1957.24
455.57	1862.01
455.78	1835.18
455.99	1946.18
456.19	1909.73
456.40	1744.05
456.61	1854.23
456.82	1890.07
457.02	1994.72
457.23	1881.88
457.44	2000.05
457.64	1853.21
457.85	1984.48
458.06	1842.56
458.26	2005.17
458.47	1952.94
458.68	2082.37
458.89	1813.07
459.09	2054.11
459.30	2281.85
459.51	2011.31
459.71	1809.38
459.92	1844.40
460.13	2042.03
460.33	2214.26
460.54	1820.64
460.75	1830.27
460.95	1802.01
461.16	1967.69
461.37	1819.42
461.57	1883.72
461.78	1907.48
461.99	1802.83
462.19	2062.71
462.40	1864.47
462.61	2258.09
462.81	2141.56
463.02	1816.14
463.23	1838.46
463.43	2029.74
463.64	1917.92
463.85	2799.57
464.05	1849.32
464.26	2397.35
464.47	2153.85
464.67	2026.06
464.88	1897.03
465.09	1822.08
465.29	1934.10
465.50	1953.76
465.71	1841.53
465.91	1849.93
466.12	1917.10
466.33	1874.51
466.53	1819.21
466.74	2125.79
466.94	1868.57
467.15	1813.48
467.36	1992.26
467.56	1804.06
467.77	1954.58
467.98	1874.71
468.18	1812.45
468.39	1869.80
468.60	2176.99
468.80	1864.47
469.01	1794.02
469.21	1968.92
469.42	2111.25
469.63	1933.49
469.83	1884.95
470.04	2125.38
470.25	2265.05
470.45	1968.10
470.66	1850.34
470.86	1997.79
471.07	1917.51
471.28	1952.74
471.48	2005.58
471.69	1959.70
471.90	2405.34
472.10	1814.30
472.31	1869.80
472.51	1821.46
472.72	1826.79
472.93	1770.06
473.13	1946.18
473.34	1945.98
473.54	1903.59
473.75	1872.25
473.96	2030.97
474.16	1922.02
474.37	2050.43
474.57	1943.11
474.78	1876.96
474.99	2038.34
475.19	2034.66
475.40	1869.59
475.60	1766.17
475.81	2112.89
476.02	1948.03
476.22	1944.55
476.43	2096.92
476.63	2009.26
476.84	2224.50
477.05	1764.53
477.25	1834.37
477.46	2315.84
477.66	1948.44
477.87	1731.35
478.08	1875.94
478.28	2044.69
478.49	1922.02
478.69	1790.13
478.90	1826.99
479.10	2036.09
479.31	2131.73
479.52	1909.53
479.72	1994.93
479.93	2005.58
480.13	1872.66
480.34	1808.97
480.54	1910.35
480.75	1805.90
480.96	2062.92
481.16	1783.37
481.37	1919.56
481.57	2042.85
481.78	1964.82
481.98	2026.47
482.19	1898.26
482.40	2157.13
482.60	2041.21
482.81	1966.87
483.01	1887.61
483.22	2108.79
483.42	2114.32
483.63	2007.83
483.83	1964.41
484.04	1888.84
484.24	2029.13
484.45	1911.37
484.66	1742.41
484.86	1974.04
485.07	1845.63
485.27	1900.52
485.48	1817.78
485.68	2108.59
485.89	1856.07
486.09	1934.72
486.30	1854.85
486.50	1977.52
486.71	1979.98
486.91	2053.70
487.12	2117.80
487.33	2365.81
487.53	2345.74
487.74	2183.34
487.94	2081.15
488.15	2204.84
488.35	2294.54
488.56	2204.64
488.76	2157.33
488.97	2151.60
489.17	2174.74
489.38	1999.43
489.58	1953.97
489.79	2016.84
489.99	2023.80
490.20	1893.76
490.40	1997.38
490.61	2045.72
490.81	1872.25
491.02	1930.01
491.22	1975.06
491.43	2038.96
491.63	1983.25
491.84	2023.60
492.04	1787.67
492.25	2030.15
492.45	1916.69
492.66	1844.40
492.86	1749.58
493.07	1924.27
493.27	2220.41
493.48	1785.01
493.68	1900.11
493.89	1926.32
494.09	2030.97
494.30	1840.10
494.50	2091.39
494.71	2027.90
494.91	1861.81
495.12	1975.06
495.32	2087.08
495.53	2058.21
495.73	1864.06
495.94	1929.60
496.14	1742.41
496.35	2192.56
496.55	1902.77
496.76	1856.28
496.96	1936.56
497.17	1957.86
497.37	2015.61
497.58	1860.78
497.78	1819.62
497.98	1936.15
498.19	1951.51
498.39	1934.51
498.60	1987.35
498.80	1786.44
499.01	2084.01
499.21	1820.64
499.42	1891.50
499.62	1929.60
499.83	2215.49
500.03	1756.34
500.24	1935.74
500.44	2097.94
500.64	2071.32
500.85	1843.79
501.05	1974.45
501.26	1757.77
501.46	2100.40
501.67	1828.43
501.87	1773.95
502.08	1839.69
502.28	1919.56
502.48	1970.97
502.69	2037.93
502.89	1837.23
503.10	1933.49
503.30	1953.97
503.51	1945.16
503.71	1821.46
503.92	2066.61
504.12	2037.73
504.32	2000.46
504.53	2192.76
504.73	2259.52
504.94	2179.65
505.14	2327.72
505.35	2330.79
505.55	2322.19
505.75	2268.53
505.96	2325.67
506.16	2387.32
506.37	2076.44
506.57	1980.18
506.78	2079.71
506.98	2215.70
507.18	1900.31
507.39	1904.00
507.59	1976.09
507.80	1941.88
508.00	2056.78
508.20	2122.72
508.41	1974.04
508.61	2207.51
508.82	2128.45
509.02	2042.23
509.22	1813.89
509.43	1807.54
509.63	1843.99
509.84	1875.94
510.04	1785.62
510.24	2140.54
510.45	2038.55
510.65	1785.01
510.86	1919.97
511.06	1861.60
511.26	2094.05
511.47	2063.74
511.67	1909.73
511.88	2056.78
512.08	2123.95
512.28	1793.61
512.49	2003.32
512.69	1986.94
512.90	1982.23
513.10	1854.03
513.30	1918.13
513.51	2036.91
513.71	2124.56
513.91	1937.99
514.12	1944.75
514.32	2140.95
514.53	2017.45
514.73	2172.49
514.93	2121.70
515.14	2235.97
515.34	2498.11
515.54	2391.41
515.75	2520.64
515.95	2676.08
516.15	2706.39
516.36	2338.58
516.56	2238.43
516.77	1890.68
516.97	2147.30
517.17	2047.35
517.38	2114.73
517.58	2317.07
517.78	2189.89
517.99	2392.23
518.19	2530.06
518.39	2822.72
518.60	2665.23
518.80	2454.08
519.00	2391.62
519.21	2206.48
519.41	2347.59
519.61	1974.65
519.82	2091.59
520.02	2073.57
520.22	2072.34
520.43	2036.91
520.63	2016.02
520.83	2013.97
521.04	1948.64
521.24	2333.46
521.44	2376.05
521.65	2506.51
521.85	2718.88
522.05	2478.25
522.26	2313.18
522.46	2481.52
522.66	2235.15
522.87	1989.40
523.07	2155.28
523.27	2028.31
523.48	2263.01
523.68	2075.21
523.88	2073.16
524.09	2227.37
524.29	2192.35
524.49	2013.97
524.70	2349.02
524.90	2514.70
525.10	2392.64
525.31	2122.51
525.51	1995.75
525.71	2194.81
525.91	2106.75
526.12	1888.84
526.32	1827.81
526.52	1915.06
526.73	1888.64
526.93	1966.66
527.13	1792.79
527.34	1983.25
527.54	1996.97
527.74	1910.14
527.94	1883.52
528.15	1885.56
528.35	2012.13
528.55	2025.24
528.76	1979.36
528.96	1778.25
529.16	2073.98
529.36	2044.28
529.57	1815.73
529.77	2073.77
529.97	1835.18
530.18	1995.54
530.38	1885.56
530.58	2013.77
530.78	1962.98
530.99	1880.44
531.19	2030.77
531.39	1893.55
531.60	1974.45
531.80	1925.09
532.00	2016.84
532.20	1996.36
532.41	1891.09
532.61	1883.31
532.81	1926.52
533.01	1896.83
533.22	1998.41
533.42	1978.13
533.62	1740.57
533.82	2114.53
534.03	1937.38
534.23	1957.24
534.43	1836.82
534.63	1893.14
534.84	1974.65
535.04	1936.76
535.24	1908.50
535.44	2250.51
535.65	1884.75
535.85	1846.24
536.05	1849.11
536.25	1954.58
536.46	1869.18
536.66	2125.18
536.86	2014.18
537.06	2141.36
537.27	2214.06
537.47	2065.58
537.67	1905.43
537.87	2152.62
538.08	1966.05
538.28	1824.74
538.48	1863.45
538.68	2009.47
538.88	2108.18
539.09	1837.85
539.29	1946.59
539.49	2081.15
539.69	2002.50
539.90	1971.17
540.10	1869.80
540.30	2176.99
540.50	1977.72
540.70	1884.34
540.91	2052.27
541.11	2177.20
541.31	2371.14
541.51	2218.97
541.72	2307.04
541.92	2313.39
542.12	2168.18
542.32	2081.15
542.52	1983.05
542.73	1962.36
542.93	2083.40
543.13	1961.34
543.33	2101.01
543.53	2228.80
543.74	2276.93
543.94	2136.65
544.14	2341.03
544.34	2537.23
544.54	2442.20
544.75	2546.44
544.95	2744.48
545.15	2582.69
545.35	2570.82
545.55	2382.20
545.75	2147.09
545.96	2470.06
546.16	2041.62
546.36	2062.10
546.56	2072.95
546.76	2214.88
546.97	2287.38
547.17	2009.26
547.37	2079.71
547.57	1907.48
547.77	2070.50
547.97	1967.69
548.18	2002.91
548.38	2058.00
548.58	2661.13
548.78	2830.29
548.98	3261.60
549.18	3662.38
549.39	3908.75
549.59	3447.14
549.79	3065.81
549.99	3102.47
550.19	2857.94
550.39	2668.91
550.60	2428.07
550.80	2367.45
551.00	2341.44
551.20	2123.95
551.40	2027.28
551.60	2136.03
551.80	2086.47
552.01	2159.58
552.21	2093.43
552.41	2112.07
552.61	2295.98
552.81	2051.66
553.01	1919.97
553.21	2077.66
553.42	1887.00
553.62	1890.48
553.82	1884.75
554.02	2167.57
554.22	2054.73
554.42	1845.22
554.62	2035.89
554.83	2423.57
555.03	2784.01
555.23	2832.14
555.43	3290.06
555.63	3293.13
555.83	3098.17
556.03	2722.98
556.23	2540.30
556.44	2661.54
556.64	2725.03
556.84	2337.35
557.04	2518.80
557.24	2507.53
557.44	2357.01
557.64	2204.84
557.84	2036.09
558.04	2090.16
558.25	2185.59
558.45	1993.29
558.65	2089.75
558.85	2123.74
559.05	1964.21
559.25	2110.02
559.45	2287.38
559.65	2707.21
559.85	3288.42
560.05	2827.02
560.26	2952.35
560.46	2974.67
560.66	2721.34
560.86	2488.49
561.06	2323.42
561.26	2507.53
561.46	2336.12
561.66	2168.80
561.86	2213.85
562.06	2053.09
562.26	2081.15
562.47	2067.42
562.67	1902.77
562.87	2100.19
563.07	1864.88
563.27	2054.32
563.47	2051.86
563.67	2003.53
563.87	2176.79
564.07	2126.00
564.27	2260.34
564.47	2377.08
564.67	2481.52
564.87	2384.04
565.08	2382.40
565.28	2223.68
565.48	2309.49
565.68	2234.74
565.88	2189.69
566.08	2316.05
566.28	2028.72
566.48	1867.13
566.68	1948.64
566.88	1918.13
567.08	2100.19
567.28	1990.42
567.48	2020.73
567.68	2146.89
567.88	1963.80
568.08	2178.22
568.28	2254.61
568.48	2142.99
568.68	2314.41
568.89	2123.13
569.09	1870.82
569.29	2151.80
569.49	2098.55
569.69	1890.68
569.89	1885.16
570.09	1757.16
570.29	1877.17
570.49	1789.31
570.69	1846.86
570.89	2046.74
571.09	2217.34
571.29	1791.97
571.49	2043.26
571.69	1973.42
571.89	1976.09
572.09	1845.83
572.29	1828.22
572.49	2018.07
572.69	2014.18
572.89	1972.40
573.09	1815.73
573.29	2153.85
573.49	2205.05
573.69	2198.29
573.89	2263.62
574.09	2065.38
574.29	2216.52
574.49	1973.22
574.69	1901.33
574.89	1832.73
575.09	1830.88
575.29	1833.75
575.49	1902.56
575.69	1987.55
575.89	1776.00
576.09	1928.98
576.29	1984.69
576.49	1899.29
576.69	2022.78
576.89	1975.06
577.09	2043.46
577.29	1847.06
577.49	2260.34
577.69	1909.32
577.89	2073.16
578.09	1998.61
578.29	1802.21
578.49	1966.87
578.69	1868.98
578.89	2053.29
579.09	1973.01
579.29	1867.34
579.49	2095.69
579.69	1950.49
579.89	2226.14
580.09	1794.64
580.29	1788.90
580.49	1898.26
580.69	1827.40
580.89	1893.14
581.09	1897.24
581.29	1880.04
581.49	1899.70
581.69	1809.18
581.89	1810.61
582.09	1818.80
582.28	1826.58
582.48	2064.35
582.68	2163.88
582.88	2245.60
583.08	2105.93
583.28	2073.16
583.48	2058.00
583.68	1954.79
583.88	2041.62
584.08	1965.23
584.28	1955.20
584.48	2197.47
584.68	2037.52
584.88	1898.67
585.08	2085.86
585.28	2098.55
585.48	2155.49
585.68	2070.50
585.87	2090.77
586.07	2067.83
586.27	1988.37
586.47	2033.63
586.67	1963.59
586.87	1949.05
587.07	1937.38
587.27	1858.94
587.47	2072.34
587.67	2398.58
587.87	2812.89
588.07	2715.40
588.27	2711.10
588.46	2995.15
588.66	3024.65
588.86	2625.29
589.06	2561.19
589.26	2513.88
589.46	2353.12
589.66	2053.50
589.86	1994.11
590.06	2106.75
590.26	2336.12
590.46	2260.75
590.66	2436.67
590.85	2388.96
591.05	2478.86
591.25	2172.69
591.45	2197.06
591.65	2316.46
591.85	2323.83
592.05	2305.60
592.25	2487.67
592.45	2556.89
592.64	2412.92
592.84	2331.61
593.04	2121.70
593.24	2574.50
593.44	2192.76
593.64	2229.01
593.84	2268.33
594.04	2175.56
594.24	2381.79
594.43	2041.01
594.63	2085.24
594.83	2157.33
595.03	2098.35
595.23	1875.73
595.43	1795.04
595.63	1921.40
595.83	2098.76
596.02	1743.44
596.22	1949.67
596.42	2068.24
596.62	2030.77
596.82	1967.69
597.02	2095.28
597.22	2193.99
597.41	2012.95
597.61	1918.54
597.81	2149.55
598.01	2200.95
598.21	2066.20
598.41	2066.81
598.61	2028.72
598.80	2134.60
599.00	2207.92
599.20	2239.86
599.40	2093.64
599.60	2153.23
599.80	2227.37
599.99	2222.87
600.19	2093.64
600.39	2102.65
600.59	2152.21
600.79	2078.28
600.99	2085.65
601.19	2302.33
601.38	2320.35
601.58	2126.20
601.78	1903.18
601.98	2470.67
602.18	3495.88
602.37	4335.14
602.57	4689.64
602.77	5266.56
602.97	5483.03
603.17	5060.53
603.37	4842.63
603.56	4793.27
603.76	4609.36
603.96	4463.96
604.16	4157.17
604.36	3812.70
604.56	3466.80
604.75	2977.34
604.95	2912.01
605.15	2884.77
605.35	2741.00
605.55	2516.13
605.74	2370.73
605.94	2491.56
606.14	2246.83
606.34	2167.37
606.54	2082.37
606.73	1995.13
606.93	2101.63
607.13	1913.01
607.33	2003.12
607.53	2186.41
607.72	2117.60
607.92	2026.06
608.12	2080.94
608.32	2009.67
608.51	2089.75
608.71	1964.21
608.91	2179.86
609.11	2267.92
609.31	2217.75
609.50	2395.10
609.70	2620.38
609.90	2601.53
610.10	2569.18
610.29	2433.60
610.49	2288.40
610.69	2402.47
610.89	2235.15
611.09	2202.18
611.28	2247.03
611.48	2239.86
611.68	2074.59
611.88	2020.94
612.07	1955.20
612.27	2166.75
612.47	1981.20
612.67	2055.96
612.86	2113.71
613.06	1980.39
613.26	1823.51
613.46	2018.48
613.65	2145.66
613.85	2576.34
614.05	2358.03
614.25	2326.90
614.44	2262.19
614.64	2221.84
614.84	2188.46
615.04	2162.04
615.23	2166.75
615.43	2273.04
615.63	2226.14
615.83	2069.06
616.02	2061.28
616.22	2444.66
616.42	2345.74
616.62	2429.51
616.81	2565.08
617.01	2599.49
617.21	2461.45
617.41	2214.26
617.60	2255.43
617.80	2251.54
618.00	2212.01
618.19	2105.31
618.39	2070.29
618.59	2089.54
618.79	1971.17
618.98	1753.06
619.18	1901.95
619.38	2195.83
619.57	1919.36
619.77	1896.01
619.97	1885.36
620.17	1967.28
620.36	1981.82
620.56	2342.88
620.76	2195.22
620.95	2274.68
621.15	2332.02
621.35	2218.36
621.54	2239.86
621.74	2207.30
621.94	2063.53
622.14	1992.26
622.33	1894.58
622.53	2008.44
622.73	1964.41
622.92	1822.69
623.12	1971.99
623.32	2167.37
623.51	2036.91
623.71	1806.72
623.91	2058.21
624.10	1796.68
624.30	1984.69
624.50	1845.63
624.69	1813.89
624.89	2439.54
625.09	1886.59
625.29	1734.02
625.48	1805.08
625.68	1931.03
625.88	2044.49
626.07	1933.28
626.27	1795.25
626.47	1849.52
626.66	1704.11
626.86	1867.95
627.06	1884.34
627.25	1902.36
627.45	2110.84
627.64	1870.21
627.84	2079.92
628.04	1814.50
628.23	2172.28
628.43	1821.46
628.63	1915.87
628.82	2013.36
629.02	2364.79
629.22	2243.55
629.41	2315.43
629.61	2196.65
629.81	2490.13
630.00	2215.90
630.20	2184.98
630.40	2355.37
630.59	2361.10
630.79	2210.78
630.98	2124.15
631.18	2089.34
631.38	2086.27
631.57	2136.24
631.77	1842.56
631.97	1989.81
632.16	2012.13
632.36	1939.02
632.56	1905.43
632.75	1929.60
632.95	2048.38
633.14	1786.24
633.34	2054.73
633.54	1713.95
633.73	1851.77
633.93	1838.87
634.12	1720.91
634.32	2230.85
634.52	1904.00
634.71	1760.84
634.91	1898.88
635.11	1774.97
635.30	1826.38
635.50	1929.80
635.69	1842.35
635.89	2232.49
636.09	2151.60
636.28	1947.62
636.48	1959.50
636.67	2126.00
636.87	2114.12
637.07	2045.10
637.26	1937.38
637.46	2108.18
637.65	2220.00
637.85	2084.01
638.04	2035.89
638.24	2073.16
638.44	2099.37
638.63	1997.59
638.83	1964.00
639.02	2041.42
639.22	2054.73
639.42	1931.03
639.61	1906.45
639.81	1950.08
640.00	1904.61
640.20	2011.51
640.39	2068.86
640.59	2609.93
640.79	2612.39
640.98	2770.08
641.18	2864.90
641.37	2861.42
641.57	2576.14
641.76	2495.86
641.96	2244.37
642.15	2371.75
642.35	2224.09
642.55	2226.14
642.74	2047.15
642.94	2175.97
643.13	2217.54
643.33	1933.28
643.52	1870.00
643.72	1869.39
643.91	1909.12
644.11	1830.47
644.31	1803.24
644.50	1846.04
644.70	2039.98
644.89	1910.55
645.09	1955.40
645.28	1927.34
645.48	1975.06
645.67	1826.38
645.87	1737.70
646.06	1903.38
646.26	1988.17
646.45	1739.75
646.65	1682.00
646.84	2189.48
647.04	1887.00
647.24	1790.74
647.43	1926.11
647.63	1947.82
647.82	2110.23
648.02	1777.43
648.21	1834.37
648.41	2118.62
648.60	1864.88
648.80	2013.36
648.99	1939.02
649.19	1848.91
649.38	1704.73
649.58	1914.44
649.77	1928.16
649.97	2040.60
650.16	1958.27
650.36	1687.53
650.55	1995.13
650.75	1964.41
650.94	2131.73
651.14	1880.24
651.33	1916.90
651.53	2113.09
651.72	1817.16
651.92	1890.68
652.11	1717.02
652.31	1981.41
652.50	1930.62
652.70	1959.09
652.89	1800.37
653.09	2131.73
653.28	1971.37
653.48	1793.41
653.67	1781.73
653.87	2348.41
654.06	1982.02
654.25	2116.78
654.45	1842.76
654.64	1916.49
654.84	1882.29
655.03	1711.08
655.23	2000.66
655.42	1982.02
655.62	2134.60
655.81	1911.98
656.01	1795.66
656.20	2033.22
656.40	2123.54
656.59	1896.01
656.79	2019.09
656.98	1933.90
657.17	1985.92
657.37	1902.15
657.56	1818.60
657.76	1936.56
657.95	2051.66
658.15	1578.78
658.34	1897.85
658.54	1900.72
658.73	1813.27
658.92	1880.24
659.12	1939.43
659.31	2031.99
659.51	1904.20
659.70	2092.82
659.90	2016.23
660.09	2181.91
660.29	2050.02
660.48	1923.86
660.67	2162.45
660.87	1928.78
661.06	2017.66
661.26	2042.23
661.45	2015.82
661.65	1984.89
661.84	1886.18
662.03	1856.48
662.23	1852.80
662.42	2154.67
662.62	1801.39
662.81	1821.05
663.00	1832.11
663.20	1926.32
663.39	1930.01
663.59	1954.17
663.78	1834.57
663.97	1839.69
664.17	2013.36
664.36	1732.79
664.56	1817.16
664.75	1993.49
664.94	2000.46
665.14	1953.56
665.33	1978.13
665.53	2041.21
665.72	2023.80
665.91	2117.80
666.11	2017.25
666.30	2029.33
666.50	1971.78
666.69	2017.86
666.88	1919.77
667.08	1977.11
667.27	1923.04
667.47	1939.63
667.66	1880.44
667.85	2073.98
668.05	1948.44
668.24	1863.86
668.43	2040.19
668.63	1853.41
668.82	2085.65
669.02	1968.71
669.21	1932.67
669.40	1834.78
669.60	2186.00
669.79	1797.71
669.98	2391.21
670.18	1824.13
670.37	1805.28
670.56	1913.42
670.76	1953.15
670.95	1949.87
671.15	2076.44
671.34	2025.85
671.53	2001.28
671.73	1927.55
671.92	1879.22
672.11	1821.87
672.31	1922.22
672.50	1996.56
672.69	1779.48
672.89	1668.89
673.08	1846.04
673.27	2023.39
673.47	1945.78
673.66	1976.29
673.85	1820.44
674.05	2106.75
674.24	2562.01
674.43	2719.70
674.63	3205.28
674.82	3640.06
675.01	3133.80
675.21	3216.13
675.40	2881.90
675.59	2752.47
675.79	2944.77
675.98	2606.86
676.17	2681.41
676.37	2545.01
676.56	2326.29
676.75	2264.44
676.95	2148.52
677.14	2061.69
677.33	2164.09
677.52	1895.40
677.72	1897.24
677.91	2007.21
678.10	1800.37
678.30	1834.16
678.49	1771.70
678.68	2194.19
678.88	1696.13
679.07	2023.60
679.26	1878.60
679.45	2141.36
679.65	2062.92
679.84	1715.38
680.03	1722.14
680.23	1863.45
680.42	2251.54
680.61	1780.91
680.81	1845.22
681.00	1926.93
681.19	1960.52
681.38	2025.65
681.58	1991.44
681.77	1913.62
681.96	2056.37
682.15	1914.44
682.35	1963.59
682.54	2020.53
682.73	1834.37
682.93	1843.17
683.12	1855.66
683.31	2044.90
683.50	2270.58
683.70	1826.17
683.89	1924.68
684.08	1821.26
684.27	2057.80
684.47	1766.78
684.66	1933.28
684.85	2203.41
685.04	2066.81
685.24	1859.35
685.43	1929.39
685.62	1714.97
685.81	2027.90
686.01	2222.66
686.20	2386.50
686.39	2449.17
686.58	3026.08
686.78	2842.99
686.97	2805.31
687.16	2701.27
687.35	2600.92
687.55	2407.59
687.74	2454.49
687.93	2285.74
688.12	2366.43
688.32	2375.03
688.51	2097.94
688.70	2285.74
688.89	1989.40
689.08	1898.88
689.28	1934.51
689.47	2032.81
689.66	2006.19
689.85	2029.74
690.05	1869.18
690.24	1865.70
690.43	1967.28
690.62	1964.82
690.81	1815.73
691.01	1890.68
691.20	1866.11
691.39	1824.13
691.58	1985.10
691.77	2148.52
691.97	1951.30
692.16	1966.66
692.35	1914.03
692.54	1933.28
692.73	2153.44
692.93	2161.02
693.12	2255.84
693.31	2346.77
693.50	2328.13
693.69	2239.04
693.89	2137.87
694.08	2324.65
694.27	2343.29
694.46	2058.41
694.65	2139.31
694.85	2204.43
695.04	2226.35
695.23	2198.70
695.42	2885.59
695.61	3467.42
695.80	3907.52
696.00	4259.98
696.19	4412.14
696.38	3894.42
696.57	3494.45
696.76	3393.28
696.95	3145.07
697.15	3198.52
697.34	3065.19
697.53	2680.38
697.72	2608.50
697.91	2423.77
698.10	2500.98
698.30	2133.57
698.49	2082.99
698.68	2103.88
698.87	2004.55
699.06	1880.85
699.25	1957.65
699.45	2083.19
699.64	1997.59
699.83	2050.84
700.02	1828.84
700.21	2006.39
700.40	1866.31
700.59	1887.20
700.79	1851.57
700.98	1998.82
701.17	1857.51
701.36	1852.59
701.55	1836.62
701.74	2198.08
701.93	2280.62
702.12	2705.98
702.32	2869.61
702.51	3248.90
702.70	3301.94
702.89	2960.95
703.08	2633.07
703.27	2838.48
703.46	2660.31
703.65	2441.59
703.85	2315.02
704.04	2315.64
704.23	2454.08
704.42	2126.61
704.61	2086.47
704.80	2268.94
704.99	1923.04
705.18	2009.06
705.37	2005.99
705.57	2569.59
705.76	3404.34
705.95	3687.57
706.14	4386.95
706.33	4709.71
706.52	4768.08
706.71	3873.32
706.90	3494.86
707.09	3446.53
707.28	3270.61
707.47	2925.11
707.67	2977.54
707.86	2682.84
708.05	2790.97
708.24	2479.48
708.43	2314.82
708.62	2124.15
708.81	1995.54
709.00	1865.09
709.19	1892.32
709.38	2087.29
709.57	1841.33
709.76	2078.07
709.96	2012.74
710.15	2293.52
710.34	2137.26
710.53	2212.01
710.72	2032.81
710.91	2182.11
711.10	2088.11
711.29	2089.75
711.48	1987.96
711.67	1922.63
711.86	2129.27
712.05	1933.69
712.24	1964.00
712.43	2141.56
712.62	2160.40
712.81	1992.06
713.00	2084.22
713.19	1805.90
713.39	2000.87
713.58	1832.73
713.77	2029.54
713.96	2117.80
714.15	2061.69
714.34	2017.66
714.53	1935.74
714.72	2307.24
714.91	1986.53
715.10	2139.51
715.29	1983.87
715.48	2527.81
715.67	2199.93
715.86	2114.32
716.05	2056.57
716.24	2011.72
716.43	1985.51
716.62	1890.68
716.81	1848.70
717.00	1968.30
717.19	2161.63
717.38	1999.02
717.57	1920.99
717.76	1774.16
717.95	2059.44
718.14	1910.35
718.33	1871.84
718.52	1708.62
718.71	1733.20
718.90	1770.26
719.09	1838.46
719.28	1915.26
719.47	2049.20
719.66	2155.28
719.85	2203.20
720.04	2176.38
720.23	2246.42
720.42	2153.85
720.61	2182.52
720.80	1938.61
720.99	2114.94
721.18	2007.83
721.37	1963.80
721.56	1959.09
721.75	2128.25
721.94	1906.86
722.13	1996.16
722.32	1940.45
722.51	2077.87
722.70	1923.25
722.89	1992.88
723.08	1907.27
723.27	2019.91
723.46	1915.67
723.65	1861.40
723.84	1846.45
724.03	2081.76
724.22	1787.06
724.41	1923.66
724.60	1880.85
724.79	1995.54
724.98	1942.09
725.16	1850.75
725.35	2013.77
725.54	1827.20
725.73	1934.72
725.92	1977.52
726.11	2078.28
726.30	2399.60
726.49	2251.74
726.68	2411.07
726.87	2539.07
727.06	2626.32
727.25	2273.86
727.44	2345.13
727.63	2267.10
727.82	2224.30
728.01	2196.65
728.20	2231.67
728.38	2341.24
728.57	2081.97
728.76	2064.56
728.95	2125.59
729.14	1840.51
729.33	1855.05
729.52	1716.61
729.71	1856.28
729.90	1823.72
730.09	1969.94
730.28	2018.89
730.47	2068.04
730.66	2358.65
730.84	2283.89
731.03	2264.85
731.22	2228.80
731.41	2203.41
731.60	2167.57
731.79	1917.51
731.98	2012.33
732.17	2148.52
732.36	2119.44
732.55	1949.87
732.73	1872.46
732.92	2143.61
733.11	2017.66
733.30	1856.89
733.49	1777.84
733.68	2031.59
733.87	2020.53
734.06	1937.38
734.25	2129.48
734.43	2371.75
734.62	2522.28
734.81	2597.44
735.00	2562.01
735.19	2509.17
735.38	2412.51
735.57	2215.70
735.76	2383.84
735.94	2529.45
736.13	3173.74
736.32	3329.59
736.51	3507.15
736.70	3908.14
736.89	4022.21
737.08	3831.14
737.27	4297.46
737.45	5431.62
737.64	5706.66
737.83	6346.86
738.02	6598.76
738.21	6243.03
738.40	5357.08
738.59	4842.83
738.77	4539.94
738.96	4177.86
739.15	3977.36
739.34	3711.53
739.53	3446.53
739.72	3308.70
739.90	3075.64
740.09	2642.29
740.28	2538.05
740.47	2465.96
740.66	2350.66
740.85	2086.27
741.03	2121.08
741.22	1966.05
741.41	2065.38
741.60	1906.66
741.79	2125.79
741.98	2240.68
742.16	2331.20
742.35	2209.55
742.54	2238.02
742.73	2623.45
742.92	2376.67
743.10	2303.76
743.29	2346.77
743.48	2625.09
743.67	2166.14
743.86	2038.55
744.05	2065.58
744.23	2018.27
744.42	2068.04
744.61	2072.75
744.80	1924.89
744.99	2001.48
745.17	1839.69
745.36	1798.73
745.55	1984.28
745.74	1945.57
745.93	1837.23
746.11	1840.71
746.30	1816.96
746.49	2047.15
746.68	1834.37
746.86	1895.60
747.05	1902.36
747.24	2025.03
747.43	2079.51
747.62	1894.78
747.80	1995.75
747.99	2242.12
748.18	2173.30
748.37	2106.54
748.56	2094.46
748.74	2181.91
748.93	2129.48
749.12	2397.15
749.31	3239.68
749.49	3915.31
749.68	4418.90
749.87	4840.78
750.06	5019.16
750.24	5146.75
750.43	5651.98
750.62	6258.80
750.81	6711.19
750.99	7116.69
751.18	7036.82
751.37	5940.13
751.56	5242.19
751.74	5283.14
751.93	5030.63
752.12	4156.15
752.31	3857.96
752.49	3544.21
752.68	3548.11
752.87	3086.49
753.06	2830.09
753.24	2609.93
753.43	2589.66
753.62	2217.54
753.81	2097.94
753.99	2300.48
754.18	2105.72
754.37	1911.98
754.55	2014.38
754.74	2193.58
754.93	1784.40
755.12	1883.31
755.30	1852.39
755.49	2044.69
755.68	1965.23
755.86	1972.19
756.05	1805.28
756.24	2112.48
756.43	1785.21
756.61	1804.26
756.80	1965.03
756.99	2121.70
757.17	1912.19
757.36	1809.99
757.55	1928.57
757.74	2034.25
757.92	1933.08
758.11	1774.97
758.30	1742.41
758.48	1917.10
758.67	1795.45
758.86	1910.75
759.04	1785.01
759.23	1908.50
759.42	1938.40
759.60	1846.45
759.79	1896.62
759.98	1876.14
760.16	1816.75
760.35	1806.10
760.54	1758.39
760.73	1949.67
760.91	1760.02
761.10	1909.94
761.29	1959.09
761.47	1934.51
761.66	2214.26
761.85	1993.70
762.03	2189.07
762.22	3111.07
762.41	6076.12
762.59	9572.82
762.78	11284.31
762.97	13612.85
763.15	14524.40
763.34	13236.23
763.52	9970.33
763.71	9310.89
763.90	8683.80
764.08	8087.02
764.27	7477.13
764.46	7015.52
764.64	6177.90
764.83	5692.33
765.02	5136.51
765.20	4533.38
765.39	3939.06
765.58	3088.54
765.76	2839.92
765.95	2545.63
766.13	2333.87
766.32	2178.42
766.51	2102.44
766.69	2610.75
766.88	2062.30
767.07	1871.43
767.25	1780.09
767.44	2090.57
767.62	2124.36
767.81	1868.36
768.00	1980.80
768.18	1950.28
768.37	1889.46
768.56	1808.97
768.74	1873.48
768.93	1815.11
769.11	2013.36
769.30	1930.01
769.49	1844.40
769.67	1922.84
769.86	1898.88
770.04	1887.61
770.23	1874.30
770.42	2088.31
770.60	1956.22
770.79	1819.62
770.97	1898.47
771.16	2483.57
771.35	3354.37
771.53	4186.46
771.72	4732.45
771.90	5417.29
772.09	5743.12
772.27	5182.18
772.46	4119.08
772.65	4227.21
772.83	3925.34
773.02	3762.32
773.20	3429.94
773.39	3433.21
773.58	3250.95
773.76	2836.85
773.95	2759.43
774.13	2642.29
774.32	2426.02
774.50	2174.53
774.69	2134.19
774.87	2032.81
775.06	2270.79
775.25	1890.48
775.43	1898.47
775.62	1966.66
775.80	2000.25
775.99	1950.08
776.17	1854.64
776.36	1940.25
776.54	2086.88
776.73	1900.72
776.92	1973.83
777.10	2061.28
777.29	1985.30
777.47	1825.56
777.66	1861.40
777.84	1927.14
778.03	1957.24
778.21	1827.81
778.40	1920.59
778.58	1985.30
778.77	2061.69
778.95	1778.46
779.14	1826.99
779.32	2149.96
779.51	2032.20
779.70	1888.02
779.88	1779.68
780.07	1860.78
780.25	2239.25
780.44	1871.23
780.62	2008.03
780.81	1977.11
780.99	1966.46
781.18	1826.38
781.36	1837.03
781.55	1901.95
781.73	2084.42
781.92	1781.32
782.10	1765.35
782.29	1948.64
782.47	2087.49
782.66	1907.89
782.84	1741.59
783.03	1812.86
783.21	2043.67
783.40	1862.83
783.58	1837.03
783.77	1841.53
783.95	1876.96
784.14	1795.66
784.32	1898.47
784.51	2115.76
784.69	1862.22
784.88	1785.01
785.06	1943.52
785.24	1849.11
785.43	2072.34
785.61	2008.03
785.80	1859.76
785.98	2029.13
786.17	1965.44
786.35	1860.17
786.54	1996.97
786.72	2087.49
786.91	2060.26
787.09	1923.25
787.28	1800.16
787.46	1962.57
787.65	2049.40
787.83	1815.11
788.01	1947.00
788.20	1859.15
788.38	2003.12
788.57	1961.95
788.75	2023.60
788.94	2242.94
789.12	2143.61
789.31	2000.46
789.49	2045.72
789.67	1954.38
789.86	2053.09
790.04	1896.83
790.23	1805.08
790.41	2268.94
790.60	1984.48
790.78	1982.23
790.96	1949.87
791.15	2071.93
791.33	1969.53
791.52	1907.27
791.70	1862.83
791.89	1950.69
792.07	2029.74
792.25	1927.14
792.44	1779.28
792.62	2090.36
792.81	1877.58
792.99	1892.32
793.17	1844.20
793.36	1852.39
793.54	2363.56
793.73	2846.68
793.91	3514.31
794.10	4181.95
794.28	4665.27
794.46	4657.90
794.65	4571.89
794.83	3768.88
795.01	3612.62
795.20	3623.88
795.38	3367.48
795.57	3302.55
795.75	3222.07
795.93	2927.98
796.12	2864.29
796.30	2792.00
796.49	2668.30
796.67	2359.67
796.85	2376.26
797.04	2255.22
797.22	2203.61
797.40	1893.14
797.59	2039.57
797.77	2030.77
797.96	1897.03
798.14	1859.56
798.32	1890.68
798.51	2051.04
798.69	2175.97
798.87	1914.44
799.06	1903.59
799.24	1791.15
799.42	2276.32
799.61	2650.89
799.79	2984.71
799.98	3533.57
800.16	3673.44
800.34	4451.06
800.53	5382.06
800.71	5727.14
800.89	6640.74
801.08	6820.35
801.26	6795.98
801.44	5804.76
801.63	4907.55
801.81	4766.85
801.99	4462.93
802.18	4207.35
802.36	4063.58
802.54	3804.10
802.73	3375.87
802.91	3231.49
803.09	3044.72
803.28	2845.04
803.46	2696.77
803.64	2663.79
803.83	2175.76
804.01	2080.53
804.19	1974.45
804.38	2230.24
804.56	2149.55
804.74	2019.09
804.92	2062.71
805.11	1939.43
805.29	2146.68
805.47	1948.64
805.66	1856.89
805.84	1870.21
806.02	2114.53
806.21	1923.04
806.39	2086.27
806.57	2118.21
806.76	2107.56
806.94	1989.19
807.12	1937.38
807.30	1945.16
807.49	2078.89
807.67	2087.29
807.85	2127.43
808.04	2146.07
808.22	2355.37
808.40	1847.47
808.58	1856.28
808.77	2075.41
808.95	2255.43
809.13	2418.65
809.31	3873.32
809.50	5421.79
809.68	6230.13
809.86	6951.22
810.05	7429.21
810.23	8175.49
810.41	10265.03
810.59	16031.09
810.78	19602.75
810.96	22536.87
811.14	24383.73
811.32	23785.31
811.51	19472.70
811.69	15712.22
811.87	15475.07
812.05	13607.11
812.24	12729.56
812.42	11785.65
812.60	10640.63
812.78	9052.84
812.97	7816.48
813.15	7180.18
813.33	6132.64
813.51	5424.66
813.70	4449.21
813.88	3692.08
814.06	3209.58
814.24	2784.21
814.42	2299.05
814.61	2301.51
814.79	2376.05
814.97	1896.42
815.15	1969.12
815.34	2058.62
815.52	2115.96
815.70	1849.32
815.88	1890.68
816.06	1856.48
816.25	1909.32
816.43	1816.75
816.61	1999.84
816.79	2139.72
816.98	1843.99
817.16	1917.31
817.34	1880.85
817.52	2062.92
817.70	2222.46
817.89	1919.36
818.07	1865.29
818.25	1945.78
818.43	1973.83
818.61	1914.85
818.80	1874.30
818.98	2149.96
819.16	1954.79
819.34	1812.04
819.52	2122.31
819.70	1843.58
819.89	1921.40
820.07	1775.38
820.25	1727.46
820.43	1974.24
820.61	2042.23
820.80	1894.58
820.98	1780.71
821.16	1713.13
821.34	1739.95
821.52	1862.63
821.70	1889.87
821.89	1910.35
822.07	1878.40
822.25	1841.53
822.43	1796.68
822.61	2077.66
822.79	1959.50
822.98	1848.70
823.16	1701.04
823.34	1922.02
823.52	2068.04
823.70	1962.16
823.88	1719.06
824.06	1984.28
824.25	1892.12
824.43	1997.38
824.61	1839.69
824.79	1994.31
824.97	2050.84
825.15	2181.29
825.33	2518.18
825.52	3086.49
825.70	3291.90
825.88	3538.48
826.06	3822.33
826.24	3860.83
826.42	3606.27
826.60	3098.17
826.78	3130.73
826.97	2872.07
827.15	2986.96
827.33	2637.37
827.51	2684.07
827.69	2472.51
827.87	2475.58
828.05	2386.09
828.23	2174.53
828.41	2329.77
828.60	2267.10
828.78	1943.73
828.96	2037.32
829.14	1898.06
829.32	1958.27
829.50	1886.18
829.68	1866.31
829.86	1884.75
830.04	2024.42
830.22	1944.96
830.41	1801.39
830.59	1897.03
830.77	1994.52
830.95	1836.21
831.13	1820.85
831.31	1823.92
831.49	2006.80
831.67	1984.48
831.85	1987.76
832.03	1864.27
832.21	1984.69
832.39	1761.05
832.57	1810.81
832.76	2043.67
832.94	1935.94
833.12	1727.05
833.30	1890.48
833.48	2034.04
833.66	1971.99
833.84	1831.29
834.02	1873.89
834.20	2004.14
834.38	2019.30
834.56	1723.98
834.74	1791.56
834.92	1733.20
835.10	2129.89
835.28	1927.96
835.46	1896.83
835.64	1860.37
835.82	1827.20
836.01	2096.71
836.19	2028.51
836.37	1846.04
836.55	1811.43
836.73	1806.10
836.91	1750.60
837.09	1992.67
837.27	2095.69
837.45	1757.98
837.63	1809.18
837.81	1808.97
837.99	1941.47
838.17	1918.74
838.35	1887.61
838.53	2272.84
838.71	2140.13
838.89	1970.15
839.07	1998.20
839.25	2055.55
839.43	2167.57
839.61	2264.85
839.79	3334.50
839.97	4381.01
840.15	4956.90
840.33	5435.31
840.51	5904.70
840.69	5633.55
840.87	4747.81
841.05	4389.62
841.23	4608.13
841.41	5655.26
841.59	7643.43
841.77	8512.38
841.95	9188.83
842.13	9955.18
842.31	9432.74
842.49	7701.18
842.67	6680.47
842.85	6513.97
843.03	5737.79
843.21	5461.73
843.39	5224.57
843.57	4767.67
843.75	4335.35
843.93	3844.04
844.11	3470.49
844.29	3301.94
844.47	3035.91
844.65	3001.30
844.83	2673.42
845.01	2485.21
845.19	2451.62
845.36	2168.18
845.54	2135.62
845.72	2066.20
845.90	2062.51
846.08	1807.54
846.26	1893.14
846.44	2012.54
846.62	1972.40
846.80	1897.44
846.98	1809.99
847.16	1889.46
847.34	1954.58
847.52	1732.79
847.70	1805.28
847.88	1903.79
848.06	2081.97
848.24	1915.67
848.41	1735.04
848.59	2039.57
848.77	1940.04
848.95	1826.99
849.13	1809.59
849.31	1996.56
849.49	1924.89
849.67	1768.42
849.85	1770.06
850.03	1951.51
850.21	1909.12
850.39	1791.77
850.57	1928.98
850.74	2098.14
850.92	2128.45
851.10	2295.36
851.28	2619.35
851.46	2920.81
851.64	3389.18
851.82	3193.19
852.00	3223.09
852.18	3144.86
852.36	2839.10
852.53	2640.04
852.71	2627.95
852.89	2624.47
853.07	2551.97
853.25	2311.75
853.43	2162.45
853.61	2294.34
853.79	2212.83
853.97	2040.80
854.14	1991.44
854.32	2204.43
854.50	2121.29
854.68	1929.80
854.86	1909.94
855.04	1851.98
855.22	2025.85
855.40	1754.49
855.57	1829.66
855.75	1989.81
855.93	1957.45
856.11	1702.27
856.29	1803.65
856.47	1811.22
856.65	1942.70
856.82	1796.48
857.00	1696.33
857.18	1880.65
857.36	1824.94
857.54	1897.85
857.72	1961.54
857.89	1982.43
858.07	1910.75
858.25	1987.35
858.43	1746.51
858.61	1836.00
858.79	1899.08
858.97	1779.28
859.14	1912.39
859.32	1859.97
859.50	1860.99
859.68	1925.50
859.86	1843.79
860.03	1965.85
860.21	2054.73
860.39	1872.87
860.57	1997.59
860.75	1983.66
860.93	2212.42
861.10	2039.37
861.28	1883.52
861.46	2013.56
861.64	2026.26
861.82	1899.29
861.99	1977.52
862.17	2080.74
862.35	2074.18
862.53	1882.70
862.71	1873.69
862.88	1935.54
863.06	1962.98
863.24	1836.82
863.42	1806.51
863.60	1864.68
863.77	1959.50
863.95	1663.57
864.13	1882.70
864.31	1859.35
864.49	1960.11
864.66	1746.51
864.84	1800.57
865.02	1918.54
865.20	2236.79
865.37	1878.19
865.55	1815.52
865.73	1776.61
865.91	2088.72
866.09	2088.93
866.26	2078.89
866.44	2224.71
866.62	2102.04
866.80	1965.03
866.97	2034.25
867.15	2046.54
867.33	2041.42
867.51	2054.93
867.68	2002.30
867.86	1939.02
868.04	1890.89
868.22	1746.71
868.39	1888.64
868.57	1987.35
868.75	2100.19
868.93	1749.37
869.10	1829.45
869.28	2136.65
869.46	2054.32
869.64	1858.12
869.81	1849.52
869.99	1896.01
870.17	1918.74
870.35	1804.87
870.52	1772.72
870.70	2028.51
870.88	1827.81
871.05	1748.56
871.23	1655.58
871.41	1891.91
871.59	1885.16
871.76	1831.29
871.94	1797.50
872.12	1914.44
872.29	1727.05
872.47	1805.90
872.65	1746.92
872.83	1925.91
873.00	2088.72
873.18	1840.92
873.36	1799.75
873.53	1992.88
873.71	1741.80
873.89	1791.77
874.06	1865.70
874.24	1945.37
874.42	2055.75
874.60	1960.32
874.77	1898.26
874.95	1795.45
875.13	2050.84
875.30	1793.61
875.48	1849.52
875.66	2127.43
875.83	1863.45
876.01	1880.65
876.19	1969.53
876.36	1769.24
876.54	1898.26
876.72	1798.73
876.89	1925.09
877.07	1991.65
877.25	1690.80
877.42	1893.76
877.60	1860.37
877.78	2128.25
877.95	1847.06
878.13	1770.47
878.31	1953.97
878.48	2013.77
878.66	1940.86
878.84	1802.42
879.01	1863.24
879.19	1938.20
879.37	1955.81
879.54	1830.47
879.72	1749.58
879.90	1693.87
880.07	1995.54
880.25	1609.70
880.42	1960.11
880.60	1922.63
880.78	1953.76
880.95	1816.55
881.13	1847.27
881.31	1893.76
881.48	1802.42
881.66	1785.01
881.83	1882.70
882.01	1798.53
882.19	1719.68
882.36	1877.17
882.54	1803.03
882.72	1945.37
882.89	1903.38
883.07	1789.11
883.24	1829.25
883.42	1988.99
883.60	1924.68
883.77	1761.25
883.95	1827.20
884.12	2046.33
884.30	1997.59
884.48	2052.88
884.65	1958.47
884.83	2048.99
885.00	2030.36
885.18	1822.90
885.36	1886.18
885.53	2018.68
885.71	2075.82
885.88	1770.47
886.06	1829.66
886.23	1980.39
886.41	1868.36
886.59	1817.57
886.76	1776.82
886.94	1956.42
887.11	2247.65
887.29	1867.34
887.47	1718.25
887.64	2054.11
887.82	2057.80
887.99	1670.94
888.17	1857.92
888.34	1843.99
888.52	1758.39
888.69	1879.22
888.87	1747.33
889.05	1825.76
889.22	1825.76
889.40	1767.19
889.57	1961.34
889.75	2079.71
889.92	1845.02
890.10	1772.31
890.27	1841.12
890.45	1806.10
890.62	1697.15
890.80	1718.66
890.98	1703.71
891.15	2071.93
891.33	1968.71
891.50	1784.60
891.68	1709.44
891.85	1974.04
892.03	1947.41
892.20	1785.21
892.38	1733.81
892.55	1975.88
892.73	1957.04
892.90	1733.61
893.08	1804.47
893.25	1809.79
893.43	1805.90
893.60	1930.21
893.78	1667.66
893.95	1903.38
894.13	1866.11
894.30	1747.74
894.48	1838.26
894.65	1958.88
894.83	1898.06
895.00	1661.11
895.18	1653.12
895.35	1971.78
895.53	1973.83
895.70	1707.19
895.88	1961.54
896.05	1952.53
896.23	1775.38
896.40	1819.42
896.58	1881.88
896.75	1992.26
896.93	2055.75
897.10	1794.64
897.28	1735.04
897.45	1916.08
897.63	1960.52
897.80	1932.46
897.98	1838.87
898.15	1949.67
898.33	1803.24
898.50	1883.11
898.67	1835.59
898.85	1830.68
899.02	1947.21
899.20	2014.18
899.37	1841.33
899.55	1899.08
899.72	2059.23
899.90	1767.60
900.07	1763.51
900.25	1929.19
900.42	2035.27
900.59	1791.36
900.77	1913.83
900.94	1948.23
901.12	1906.25
901.29	1787.06
901.47	1930.01
901.64	1960.93
901.82	1891.71
901.99	1623.42
902.16	1757.98
902.34	2001.07
902.51	1900.52
902.69	1811.63
902.86	1847.88
903.03	2326.90
903.21	1880.44
903.38	1846.24
903.56	1772.72
903.73	1980.59
903.91	1849.32
904.08	1732.58
904.25	1680.56
904.43	1804.47
904.60	1998.82
904.78	1822.28
904.95	1746.92
905.12	1830.68
905.30	2131.12
905.47	1932.26
905.65	1967.89
905.82	1901.54
905.99	2003.53
906.17	1923.25
906.34	1866.93
906.52	1923.25
906.69	2067.01
906.86	2045.72
907.04	1951.71
907.21	2095.48
907.38	2072.54
907.56	1855.05
907.73	1831.09
907.91	2097.94
908.08	2067.42
908.25	1801.19
908.43	1804.06
908.60	1971.99
908.77	1933.69
908.95	1813.68
909.12	1789.31
909.30	1988.58
909.47	1732.58
909.64	1858.94
909.82	1956.83
909.99	1861.60
910.16	1908.09
910.34	1781.32
910.51	1804.06
910.68	1904.82
910.86	1882.49
911.03	1785.42
911.20	2022.16
911.38	2809.40
911.55	3943.16
911.72	4429.35
911.90	4576.80
912.07	5011.99
912.24	5004.62
912.42	4002.96
912.59	3205.48
912.76	3203.43
912.94	2822.92
913.11	2589.25
913.28	2431.14
913.46	2311.95
913.63	2404.32
913.80	2515.11
913.98	2187.64
914.15	2353.32
914.32	2359.06
914.49	2175.35
914.67	2024.83
914.84	2192.56
915.01	2237.82
915.19	2107.97
915.36	1974.86
915.53	2153.44
915.71	2053.70
915.88	1962.98
916.05	1824.54
916.22	2024.42
916.40	1921.61
916.57	1777.84
916.74	1921.40
916.92	2063.74
917.09	1778.66
917.26	1752.04
917.43	1755.93
917.61	1844.40
917.78	1699.81
917.95	1707.39
918.13	1743.64
918.30	2162.25
918.47	1936.76
918.64	1799.14
918.82	1816.14
918.99	1948.03
919.16	2225.12
919.33	1964.00
919.51	1913.21
919.68	1995.13
919.85	2134.80
920.02	1767.19
920.20	1866.72
920.37	2135.62
920.54	2022.98
920.71	1774.56
920.89	1831.09
921.06	2134.80
921.23	1833.96
921.40	1852.59
921.58	2142.58
921.75	2756.16
921.92	2383.63
922.09	2491.35
922.27	2514.50
922.44	2435.85
922.61	2320.14
922.78	2084.22
922.96	2012.54
923.13	2008.24
923.30	2145.45
923.47	1836.21
923.64	1887.20
923.82	2026.06
923.99	2019.09
924.16	1961.95
924.33	1814.91
924.50	1935.94
924.68	2121.90
924.85	1778.87
925.02	1866.52
925.19	2033.63
925.36	1973.01
925.54	1942.09
925.71	1876.14
925.88	2285.74
926.05	1871.43
926.22	1745.48
926.40	1880.04
926.57	1927.75
926.74	1984.07
926.91	1765.35
927.08	1966.87
927.26	2001.68
927.43	1900.11
927.60	1755.72
927.77	1838.67
927.94	2104.70
928.11	2024.62
928.29	1716.61
928.46	1842.56
928.63	1821.26
928.80	1872.66
928.97	1923.45
929.14	1776.41
929.32	2178.22
929.49	1908.30
929.66	1761.66
929.83	1700.43
930.00	1805.49
930.17	1934.10
930.35	1685.48
930.52	1810.40
930.69	2059.64
930.86	1742.62
931.03	1868.77
931.20	1636.33
931.37	2026.47
931.55	1859.15
931.72	1877.17
931.89	1705.55
932.06	1763.30
932.23	2094.66
932.40	1915.26
932.57	1880.04
932.74	2058.21
932.92	2041.82
933.09	1951.51
933.26	1575.91
933.43	1830.47
933.60	1924.68
933.77	1849.32
933.94	1851.36
934.11	1844.81
934.29	1877.37
934.46	1749.37
934.63	1880.65
934.80	1754.70
934.97	1915.26
935.14	1865.90
935.31	1728.69
935.48	1800.98
935.65	1934.31
935.82	1883.31
936.00	1754.90
936.17	2090.57
936.34	1873.07
936.51	1911.37
936.68	1723.16
936.85	1937.17
937.02	1874.92
937.19	1899.08
937.36	1812.86
937.53	1932.87
937.70	1993.70
937.87	1827.20
938.05	1903.18
938.22	1901.54
938.39	1771.90
938.56	1802.83
938.73	1756.34
938.90	1846.45
939.07	1803.44
939.24	1828.22
939.41	1679.33
939.58	1892.53
939.75	1945.16
939.92	1762.28
940.09	1967.48
940.26	1869.18
940.43	1993.08
940.60	1775.18
940.77	1794.64
940.95	1928.78
941.12	1974.04
941.29	1779.28
941.46	1826.99
941.63	2044.28
941.80	2046.33
941.97	1685.89
942.14	1691.62
942.31	1968.92
942.48	1864.27
942.65	1876.76
942.82	1814.30
942.99	1935.94
943.16	1867.75
943.33	1749.37
943.50	1756.13
943.67	1958.88
943.84	2012.74
944.01	1811.02
944.18	1748.97
944.35	2074.59
944.52	1770.06
944.69	1858.94
944.86	1705.14
945.03	1965.85
945.20	2210.17
945.37	1684.45
945.54	1850.75
945.71	2055.75
945.88	2098.76
946.05	1757.57
946.22	1752.24
946.39	2044.28
946.56	1854.85
946.73	1683.64
946.90	1759.00
947.07	1844.40
947.24	1879.42
947.41	1683.43
947.58	1894.17
947.75	1990.42
947.92	1922.22
948.09	1619.74
948.26	1705.34
948.43	1901.95
948.60	2139.31
948.77	1758.59
948.94	1804.67
949.11	1975.06
949.27	1929.19
949.44	1771.29
949.61	1755.11
949.78	1909.12
949.95	2024.42
950.12	1742.21
950.29	1695.72
950.46	1824.74
950.63	2020.32
950.80	1788.49
950.97	1790.13
951.14	2008.85
951.31	1866.72
951.48	1736.68
951.65	1723.98
951.82	2118.01
951.99	1885.16
952.15	1678.31
952.32	1774.36
952.49	1805.90
952.66	1789.52
952.83	1740.16
953.00	1718.86
953.17	1867.54
953.34	1984.69
953.51	1800.57
953.68	1798.73
953.85	1989.40
954.02	2036.50
954.18	1804.87
954.35	1832.11
954.52	1758.59
954.69	1894.99
954.86	1624.86
955.03	1829.04
955.20	1965.44
955.37	1865.49
955.54	1766.78
955.71	1765.76
955.87	1926.32
956.04	2101.22
956.21	1787.88
956.38	1728.69
956.55	1889.46
956.72	2223.89
956.89	1824.13
957.06	1762.48
957.23	1780.50
957.39	2018.48
957.56	1784.60
957.73	1738.52
957.90	1623.42
958.07	2099.99
958.24	1808.97
958.41	1780.50
958.57	2001.07
958.74	1891.71
958.91	1711.49
959.08	1781.73
959.25	1968.71
959.42	1842.35
959.59	1815.32
959.75	1773.54
959.92	2029.33
960.09	2003.32
960.26	1743.23
960.43	1838.46
960.60	1914.44
960.76	1827.81
960.93	1670.53
961.10	1830.88
961.27	1973.22
961.44	1824.13
961.61	1704.93
961.77	1722.75
961.94	1883.11
962.11	1973.63
962.28	1780.71
962.45	1708.42
962.62	1837.85
962.78	2009.88
962.95	1714.76
963.12	1790.54
963.29	1953.76
963.46	2215.70
963.62	1855.25
963.79	1755.72
963.96	2201.77
964.13	1851.98
964.30	1851.36
964.46	1793.82
964.63	1792.79
964.80	2246.42
964.97	1682.20
965.14	1978.13
965.30	2062.30
965.47	2167.98
965.64	2083.81
965.81	2039.78
965.98	2226.35
966.14	2000.87
966.31	1908.09
966.48	1871.43
966.65	2087.29
966.81	1992.88
966.98	1853.82
967.15	1872.87
967.32	1929.80
967.49	1854.03
967.65	1687.32
967.82	1646.98
967.99	1901.74
968.16	1696.74
968.32	1939.63
968.49	1809.79
968.66	1865.49
968.83	2114.32
968.99	1844.61
969.16	1722.34
969.33	2060.87
969.50	1988.37
969.66	1892.12
969.83	2002.30
970.00	1981.82
970.17	1950.49
970.33	1795.25
970.50	1700.02
970.67	2064.56
970.84	2040.80
971.00	1740.57
971.17	1702.89
971.34	1958.68
971.50	1859.15
971.67	1892.12
971.84	1841.94
972.01	1749.37
972.17	1650.05
972.34	1726.44
972.51	1891.09
972.67	1991.85
972.84	1918.54
973.01	1696.74
973.18	1768.22
973.34	1980.18
973.51	1769.44
973.68	1762.07
973.84	1820.85
974.01	1814.71
974.18	2090.77
974.34	1856.48
974.51	1849.11
974.68	1762.28
974.85	2138.90
975.01	1904.41
975.18	1775.18
975.35	1876.35
975.51	1802.83
975.68	1662.75
975.85	1917.10
976.01	1816.75
976.18	2063.33
976.35	1802.42
976.51	1744.05
976.68	2103.88
976.85	2037.52
977.01	1818.60
977.18	1873.89
977.35	1971.99
977.51	1747.12
977.68	1634.89
977.85	1701.25
978.01	1990.63
978.18	1992.88
978.35	1829.86
978.51	1859.76
978.68	2030.56
978.85	2102.24
979.01	1782.76
979.18	1845.02
979.34	1881.88
979.51	1912.39
979.68	1739.34
979.84	1810.81
980.01	2218.97
980.18	1902.36
980.34	1753.47
980.51	1871.64
980.67	1960.73
980.84	1984.48
981.01	1789.31
981.17	1887.41
981.34	1698.59
981.51	1961.34
981.67	1717.02
981.84	1894.17
982.00	1956.22
982.17	1868.77
982.34	1676.47
982.50	1587.38
982.67	2059.03
982.83	1845.63
983.00	1709.64
983.17	1643.90
983.33	2030.56
983.50	1677.29
983.66	1707.60
983.83	1613.59
984.00	1830.68
984.16	1894.17
984.33	1620.76
984.49	1589.02
984.66	1762.28
984.83	1975.27
984.99	1647.59
985.16	1598.85
985.32	1945.57
985.49	1980.80
985.65	1744.46
985.82	1591.27
985.99	2055.96
986.15	1900.92
986.32	1711.69
986.48	1679.13
986.65	1839.69
986.81	1973.01
986.98	1601.72
987.14	1684.45
987.31	1882.29
987.48	1694.28
987.64	1567.11
987.81	1583.90
987.97	2155.69
988.14	1785.21
988.30	1627.93
988.47	1501.16
988.63	1902.97
988.80	1732.17
988.96	1685.89
989.13	1723.78
989.30	1844.81
989.46	1990.83
989.63	1583.90
989.79	1567.52
989.96	1866.72
990.12	2047.35
990.29	1676.67
990.45	1692.24
990.62	1866.93
990.78	2016.02
990.95	1735.86
991.11	1641.65
991.28	1783.58
991.44	1901.95
991.61	1547.65
991.77	1697.36
991.94	1889.25
992.10	2011.31
992.27	1697.97
992.43	1660.49
992.60	1916.69
992.76	1817.98
992.93	1781.12
993.09	1623.02
993.26	1990.63
993.42	2076.03
993.59	1644.72
993.75	1562.19
993.92	1779.28
994.08	1811.43
994.25	1714.76
994.41	1602.13
994.58	1970.97
994.74	2032.20
994.91	1601.72
995.07	1725.00
995.24	1855.25
995.40	1879.83
995.56	1758.18
995.73	1721.11
995.89	2070.70
996.06	1838.26
996.22	1628.54
996.39	1574.89
996.55	1882.08
996.72	1940.04
996.88	1576.12
997.05	1623.02
997.21	2145.45
997.37	1963.18
997.54	1724.18
997.70	1672.78
997.87	1936.76
998.03	1871.43
998.20	1576.94
998.36	1577.14
998.52	1944.34
998.69	1984.07
998.85	1555.64
999.02	1686.50
999.18	1994.31
999.35	1957.86
999.51	1660.49
999.67	1647.18
999.84	1751.42
1000.00	1952.74
1000.17	1727.46
1000.33	1593.52
1000.49	1775.38
1000.66	1845.22
1000.82	1628.75
1000.99	1707.60
1001.15	2000.25
1001.31	1848.09
1001.48	1673.40
1001.64	1728.08
1001.81	1857.30
1001.97	2124.97
1002.13	1640.63
1002.30	1658.24
1002.46	2054.73
1002.63	1853.62
1002.79	1749.37
1002.95	1648.00
1003.12	2013.36
1003.28	1901.95
1003.45	1621.99
1003.61	1601.72
1003.77	1917.31
1003.94	1711.90
1004.10	1658.04
1004.26	1734.22
1004.43	1920.38
1004.59	2082.78
1004.75	1642.06
1004.92	1607.04
1005.08	1827.20
1005.25	1912.80
1005.41	1655.37
1005.57	1752.86
1005.74	2015.20
1005.90	1845.42
1006.06	1755.31
1006.23	1664.59
1006.39	1964.62
1006.55	2203.41
1006.72	1809.18
1006.88	1591.07
1007.04	1772.52
1007.21	1856.69
1007.37	1688.14
1007.53	1657.01
1007.70	2054.52
1007.86	1970.76
1008.02	1734.63
1008.19	1622.81
1008.35	1897.44
1008.51	1757.98
1008.68	1660.29
1008.84	1610.52
1009.00	1766.78
1009.17	2005.99
1009.33	1824.13
1009.49	1725.21
1009.65	1767.81
1009.82	1957.65
1009.98	1724.80
1010.14	1570.18
1010.31	1956.01
1010.47	1952.74
1010.63	1727.87
1010.80	1703.91
1010.96	1956.63
1011.12	1852.80
1011.28	1641.45
1011.45	1641.04
1011.61	2201.16
1011.77	1761.25
1011.94	1638.38
1012.10	1592.30
1012.26	1737.29
1012.42	1818.80
1012.59	1693.87
1012.75	1678.72
1012.91	1843.17
1013.07	1974.04
1013.24	1604.99
1013.40	1627.52
1013.56	1894.17
1013.72	1858.94
1013.89	1700.43
1014.05	1721.52
1014.21	2117.60
1014.37	2178.83
1014.54	1683.23
1014.70	1614.62
1014.86	1828.43
1015.02	1723.16
1015.19	1658.65
1015.35	1608.07
1015.51	1850.54
1015.67	1834.98
1015.84	1654.35
1016.00	1629.77
1016.16	1980.59
1016.32	1960.32
1016.49	1635.30
1016.65	1621.17
1016.81	1837.44
1016.97	1930.62
1017.14	1770.26
1017.30	1629.98
1017.46	1806.72
1017.62	1904.82
1017.78	1714.97
1017.95	1606.43
1018.11	1950.69
1018.27	2153.03
1018.43	1767.81
1018.59	1695.31
1018.76	1972.60
1018.92	2211.19
1019.08	1599.67
1019.24	1662.54
1019.40	2047.35
1019.57	1900.11
1019.73	1732.17
1019.89	1682.20
1020.05	1893.96
1020.21	2107.97
1020.38	1627.52
1020.54	1791.36
1020.70	1956.01
1020.86	1959.91
1021.02	1672.17
1021.18	1647.18
1021.35	1807.74
1021.51	1933.90
1021.67	1812.04
1021.83	1679.33
1021.99	1871.64
1022.15	1914.85
1022.32	1724.39
1022.48	1702.07
1022.64	2028.31
1022.80	2080.12
1022.96	1697.97
1023.12	1577.96
1023.29	2003.53
1023.45	1920.99
1023.61	1624.24
1023.77	1797.30
1023.93	1912.39
1024.09	1761.87
1024.25	1605.81
1024.42	1614.21
1024.58	1803.44
1024.74	1942.91
1024.90	1669.71
1025.06	1714.56
1025.22	1824.33
1025.38	2061.69
1025.54	1620.15
1025.71	1724.59
1025.87	1950.08
1026.03	1952.33
1026.19	1623.63
1026.35	1784.40
1026.51	1956.42
1026.67	1892.94
1026.83	1688.76
1026.99	1778.46
1027.16	1929.80
1027.32	1873.48
1027.48	1658.65
1027.64	1615.03
1027.80	1937.79
1027.96	1867.13
1028.12	1644.93
1028.28	1609.09
1028.44	1896.83
1028.60	2076.23
1028.77	1770.47
1028.93	1687.94
1029.09	1840.51
1029.25	1750.81
1029.41	1677.70
1029.57	1737.29
1029.73	1906.45
1029.89	2064.97
1030.05	1758.39
1030.21	1742.82
1030.37	2149.55
1030.53	1938.40
1030.69	1693.06
1030.85	1614.82
1031.02	1775.38
1031.18	1884.13
1031.34	1669.09
1031.50	1737.91
1031.66	1764.33
1031.82	2061.49
1031.98	1711.90
1032.14	1637.97
1032.30	1746.51
1032.46	1969.74
1032.62	1779.68
1032.78	1604.99
1032.94	1815.32
1033.10	1840.51
1033.26	1723.37
1033.42	1746.71
1033.58	2124.77
1033.74	1823.51
1033.90	1656.81
1034.06	1835.39
1034.22	2153.03
1034.38	2022.37
1034.54	1685.89
1034.70	1709.23
1034.86	2104.29
>>>>>End Processed Spectral Data<<<<<
