SpectraSuite Data File
++++++++++++++++++++++++++++++++++++
Date: Thu Mar 30 14:37:22 PDT 2017
User: UCSD _CER
Dark Spectrum Present: No
Reference Spectrum Present: No
Number of Sampled Component Spectra: 1
Spectrometers: USB4C00073
Integration Time (usec): 380000 (USB4C00073)
Spectra Averaged: 10 (USB4C00073)
Boxcar Smoothing: 0 (USB4C00073)
Correct for Electrical Dark: No (USB4C00073)
Strobe/Lamp Enabled: No (USB4C00073)
Correct for Detector Non-linearity: No (USB4C00073)
Correct for Stray Light: No (USB4C00073)
Number of Pixels in Processed Spectrum: 3648
>>>>>Begin Processed Spectral Data<<<<<
345.37	1247.83
345.58	1247.83
345.80	1247.83
346.01	1256.84
346.22	1247.62
346.43	2057.59
346.65	1922.43
346.86	2488.28
347.07	2443.84
347.28	1869.18
347.50	1834.78
347.71	2187.23
347.92	1909.73
348.13	1845.42
348.35	1828.63
348.56	2173.10
348.77	1988.17
348.98	1868.36
349.20	1707.80
349.41	2208.32
349.62	2332.64
349.83	1964.62
350.05	1822.49
350.26	2255.02
350.47	2427.66
350.68	1873.48
350.90	1776.41
351.11	2455.31
351.32	2426.23
351.53	1908.50
351.75	1820.85
351.96	2265.67
352.17	2166.55
352.38	1940.45
352.60	1941.68
352.81	2192.35
353.02	2538.25
353.23	1861.60
353.44	1893.14
353.66	2111.05
353.87	2143.40
354.08	1956.01
354.29	1853.41
354.51	2070.29
354.72	2147.30
354.93	1829.25
355.14	1840.71
355.35	1928.98
355.57	2370.52
355.78	1889.05
355.99	1980.39
356.20	2186.00
356.42	2159.17
356.63	1964.21
356.84	1857.10
357.05	2350.45
357.26	2597.85
357.48	2031.59
357.69	1954.58
357.90	2286.15
358.11	2098.96
358.32	1882.08
358.54	1951.30
358.75	2144.02
358.96	2319.53
359.17	1905.63
359.38	1889.66
359.60	2286.76
359.81	2157.33
360.02	1874.10
360.23	1820.64
360.44	2048.79
360.66	2362.54
360.87	1838.05
361.08	1794.43
361.29	2251.54
361.50	2191.94
361.72	1837.85
361.93	1947.00
362.14	2198.70
362.35	1930.62
362.56	2050.84
362.77	1771.29
362.99	2283.89
363.20	2163.06
363.41	1929.39
363.62	1740.57
363.83	2255.02
364.05	2336.73
364.26	1795.04
364.47	1839.49
364.68	2384.65
364.89	2029.13
365.10	1794.84
365.32	1890.07
365.53	2019.50
365.74	2074.18
365.95	1850.75
366.16	1722.55
366.37	2156.51
366.59	2140.33
366.80	1880.65
367.01	1771.70
367.22	2542.14
367.43	2654.17
367.64	1930.62
367.86	1875.32
368.07	2268.13
368.28	2390.18
368.49	1783.78
368.70	1904.41
368.91	2106.75
369.12	2169.41
369.34	1787.88
369.55	1773.75
369.76	2167.16
369.97	2097.73
370.18	1792.18
370.39	1852.59
370.60	1946.39
370.82	1979.57
371.03	1903.38
371.24	1858.94
371.45	2327.52
371.66	2278.37
371.87	1880.24
372.08	1881.26
372.30	2018.68
372.51	2350.04
372.72	2022.78
372.93	1875.12
373.14	2504.87
373.35	2083.19
373.56	1784.60
373.78	1902.77
373.99	2350.66
374.20	2695.95
374.41	1870.82
374.62	1860.58
374.83	2464.94
375.04	2129.48
375.25	1896.42
375.47	1923.86
375.68	2085.04
375.89	2323.63
376.10	1918.13
376.31	1969.53
376.52	2262.80
376.73	2239.86
376.94	1927.14
377.15	1831.50
377.37	2199.52
377.58	2132.55
377.79	1774.97
378.00	1819.62
378.21	2253.79
378.42	2299.05
378.63	1928.37
378.84	1968.71
379.05	2349.22
379.27	2209.55
379.48	1966.66
379.69	1850.13
379.90	2422.54
380.11	1871.64
380.32	1898.67
380.53	2041.01
380.74	2440.15
380.95	2214.06
381.16	1958.27
381.37	1944.96
381.59	2449.58
381.80	2354.96
382.01	1890.07
382.22	1771.70
382.43	2310.11
382.64	2219.38
382.85	1831.91
383.06	1966.87
383.27	2313.80
383.48	2165.32
383.69	1903.38
383.91	1842.56
384.12	2346.36
384.33	2316.66
384.54	1987.14
384.75	1871.43
384.96	2793.84
385.17	2424.39
385.38	1937.17
385.59	1912.60
385.80	2364.79
386.01	2491.35
386.22	2036.91
386.43	1922.02
386.64	2629.80
386.86	2200.54
387.07	2041.62
387.28	1844.61
387.49	2147.91
387.70	2477.84
387.91	2069.88
388.12	1934.10
388.33	2295.16
388.54	2121.49
388.75	1840.51
388.96	1976.70
389.17	2097.53
389.38	2141.56
389.59	1953.15
389.80	1983.46
390.01	2188.66
390.22	2108.38
390.43	1978.54
390.64	1792.59
390.86	2291.88
391.07	2402.68
391.28	1882.70
391.49	1953.56
391.70	1994.93
391.91	2055.14
392.12	1905.23
392.33	1972.60
392.54	2246.42
392.75	2165.73
392.96	1991.65
393.17	1865.29
393.38	2586.38
393.59	2401.65
393.80	1805.28
394.01	1947.21
394.22	2232.70
394.43	2598.05
394.64	1870.61
394.85	2037.73
395.06	2212.63
395.27	2234.13
395.48	1893.14
395.69	1783.17
395.90	2145.04
396.11	2184.16
396.32	1894.78
396.53	2011.51
396.74	2155.08
396.95	2378.51
397.16	1826.17
397.37	1752.65
397.58	2361.51
397.79	2184.16
398.00	1910.55
398.21	1904.61
398.42	2228.19
398.63	2578.19
398.84	1874.10
399.05	1839.08
399.26	2430.94
399.47	2234.74
399.68	1764.33
399.89	1834.57
400.10	2028.72
400.31	2135.83
400.52	1981.41
400.73	1892.32
400.94	1976.70
401.15	2326.49
401.36	1948.64
401.57	1962.77
401.78	2425.41
401.99	2396.74
402.20	1840.92
402.41	2027.90
402.62	2477.63
402.83	2158.76
403.04	1879.01
403.25	2111.87
403.46	2294.75
403.67	2520.23
403.88	2017.25
404.09	1940.86
404.30	2208.94
404.51	2171.46
404.72	1913.42
404.93	2084.01
405.14	2073.98
405.35	2167.77
405.56	1940.86
405.77	1825.15
405.98	2211.81
406.19	2199.72
406.40	1867.95
406.61	1920.99
406.82	2144.43
407.03	2672.19
407.24	1914.85
407.45	1967.69
407.66	2288.61
407.87	2384.04
408.08	1994.72
408.29	2002.09
408.49	2287.79
408.70	2179.45
408.91	1897.44
409.12	2031.99
409.33	2001.68
409.54	2395.92
409.75	1862.01
409.96	1949.05
410.17	2371.14
410.38	2168.80
410.59	1886.38
410.80	2013.77
411.01	2167.37
411.22	2152.62
411.43	1967.89
411.64	1894.78
411.85	2033.63
412.06	1994.93
412.27	1706.78
412.47	1855.46
412.68	2139.31
412.89	2268.94
413.10	1923.25
413.31	1794.84
413.52	2518.18
413.73	2526.37
413.94	1876.55
414.15	2049.61
414.36	2093.84
414.57	2039.78
414.78	1855.46
414.99	2032.20
415.19	2639.83
415.40	2680.38
415.61	2575.12
415.82	2441.38
416.03	2682.84
416.24	2494.22
416.45	2123.13
416.66	1904.61
416.87	2006.60
417.08	2321.58
417.29	1907.07
417.50	1995.34
417.70	2372.98
417.91	2338.17
418.12	2095.07
418.33	2088.93
418.54	2470.87
418.75	2644.54
418.96	2451.42
419.17	2653.55
419.38	3271.02
419.59	3214.08
419.79	2912.83
420.00	2700.25
420.21	3252.38
420.42	2544.19
420.63	2100.81
420.84	2052.88
421.05	2236.18
421.26	2248.26
421.47	1832.32
421.67	2256.66
421.88	2074.80
422.09	2024.83
422.30	2152.21
422.51	1967.89
422.72	2589.45
422.93	2396.33
423.14	1977.31
423.35	1818.19
423.55	1940.04
423.76	2062.10
423.97	1921.20
424.18	1798.32
424.39	2168.59
424.60	2390.39
424.81	1964.41
425.02	2153.85
425.22	2436.26
425.43	2467.60
425.64	2493.20
425.85	2452.65
426.06	2997.41
426.27	2769.26
426.48	2480.09
426.68	2424.39
426.89	2726.87
427.10	2844.83
427.31	2238.63
427.52	2046.33
427.73	2452.85
427.94	2396.53
428.14	2124.77
428.35	2003.12
428.56	2455.31
428.77	2383.84
428.98	1972.40
429.19	2038.96
429.40	2269.35
429.60	2324.44
429.81	2233.51
430.02	2135.21
430.23	2272.22
430.44	2403.70
430.65	1917.10
430.85	1937.17
431.06	2314.41
431.27	1935.13
431.48	1925.30
431.69	1963.59
431.90	2223.89
432.10	2238.84
432.31	2077.05
432.52	2119.65
432.73	2950.10
432.94	2818.41
433.15	2420.70
433.35	2215.70
433.56	2669.94
433.77	2492.99
433.98	2842.79
434.19	3013.38
434.40	3455.54
434.60	3414.58
434.81	3199.95
435.02	2717.86
435.23	2706.80
435.44	2524.74
435.64	2057.80
435.85	1981.82
436.06	2204.64
436.27	2231.67
436.48	1956.83
436.68	1992.88
436.89	2682.84
437.10	2569.38
437.31	2182.52
437.52	2266.08
437.73	2425.61
437.93	2421.93
438.14	2088.52
438.35	1849.32
438.56	2153.85
438.77	2197.27
438.97	2119.03
439.18	2034.25
439.39	2663.18
439.60	2286.97
439.80	2210.17
440.01	2251.74
440.22	2330.38
440.43	2447.32
440.64	1970.76
440.84	2048.79
441.05	2064.76
441.26	2730.56
441.47	2024.21
441.68	2088.11
441.88	2580.85
442.09	2734.86
442.30	2746.74
442.51	2810.63
442.71	2774.59
442.92	2695.13
443.13	2301.30
443.34	2133.57
443.55	2173.51
443.75	2391.00
443.96	1953.35
444.17	1861.40
444.38	2396.33
444.58	2026.67
444.79	2029.13
445.00	1952.53
445.21	2164.91
445.41	2151.60
445.62	1767.81
445.83	2058.21
446.04	2219.38
446.24	1964.82
446.45	1751.01
446.66	1915.67
446.87	2260.14
447.07	2102.85
447.28	2165.11
447.49	1964.62
447.70	2429.51
447.90	2430.73
448.11	2037.73
448.32	2066.61
448.53	2493.81
448.73	2434.63
448.94	1939.43
449.15	2084.42
449.36	2192.96
449.56	2275.70
449.77	1917.72
449.98	1836.82
450.19	2173.92
450.39	2240.48
450.60	2173.92
450.81	2163.88
451.02	2329.56
451.22	2551.36
451.43	1994.11
451.64	2012.54
451.84	2191.12
452.05	2470.67
452.26	2024.21
452.47	1988.58
452.67	2140.13
452.88	2444.25
453.09	1869.59
453.30	1859.76
453.50	2331.20
453.71	2568.15
453.92	2060.67
454.12	2235.77
454.33	2264.44
454.54	2323.83
454.75	2008.65
454.95	1955.40
455.16	2303.96
455.37	2355.16
455.57	2040.60
455.78	1964.21
455.99	2163.06
456.19	2216.72
456.40	1851.57
456.61	1973.63
456.82	2193.17
457.02	2377.08
457.23	2152.42
457.44	2298.44
457.64	2279.39
457.85	2464.94
458.06	2152.21
458.26	2254.61
458.47	2326.29
458.68	2546.65
458.89	2099.99
459.09	2230.44
459.30	2676.08
459.51	2292.91
459.71	1895.40
459.92	1966.66
460.13	2497.70
460.33	2795.48
460.54	2236.79
460.75	2269.76
460.95	2280.21
461.16	2405.95
461.37	2054.73
461.57	2023.80
461.78	2281.85
461.99	2043.87
462.19	2257.07
462.40	1925.30
462.61	2595.19
462.81	2404.52
463.02	1927.14
463.23	1949.46
463.43	2323.83
463.64	2127.43
463.85	3222.48
464.05	1931.44
464.26	2764.55
464.47	2447.73
464.67	2117.80
464.88	2111.87
465.09	2208.53
465.29	2399.20
465.50	2244.78
465.71	2162.45
465.91	2248.67
466.12	2246.62
466.33	2059.23
466.53	1951.92
466.74	2498.52
466.94	2192.96
467.15	2043.87
467.36	2151.39
467.56	2071.93
467.77	2215.29
467.98	2002.30
468.18	1936.15
468.39	2102.04
468.60	2518.59
468.80	1939.02
469.01	1881.47
469.21	2293.73
469.42	2465.14
469.63	2035.48
469.83	1963.18
470.04	2371.34
470.25	2516.13
470.45	2102.04
470.66	1973.22
470.86	2280.00
471.07	2137.06
471.28	2061.69
471.48	2047.35
471.69	2156.51
471.90	2973.65
472.10	2179.04
472.31	2197.47
472.51	2363.77
472.72	2473.95
472.93	2318.10
473.13	2466.37
473.34	2699.43
473.54	2582.28
473.75	2273.04
473.96	2309.08
474.16	2274.47
474.37	2378.31
474.57	2165.73
474.78	1952.94
474.99	2289.01
475.19	2272.02
475.40	1992.06
475.60	2001.89
475.81	2685.30
476.02	2430.53
476.22	2289.83
476.43	2377.08
476.63	2296.18
476.84	2506.10
477.05	1897.24
477.25	1958.06
477.46	2785.24
477.66	2243.55
477.87	1909.94
478.08	1986.94
478.28	2367.45
478.49	2150.57
478.69	1928.37
478.90	1944.14
479.10	2328.34
479.31	2512.45
479.52	2069.68
479.72	2418.45
479.93	3018.71
480.13	3001.30
480.34	2898.08
480.54	2959.52
480.75	2628.98
480.96	2724.41
481.16	2156.51
481.37	2263.82
481.57	2494.84
481.78	2455.72
481.98	2325.67
482.19	2196.24
482.40	2599.08
482.60	2334.89
482.81	2113.91
483.01	1881.47
483.22	2326.90
483.42	2340.01
483.63	2051.66
483.83	2030.56
484.04	2263.82
484.24	2570.00
484.45	2344.92
484.66	2134.19
484.86	2476.40
485.07	2154.67
485.27	2068.65
485.48	1973.01
485.68	2452.24
485.89	2102.04
486.09	2121.49
486.30	2011.31
486.50	2252.77
486.71	2227.37
486.91	2116.37
487.12	2538.05
487.33	3340.03
487.53	3547.29
487.74	3221.25
487.94	3124.18
488.15	2912.62
488.35	2721.96
488.56	2276.52
488.76	2171.26
488.97	2407.18
489.17	2485.41
489.38	2163.06
489.58	2135.42
489.79	2399.40
489.99	2343.90
490.20	2060.05
490.40	2146.89
490.61	2328.13
490.81	2147.09
491.02	2039.78
491.22	2073.77
491.43	2336.94
491.63	2200.34
491.84	2135.62
492.04	1876.55
492.25	2286.15
492.45	2194.19
492.66	2024.62
492.86	1994.31
493.07	2297.21
493.27	2685.09
493.48	1924.68
493.68	1994.72
493.89	2174.53
494.09	2342.06
494.30	1979.36
494.50	2252.15
494.71	2289.63
494.91	1959.09
495.12	2004.35
495.32	2044.49
495.53	2238.02
495.73	2050.02
495.94	2227.99
496.14	2038.34
496.35	2784.01
496.55	2388.55
496.76	2064.97
496.96	2115.35
497.17	2239.66
497.37	2319.94
497.58	1993.29
497.78	1911.16
497.98	2172.49
498.19	2170.03
498.39	1992.67
498.60	2043.67
498.80	1897.65
499.01	2328.95
499.21	1891.91
499.42	2039.16
499.62	2125.38
499.83	2601.13
500.03	1970.15
500.24	2270.38
500.44	2607.47
500.64	2606.86
500.85	2223.07
501.05	2295.77
501.26	2082.58
501.46	2537.23
501.67	2033.43
501.87	1973.01
502.08	2127.43
502.28	2199.72
502.48	2105.52
502.69	2117.80
502.89	1956.01
503.10	2067.22
503.30	2057.18
503.51	2032.40
503.71	1968.92
503.92	2301.10
504.12	2072.54
504.32	1943.93
504.53	2330.59
504.73	2336.32
504.94	2133.98
505.14	2275.70
505.35	2378.72
505.55	2434.22
505.75	2220.41
505.96	2387.73
506.16	2727.08
506.37	2222.05
506.57	2027.90
506.78	2150.37
506.98	2447.73
507.18	2012.54
507.39	1965.44
507.59	2028.92
507.80	2108.18
508.00	2235.15
508.20	2227.37
508.41	2010.08
508.61	2464.53
508.82	2372.98
509.02	2157.33
509.22	1942.50
509.43	2013.97
509.63	2089.13
509.84	2015.20
510.04	1850.95
510.24	2446.30
510.45	2305.40
510.65	1916.28
510.86	2045.72
511.06	2016.63
511.26	2325.06
511.47	2176.99
511.67	1961.54
511.88	2284.51
512.08	2356.80
512.28	1906.86
512.49	2065.58
512.69	2226.35
512.90	2219.59
513.10	1997.38
513.30	2063.53
513.51	2297.62
513.71	2576.75
513.91	2169.82
514.12	2179.65
514.32	2459.82
514.53	2175.76
514.73	2179.04
514.93	2083.81
515.14	2239.04
515.34	2459.41
515.54	2029.95
515.75	2143.81
515.95	2354.96
516.15	2522.69
516.36	2079.10
516.56	2112.68
516.77	1848.91
516.97	2298.23
517.17	2027.28
517.38	2104.08
517.58	2462.89
517.78	2124.36
517.99	2140.95
518.19	2059.64
518.39	2466.98
518.60	2159.38
518.80	1947.00
519.00	2097.94
519.21	2172.49
519.41	2513.68
519.61	1934.51
519.82	2116.17
520.02	2204.43
520.22	2176.79
520.43	1985.71
520.63	2008.65
520.83	2062.30
521.04	1909.73
521.24	2095.89
521.44	2037.93
521.65	2044.90
521.85	2296.59
522.05	1983.05
522.26	1956.83
522.46	2508.35
522.66	2292.70
522.87	2008.03
523.07	2172.69
523.27	2105.52
523.48	2435.24
523.68	2008.85
523.88	2114.73
524.09	2384.25
524.29	2241.09
524.49	1850.13
524.70	2089.54
524.90	2431.55
525.10	2287.58
525.31	1901.33
525.51	1895.60
525.71	2327.31
525.91	2263.21
526.12	1980.18
526.32	1918.13
526.52	2099.37
526.73	2082.37
526.93	2069.27
527.13	1908.50
527.34	2158.35
527.54	2165.73
527.74	2030.97
527.94	1919.77
528.15	2015.41
528.35	2198.29
528.55	2113.30
528.76	2063.94
528.96	1912.19
529.16	2355.98
529.36	2110.84
529.57	1913.83
529.77	2396.33
529.97	2019.09
530.18	2100.60
530.38	1977.72
530.58	2305.40
530.78	2214.47
530.99	1969.33
531.19	2071.93
531.39	2065.38
531.60	2176.99
531.80	2052.68
532.00	2164.09
532.20	2227.17
532.41	2074.39
532.61	1991.85
532.81	1953.76
533.01	2144.84
533.22	2257.48
533.42	2162.25
533.62	1879.01
533.82	2464.73
534.03	2175.56
534.23	2168.80
534.43	1983.87
534.63	2126.00
534.84	2240.68
535.04	2140.74
535.24	2084.63
535.44	2681.41
535.65	2173.10
535.85	2005.17
536.05	1957.24
536.25	2235.56
536.46	2059.85
536.66	2182.73
536.86	2069.68
537.06	2331.82
537.27	2421.31
537.47	2054.32
537.67	2010.29
537.87	2457.56
538.08	2177.61
538.28	1916.28
538.48	1896.42
538.68	2184.77
538.88	2303.96
539.09	1884.13
539.29	2017.86
539.49	2348.20
539.69	2277.75
539.90	2085.86
540.10	1932.67
540.30	2458.18
540.50	2099.78
540.70	1900.11
540.91	1993.49
541.11	2372.78
541.31	2504.87
541.51	2091.80
541.72	2132.35
541.92	2260.96
542.12	2095.69
542.32	2070.09
542.52	2016.84
542.73	2100.40
542.93	2295.16
543.13	2012.95
543.33	2189.69
543.53	2353.73
543.74	2339.39
543.94	2008.44
544.14	2128.86
544.34	2463.09
544.54	2244.16
544.75	2173.10
544.95	2259.32
545.15	2401.24
545.35	2560.98
545.55	2192.96
545.75	2071.73
545.96	2660.52
546.16	2103.88
546.36	2063.53
546.56	2061.49
546.76	2409.44
546.97	2531.49
547.17	2107.16
547.37	2149.34
547.57	2109.00
547.77	2311.75
547.97	2104.70
548.18	2107.97
548.38	2174.33
548.58	2453.88
548.78	2037.11
548.98	2116.99
549.18	2436.88
549.39	2586.99
549.59	2188.25
549.79	2124.97
549.99	2539.69
550.19	2412.51
550.39	2251.13
550.60	2111.46
550.80	2255.02
551.00	2325.26
551.20	2030.15
551.40	2042.85
551.60	2278.16
551.80	2232.70
552.01	2129.48
552.21	2017.04
552.41	2257.68
552.61	2534.77
552.81	2140.95
553.01	1963.80
553.21	2299.46
553.42	2078.89
553.62	2019.91
553.82	1922.22
554.02	2465.14
554.22	2371.96
554.42	1937.38
554.62	2133.37
554.83	2509.58
555.03	2526.99
555.23	2164.29
555.43	2409.03
555.63	2354.55
555.83	2332.64
556.03	2211.81
556.23	2004.35
556.44	2295.16
556.64	2466.78
556.84	1864.88
557.04	2062.10
557.24	2261.78
557.44	2261.98
557.64	2127.23
557.84	1962.98
558.04	2120.06
558.25	2341.85
558.45	1974.04
558.65	2062.10
558.85	2215.90
559.05	1883.31
559.25	2038.96
559.45	2083.19
559.65	2598.67
559.85	3155.31
560.05	2211.40
560.26	2284.10
560.46	2339.80
560.66	2223.07
560.86	2085.65
561.06	2035.48
561.26	2516.13
561.46	2336.12
561.66	2044.08
561.86	2189.69
562.06	2071.32
562.26	2159.17
562.47	2061.49
562.67	1959.29
562.87	2321.17
563.07	1964.62
563.27	2070.70
563.47	2068.04
563.67	2127.84
563.87	2300.89
564.07	1995.75
564.27	2059.85
564.47	2278.57
564.67	2321.17
564.87	2062.30
565.08	2143.81
565.28	2127.02
565.48	2313.18
565.68	2120.88
565.88	2208.12
566.08	2567.95
566.28	2222.25
566.48	1945.37
566.68	2051.86
566.88	2171.87
567.08	2393.05
567.28	2094.25
567.48	2072.95
567.68	2287.38
567.88	1995.95
568.08	2073.57
568.28	2226.35
568.48	2219.38
568.68	2417.42
568.89	2109.41
569.09	1929.19
569.29	2351.48
569.49	2342.67
569.69	1979.16
569.89	1979.77
570.09	1878.40
570.29	2084.42
570.49	1937.79
570.69	2026.26
570.89	2356.80
571.09	2563.24
571.29	1952.94
571.49	2198.08
571.69	2283.89
571.89	2299.87
572.09	2022.37
572.29	2097.12
572.49	2353.53
572.69	2304.99
572.89	2098.14
573.09	1803.24
573.29	2195.22
573.49	2227.17
573.69	2067.22
573.89	2155.08
574.09	2152.01
574.29	2482.14
574.49	2079.92
574.69	1963.59
574.89	2016.84
575.09	2050.43
575.29	1928.98
575.49	2042.85
575.69	2250.72
575.89	1980.59
576.09	2055.14
576.29	2089.75
576.49	2007.01
576.69	2187.44
576.89	2041.62
577.09	2070.09
577.29	1948.03
577.49	2553.20
577.69	2002.50
577.89	2207.92
578.09	2223.68
578.29	1948.64
578.49	2055.14
578.69	1983.05
578.89	2389.37
579.09	2227.78
579.29	1998.20
579.49	2191.33
579.69	2143.40
579.89	2511.63
580.09	1845.22
580.29	1899.49
580.49	2127.23
580.69	2019.50
580.89	1991.85
581.09	2008.65
581.29	2116.99
581.49	2179.45
581.69	1943.73
581.89	1995.54
582.09	2050.22
582.28	2048.99
582.48	2152.42
582.68	2189.89
582.88	2466.98
583.08	2178.63
583.28	2087.49
583.48	2050.02
583.68	2091.18
583.88	2209.35
584.08	2084.22
584.28	2094.66
584.48	2565.90
584.68	2309.29
584.88	2021.75
585.08	2289.22
585.28	2374.41
585.48	2459.41
585.68	2139.51
585.87	2241.50
586.07	2318.30
586.27	2172.69
586.47	2137.46
586.67	2080.74
586.87	2191.74
587.07	2151.39
587.27	1972.60
587.47	2136.85
587.67	2567.33
587.87	2767.42
588.07	2234.95
588.27	2141.56
588.46	2487.05
588.66	2497.09
588.86	2136.24
589.06	2171.87
589.26	2438.93
589.46	2394.69
589.66	2016.23
589.86	1974.24
590.06	2200.75
590.26	2356.60
590.46	2131.32
590.66	2256.86
590.85	2226.35
591.05	2380.97
591.25	2060.26
591.45	2131.32
591.65	2352.91
591.85	2275.29
592.05	2071.11
592.25	2179.04
592.45	2441.18
592.64	2225.73
592.84	2149.55
593.04	2023.60
593.24	2707.21
593.44	2151.19
593.64	2116.37
593.84	2174.94
594.04	2180.88
594.24	2504.46
594.43	2055.14
594.63	2053.50
594.83	2386.09
595.03	2346.77
595.23	1981.82
595.43	1963.39
595.63	2077.05
595.83	2339.19
596.02	1831.09
596.22	2034.25
596.42	2261.98
596.62	2183.95
596.82	2048.17
597.02	2089.95
597.22	2465.75
597.41	2241.71
597.61	2007.62
597.81	2175.97
598.01	2354.96
598.21	2162.86
598.41	1981.61
598.61	2009.67
598.80	2238.43
599.00	2275.91
599.20	2232.70
599.40	2091.39
599.60	2163.27
599.80	2361.10
599.99	2204.23
600.19	2043.26
600.39	2235.97
600.59	2355.78
600.79	2162.25
600.99	2106.34
601.19	2541.12
601.38	2588.02
601.58	2156.10
601.78	1840.51
601.98	2385.68
602.18	2477.02
602.37	2558.12
602.57	2441.18
602.77	2774.18
602.97	2691.44
603.17	2605.63
603.37	2525.35
603.56	2726.87
603.76	2671.98
603.96	2381.79
604.16	2378.51
604.36	2676.90
604.56	2555.86
604.75	2167.16
604.95	2255.84
605.15	2605.63
605.35	2533.13
605.55	2163.27
605.74	2103.67
605.94	2472.51
606.14	2278.16
606.34	2135.83
606.54	2189.89
606.73	2147.70
606.93	2350.04
607.13	2020.53
607.33	2139.92
607.53	2496.27
607.72	2386.50
607.92	2150.78
608.12	2209.96
608.32	2173.71
608.51	2330.79
608.71	1939.63
608.91	2155.08
609.11	2330.38
609.31	2176.99
609.50	2077.87
609.70	2323.63
609.90	2418.24
610.10	2418.24
610.29	2077.46
610.49	2004.14
610.69	2379.74
610.89	2292.29
611.09	2119.44
611.28	2322.81
611.48	2445.48
611.68	2251.33
611.88	2062.51
612.07	1991.65
612.27	2360.28
612.47	2100.81
612.67	2094.87
612.86	2163.88
613.06	2192.15
613.26	1942.09
613.46	1977.72
613.65	2134.19
613.85	2706.60
614.05	2329.15
614.25	2170.23
614.44	2063.53
614.64	2205.66
614.84	2122.72
615.04	2013.56
615.23	2021.14
615.43	2316.46
615.63	2319.53
615.83	1978.95
616.02	1921.81
616.22	2344.31
616.42	2045.51
616.62	2036.30
616.81	2140.74
617.01	2308.06
617.21	2223.89
617.41	1960.32
617.60	2100.81
617.80	2317.69
618.00	2319.12
618.19	2159.58
618.39	2052.47
618.59	2289.83
618.79	2198.49
618.98	1897.65
619.18	2058.82
619.38	2592.73
619.57	2180.88
619.77	2036.09
619.97	1997.79
620.17	2081.35
620.36	1971.37
620.56	2237.00
620.76	1923.86
620.95	2025.24
621.15	2110.84
621.35	1983.66
621.54	2052.47
621.74	2222.05
621.94	2078.07
622.14	1897.65
622.33	1890.68
622.53	2156.92
622.73	2118.42
622.92	1892.73
623.12	2031.79
623.32	2542.76
623.51	2316.87
623.71	1919.56
623.91	2230.65
624.10	2049.40
624.30	2239.45
624.50	1901.95
624.69	1897.44
624.89	2868.39
625.09	2148.93
625.29	1822.28
625.48	1919.77
625.68	2243.96
625.88	2410.05
626.07	2072.34
626.27	1953.56
626.47	2100.81
626.66	1934.10
626.86	2065.38
627.06	2043.67
627.25	2197.88
627.45	2506.30
627.64	2004.76
627.84	2179.86
628.04	2046.74
628.23	2557.09
628.43	1929.60
628.63	1965.64
628.82	2113.91
629.02	2533.75
629.22	2094.87
629.41	2213.24
629.61	2221.43
629.81	2583.72
630.00	2048.38
630.20	1991.85
630.40	2255.22
630.59	2331.20
630.79	2063.94
630.98	2025.85
631.18	2184.16
631.38	2187.64
631.57	2180.47
631.77	1902.15
631.97	2227.58
632.16	2231.47
632.36	2062.71
632.56	2050.63
632.75	2213.04
632.95	2371.96
633.14	1901.95
633.34	2189.48
633.54	1897.85
633.73	2099.99
633.93	1991.65
634.12	1869.18
634.32	2653.14
634.52	2196.04
634.71	1873.48
634.91	2076.23
635.11	1997.18
635.30	2084.83
635.50	2051.25
635.69	1954.38
635.89	2511.42
636.09	2374.82
636.28	1992.67
636.48	1996.16
636.67	2308.68
636.87	2326.90
637.07	2116.58
637.26	2024.21
637.46	2295.36
637.65	2406.57
637.85	2164.50
638.04	2072.13
638.24	2167.77
638.44	2304.58
638.63	2120.88
638.83	2055.14
639.02	2305.19
639.22	2306.42
639.42	2024.21
639.61	2020.73
639.81	2215.70
640.00	2166.75
640.20	2186.62
640.39	2134.39
640.59	2657.85
640.79	2504.26
640.98	2304.78
641.18	2248.26
641.37	2446.09
641.57	2314.20
641.76	2254.61
641.96	1995.13
642.15	2317.69
642.35	2219.18
642.55	2164.91
642.74	1971.37
642.94	2390.39
643.13	2504.67
643.33	2034.45
643.52	2014.79
643.72	2137.46
643.91	2234.54
644.11	1955.40
644.31	1987.14
644.50	2098.55
644.70	2392.44
644.89	2078.69
645.09	2126.82
645.28	2226.14
645.48	2304.37
645.67	2003.32
645.87	1903.59
646.06	2154.05
646.26	2291.47
646.45	1840.10
646.65	1828.84
646.84	2567.33
647.04	2175.76
647.24	1936.56
647.43	2054.73
647.63	2245.80
647.82	2489.72
648.02	1954.99
648.21	2013.56
648.41	2438.72
648.60	2125.38
648.80	2173.92
648.99	2062.92
649.19	2116.58
649.38	1946.80
649.58	2058.62
649.77	2121.90
649.97	2414.76
650.16	2290.24
650.36	1821.87
650.55	2209.35
650.75	2264.03
650.94	2491.35
651.14	2066.20
651.33	2139.92
651.53	2531.70
651.72	2095.28
651.92	2029.54
652.11	1886.18
652.31	2336.12
652.50	2274.06
652.70	2068.04
652.89	1951.92
653.09	2488.49
653.28	2187.44
653.48	1862.01
653.67	1867.34
653.87	2746.53
654.06	2217.75
654.25	2282.87
654.45	1988.58
654.64	2138.28
654.84	2163.47
655.03	1839.69
655.23	2195.63
655.42	2335.09
655.62	2511.42
655.81	2160.81
656.01	1988.17
656.20	2357.62
656.40	2497.29
656.59	2072.34
656.79	2180.68
656.98	2228.60
657.17	2363.56
657.37	2049.40
657.56	2028.31
657.76	2285.74
657.95	2377.69
658.15	1734.63
658.34	2092.41
658.54	2199.93
658.73	1994.72
658.92	2044.28
659.12	2080.74
659.31	2301.51
659.51	2049.40
659.70	2121.90
659.90	2030.97
660.09	2403.91
660.29	2199.52
660.48	1987.55
660.67	2205.87
660.87	2122.72
661.06	2288.61
661.26	2114.94
661.45	2198.29
661.65	2278.98
661.84	2114.12
662.03	1966.66
662.23	1992.47
662.42	2580.24
662.62	2015.82
662.81	1935.33
663.00	2052.88
663.20	2288.40
663.39	2362.13
663.59	2255.22
663.78	2142.18
663.97	2243.14
664.17	2515.93
664.36	2020.53
664.56	2060.46
664.75	2428.07
664.94	2356.19
665.14	2186.21
665.33	2113.91
665.53	2253.38
665.72	2230.03
665.91	2159.58
666.11	2135.83
666.30	2256.45
666.50	2176.17
666.69	2188.66
666.88	2119.44
667.08	2363.77
667.27	2339.19
667.47	2194.19
667.66	2172.28
667.85	2532.93
668.05	2354.55
668.24	2087.90
668.43	2349.84
668.63	2234.74
668.82	2477.02
669.02	2195.42
669.21	2046.54
669.40	2034.66
669.60	2577.57
669.79	1915.47
669.98	2664.41
670.18	2070.50
670.37	2030.56
670.56	2034.45
670.76	2106.54
670.95	2144.43
671.15	2340.01
671.34	2031.18
671.53	2044.08
671.73	2077.87
671.92	2065.58
672.11	1937.38
672.31	2003.73
672.50	2265.05
672.69	1990.63
672.89	1787.26
673.08	2016.43
673.27	2343.29
673.47	2226.96
673.66	2073.98
673.85	1936.35
674.05	2294.95
674.24	2439.54
674.43	2295.36
674.63	2559.55
674.82	3132.57
675.01	2376.26
675.21	2545.01
675.40	2361.92
675.59	2417.83
675.79	2732.40
675.98	2259.73
676.17	2415.78
676.37	2432.78
676.56	2242.53
676.75	2148.32
676.95	2139.10
677.14	2211.40
677.33	2423.57
677.52	1953.97
677.72	2009.88
677.91	2267.31
678.10	1950.69
678.30	1941.68
678.49	1933.49
678.68	2577.57
678.88	1876.35
679.07	2175.56
679.26	2006.80
679.45	2513.27
679.65	2415.78
679.84	1838.26
680.03	1856.07
680.23	2101.42
680.42	2649.66
680.61	1928.57
680.81	1978.75
681.00	2194.60
681.19	2241.50
681.38	2127.63
681.58	2076.85
681.77	2103.67
681.96	2314.82
682.15	1927.34
682.35	2099.37
682.54	2255.43
682.73	1982.23
682.93	1954.99
683.12	1897.44
683.31	2316.46
683.50	2673.01
683.70	1899.29
683.89	2060.46
684.08	1986.53
684.27	2372.57
684.47	1888.84
684.66	1983.87
684.85	2522.89
685.04	2391.21
685.24	1942.91
685.43	2001.48
685.62	1915.67
685.81	2262.60
686.01	2286.56
686.20	2206.07
686.39	2304.78
686.58	2918.77
686.78	2508.56
686.97	2422.75
687.16	2605.02
687.35	2524.12
687.55	2225.32
687.74	2268.94
687.93	2186.21
688.12	2324.44
688.32	2180.47
688.51	1999.23
688.70	2336.94
688.89	2055.34
689.08	1909.32
689.28	1983.25
689.47	2208.12
689.66	2192.76
689.85	2098.76
690.05	1941.88
690.24	2060.05
690.43	2239.66
690.62	2053.09
690.81	1971.58
691.01	2174.12
691.20	2152.01
691.39	1903.79
691.58	2055.75
691.77	2529.24
691.97	2215.08
692.16	2058.41
692.35	2025.85
692.54	2082.37
692.73	2340.01
692.93	2155.69
693.12	2221.64
693.31	2417.63
693.50	2364.38
693.69	2228.60
693.89	2105.52
694.08	2523.71
694.27	2518.18
694.46	2098.14
694.65	2100.60
694.85	2334.89
695.04	2352.91
695.23	2391.00
695.42	3791.20
695.61	5142.24
695.80	5989.69
696.00	6610.84
696.19	7051.36
696.38	6220.09
696.57	5284.17
696.76	4975.34
696.95	4529.70
697.15	4608.13
697.34	4340.06
697.53	3630.64
697.72	3517.39
697.91	3233.74
698.10	3255.45
698.30	2538.05
698.49	2335.09
698.68	2431.35
698.87	2238.84
699.06	2040.60
699.25	2095.28
699.45	2394.08
699.64	2234.54
699.83	2224.50
700.02	1987.14
700.21	2282.46
700.40	2084.63
700.59	1980.39
700.79	2032.81
700.98	2290.04
701.17	2055.75
701.36	1973.22
701.55	1968.10
701.74	2431.35
701.93	2090.16
702.12	2210.99
702.32	2224.71
702.51	2700.66
702.70	2668.50
702.89	2325.06
703.08	2223.68
703.27	2613.41
703.46	2470.87
703.65	2080.94
703.85	2043.05
704.04	2154.87
704.23	2458.18
704.42	2011.31
704.61	2052.68
704.80	2489.10
704.99	2071.73
705.18	2108.18
705.37	2206.07
705.57	3291.29
705.76	4619.40
705.95	4907.14
706.14	5883.20
706.33	6534.66
706.52	6457.45
706.71	4853.48
706.90	4483.82
707.09	4463.96
707.28	4193.83
707.47	3628.59
707.67	3607.91
707.86	3300.10
708.05	3428.91
708.24	2813.70
708.43	2654.78
708.62	2484.60
708.81	2242.53
709.00	2056.57
709.19	2021.14
709.38	2385.68
709.57	2017.86
709.76	2096.30
709.96	1996.97
710.15	2446.09
710.34	2205.46
710.53	2170.23
710.72	2030.36
710.91	2389.37
711.10	2331.00
711.29	2109.20
711.48	2008.44
711.67	2028.10
711.86	2270.38
712.05	1903.59
712.24	1936.56
712.43	2319.32
712.62	2430.73
712.81	2030.56
713.00	2184.16
713.19	2002.91
713.39	2300.07
713.58	2045.92
713.77	2322.40
713.96	2602.97
714.15	2549.72
714.34	2453.06
714.53	2246.42
714.72	2828.04
714.91	2291.47
715.10	2336.94
715.29	2151.60
715.48	2891.94
715.67	2507.53
715.86	2173.51
716.05	2113.50
716.24	2218.77
716.43	2159.99
716.62	1930.42
716.81	1915.06
717.00	2128.66
717.19	2454.08
717.38	1986.32
717.57	1967.07
717.76	1921.20
717.95	2324.24
718.14	2036.50
718.33	2024.01
718.52	1891.30
718.71	1894.78
718.90	1905.02
719.09	1937.79
719.28	2191.94
719.47	2337.76
719.66	2116.58
719.85	2159.79
720.04	2177.20
720.23	2247.85
720.42	2024.01
720.61	2170.44
720.80	1991.65
720.99	2255.22
721.18	2035.68
721.37	1941.06
721.56	2147.91
721.75	2374.41
721.94	1929.80
722.13	2024.83
722.32	2141.36
722.51	2343.70
722.70	2078.48
722.89	2111.87
723.08	2183.34
723.27	2348.61
723.46	2094.46
723.65	2051.86
723.84	2089.75
724.03	2422.95
724.22	1913.21
724.41	2009.67
724.60	2149.14
724.79	2337.96
724.98	2070.70
725.16	2022.78
725.35	2319.94
725.54	2001.07
725.73	2030.56
725.92	2123.74
726.11	2412.92
726.30	2910.37
726.49	2727.48
726.68	2982.46
726.87	3321.19
727.06	3447.55
727.25	2726.87
727.44	2756.57
727.63	2753.29
727.82	2660.72
728.01	2554.43
728.20	2513.06
728.38	2797.73
728.57	2462.68
728.76	2254.81
728.95	2335.71
729.14	2105.72
729.33	2092.00
729.52	1830.68
729.71	1944.55
729.90	2060.05
730.09	2142.99
730.28	2054.73
730.47	2077.66
730.66	2496.47
730.84	2338.99
731.03	2173.51
731.22	2152.82
731.41	2309.29
731.60	2347.59
731.79	1929.19
731.98	1995.54
732.17	2360.69
732.36	2307.24
732.55	1993.70
732.73	1914.85
732.92	2440.15
733.11	2304.99
733.30	1976.90
733.49	1902.97
733.68	2338.58
733.87	2274.68
734.06	1952.74
734.25	2028.10
734.43	2239.25
734.62	2400.42
734.81	2200.13
735.00	2155.08
735.19	2278.77
735.38	2393.05
735.57	2033.63
735.76	2221.23
735.94	2430.73
736.13	2906.07
736.32	2511.01
736.51	2515.72
736.70	3077.48
736.89	3158.17
737.08	3183.77
737.27	4857.58
737.45	7160.11
737.64	8006.33
737.83	9163.02
738.02	9810.79
738.21	9281.19
738.40	7539.39
738.59	6590.36
738.77	6154.15
738.96	5786.33
739.15	5533.41
739.34	5075.07
739.53	4612.44
739.72	4584.58
739.90	4152.05
740.09	3347.00
740.28	2997.41
740.47	2966.89
740.66	2747.55
740.85	2187.85
741.03	2183.54
741.22	2149.75
741.41	2267.10
741.60	1932.67
741.79	2162.45
741.98	2496.27
742.16	2577.78
742.35	2128.45
742.54	2185.80
742.73	2706.19
742.92	2302.53
743.10	2065.38
743.29	2188.87
743.48	2809.20
743.67	2253.38
743.86	2024.62
744.05	2059.64
744.23	2157.74
744.42	2132.35
744.61	2168.39
744.80	2000.87
744.99	2170.64
745.17	1954.58
745.36	1938.61
745.55	2211.81
745.74	2307.24
745.93	2189.48
746.11	2053.09
746.30	2019.91
746.49	2457.36
746.68	2140.74
746.86	2132.75
747.05	2074.59
747.24	2385.68
747.43	2417.42
747.62	2066.81
747.80	2103.26
747.99	2580.03
748.18	2482.75
748.37	2188.25
748.56	2262.60
748.74	2589.45
748.93	2643.11
749.12	4036.96
749.31	8560.51
749.49	12660.54
749.68	15266.79
749.87	17563.79
750.06	18556.03
750.24	17508.70
750.43	16529.77
750.62	17904.78
750.81	18282.22
750.99	19078.06
751.18	18564.02
751.37	15388.44
751.56	13052.93
751.74	12696.18
751.93	11323.22
752.12	9177.77
752.31	7928.51
752.49	6953.06
752.68	6341.94
752.87	5086.74
753.06	4442.45
753.24	3983.30
753.43	3703.96
753.62	2794.25
753.81	2540.51
753.99	2831.93
754.18	2505.28
754.37	2139.10
754.55	2168.39
754.74	2603.58
754.93	2054.52
755.12	2042.64
755.30	1968.10
755.49	2432.17
755.68	2280.00
755.86	2166.14
756.05	1941.47
756.24	2529.45
756.43	2008.85
756.61	1998.82
756.80	2137.67
756.99	2500.77
757.17	2230.24
757.36	1987.14
757.55	2079.92
757.74	2336.12
757.92	2263.62
758.11	1964.62
758.30	1885.16
758.48	2220.41
758.67	2097.94
758.86	2156.92
759.04	2050.02
759.23	2255.43
759.42	2326.29
759.60	2062.51
759.79	2094.05
759.98	2205.05
760.16	2104.90
760.35	2029.54
760.54	2023.19
760.73	2287.79
760.91	2015.61
761.10	2030.97
761.29	2165.93
761.47	2270.58
761.66	2669.94
761.85	2187.03
762.03	2662.15
762.22	5057.25
762.41	12725.87
762.59	21188.90
762.78	25605.55
762.97	30921.87
763.15	32954.68
763.34	29609.94
763.52	21634.74
763.71	20092.83
763.90	18296.55
764.08	16943.87
764.27	15512.75
764.46	14399.06
764.64	12536.03
764.83	11022.58
765.02	9668.46
765.20	8354.69
765.39	6877.90
765.58	4970.01
765.76	4029.58
765.95	3500.39
766.13	2953.79
766.32	2498.11
766.51	2343.29
766.69	3234.97
766.88	2475.58
767.07	2059.85
767.25	1922.84
767.44	2433.60
767.62	2465.14
767.81	2012.74
768.00	2066.81
768.18	2242.94
768.37	2109.00
768.56	1884.75
768.74	1985.92
768.93	1981.82
769.11	2268.74
769.30	2108.38
769.49	1999.84
769.67	2172.08
769.86	2130.91
770.04	2013.97
770.23	1954.17
770.42	2431.96
770.60	2238.23
770.79	1952.74
770.97	2151.60
771.16	3274.29
771.35	5102.92
771.53	6617.60
771.72	7769.58
771.90	9096.05
772.09	9768.81
772.27	8438.66
772.46	6437.58
772.65	6613.71
772.83	6073.05
773.02	5689.26
773.20	5153.10
773.39	5115.21
773.58	4740.64
773.76	4057.23
773.95	3728.53
774.13	3684.30
774.32	3206.10
774.50	2649.05
774.69	2538.66
774.87	2421.31
775.06	2774.79
775.25	2096.30
775.43	2104.08
775.62	2283.69
775.80	2338.17
775.99	2077.05
776.17	2015.41
776.36	2227.17
776.54	2417.22
776.73	2022.78
776.92	2102.04
777.10	2418.86
777.29	2278.98
777.47	1989.19
777.66	1989.60
777.84	2226.35
778.03	2150.57
778.21	1948.23
778.40	2073.36
778.58	2272.22
778.77	2381.58
778.95	1904.00
779.14	1973.83
779.32	2500.77
779.51	2344.51
779.70	1938.40
779.88	1865.90
780.07	2121.90
780.25	2635.53
780.44	2003.73
780.62	2104.70
780.81	2290.24
780.99	2223.07
781.18	1942.50
781.36	1927.96
781.55	2151.60
781.73	2447.73
781.92	1870.41
782.10	1915.87
782.29	2284.30
782.47	2445.48
782.66	1997.18
782.84	1886.79
783.03	2068.86
783.21	2389.57
783.40	1951.30
783.58	1999.02
783.77	2078.48
783.95	2148.73
784.14	1952.94
784.32	2039.16
784.51	2401.65
784.69	2023.39
784.88	1869.39
785.06	1989.81
785.24	1946.59
785.43	2355.16
785.61	2073.57
785.80	1961.34
785.98	2276.93
786.17	2196.24
786.35	1905.84
786.54	2106.95
786.72	2337.35
786.91	2382.61
787.09	2025.65
787.28	1910.75
787.46	2218.36
787.65	2370.11
787.83	1846.65
788.01	2036.50
788.20	2019.71
788.38	2223.27
788.57	2048.79
788.75	1987.14
788.94	2556.07
789.12	2348.20
789.31	2115.14
789.49	2168.39
789.67	2158.56
789.86	2303.15
790.04	1988.17
790.23	1918.54
790.41	2622.42
790.60	2183.13
790.78	2006.39
790.96	2057.18
791.15	2355.57
791.33	2176.79
791.52	2047.97
791.70	1949.26
791.89	2213.44
792.07	2380.15
792.25	2057.39
792.44	1939.63
792.62	2429.71
792.81	2162.86
792.99	2087.29
793.17	2063.74
793.36	2234.33
793.54	3124.38
793.73	4265.51
793.91	5930.51
794.10	7249.60
794.28	8471.22
794.46	8599.83
794.65	8196.38
794.83	6562.51
795.01	6104.18
795.20	5847.97
795.38	5423.02
795.57	5309.77
795.75	5066.88
795.93	4479.52
796.12	4165.36
796.30	4091.64
796.49	3857.76
796.67	3186.84
796.85	3092.64
797.04	2943.14
797.22	2840.74
797.40	2319.32
797.59	2346.36
797.77	2471.49
797.96	2272.22
798.14	2110.02
798.32	2131.12
798.51	2475.38
798.69	2675.26
798.87	2165.11
799.06	2111.66
799.24	2181.70
799.42	3021.37
799.61	3865.34
799.79	4656.47
799.98	5737.59
800.16	6171.14
800.34	7731.08
800.53	9591.87
800.71	10301.49
800.89	11950.92
801.08	11998.84
801.26	11951.74
801.44	10088.50
801.63	8283.83
801.81	8080.26
801.99	7215.81
802.18	6858.24
802.36	6540.80
802.54	5802.92
802.73	5031.24
802.91	4821.33
803.09	4377.33
803.28	3937.83
803.46	3505.51
803.64	3544.62
803.83	2767.83
804.01	2471.08
804.19	2272.02
804.38	2609.52
804.56	2517.77
804.74	2205.66
804.92	2183.54
805.11	2147.70
805.29	2499.96
805.47	2096.10
805.66	2024.83
805.84	2114.94
806.02	2477.84
806.21	2081.35
806.39	2306.83
806.57	2456.95
806.76	2444.87
806.94	2165.11
807.12	2155.90
807.30	2267.72
807.49	2439.54
807.67	2311.13
807.85	2388.14
808.04	2507.53
808.22	2669.94
808.40	2060.46
808.58	1955.61
808.77	2418.65
808.95	2731.58
809.13	3074.21
809.31	5780.60
809.50	8801.96
809.68	10339.38
809.86	11661.95
810.05	12770.52
810.23	15001.78
810.41	22936.02
810.59	39646.22
810.78	49318.16
810.96	57780.98
811.14	62692.01
811.32	61608.43
811.51	49626.58
811.69	39387.76
811.87	38769.28
812.05	33590.99
812.24	31547.73
812.42	29062.31
812.60	25917.25
812.78	21820.90
812.97	18440.73
813.15	16402.59
813.33	13892.40
813.51	11623.45
813.70	9091.55
813.88	7171.99
814.06	5669.80
814.24	4293.36
814.42	3316.89
814.61	3174.76
814.79	3202.82
814.97	2372.98
815.15	2309.29
815.34	2506.92
815.52	2525.56
815.70	2114.12
815.88	2143.81
816.06	2161.84
816.25	2206.89
816.43	2062.92
816.61	2214.26
816.79	2543.37
816.98	1952.53
817.16	1942.09
817.34	1935.74
817.52	2260.75
817.70	2491.35
817.89	2042.23
818.07	1917.31
818.25	2135.62
818.43	2221.84
818.61	2028.92
818.80	1971.78
818.98	2484.80
819.16	2205.25
819.34	1896.21
819.52	2245.60
819.70	2038.14
819.89	2138.08
820.07	1849.73
820.25	1823.92
820.43	2199.72
820.61	2322.60
820.80	1973.22
820.98	1846.86
821.16	1889.87
821.34	1970.97
821.52	1961.34
821.70	2093.64
821.89	2167.98
822.07	2121.70
822.25	2059.85
822.43	1928.16
822.61	2448.55
822.79	2208.12
822.98	1988.37
823.16	1825.56
823.34	2202.39
823.52	2373.19
823.70	2047.35
823.88	1820.85
824.06	2270.38
824.25	2170.64
824.43	2078.69
824.61	1874.51
824.79	2151.60
824.97	2235.97
825.15	2280.21
825.33	3021.37
825.52	4377.33
825.70	4932.12
825.88	5326.56
826.06	5776.50
826.24	6087.79
826.42	5450.87
826.60	4356.85
826.78	4437.74
826.97	4117.44
827.15	4251.38
827.33	3616.30
827.51	3568.18
827.69	3381.61
827.87	3291.70
828.05	2969.96
828.23	2704.55
828.41	2981.84
828.60	2803.26
828.78	2261.98
828.96	2360.08
829.14	2239.86
829.32	2268.74
829.50	2050.63
829.68	2045.31
829.86	2102.44
830.04	2310.11
830.22	2108.18
830.41	1915.87
830.59	2138.69
830.77	2287.58
830.95	1944.96
831.13	1948.64
831.31	2016.63
831.49	2309.08
831.67	2128.66
831.85	2120.67
832.03	2133.16
832.21	2270.17
832.39	1860.17
832.57	1889.05
832.76	2297.62
832.94	2115.14
833.12	1797.30
833.30	1933.08
833.48	2355.98
833.66	2225.32
833.84	1936.97
834.02	1982.64
834.20	2293.11
834.38	2306.42
834.56	1815.32
834.74	1909.73
834.92	1955.61
835.10	2466.57
835.28	1979.16
835.46	2011.92
835.64	2127.43
835.82	2054.93
836.01	2239.25
836.19	2202.59
836.37	2071.73
836.55	2004.14
836.73	1921.81
836.91	1890.28
837.09	2296.39
837.27	2442.82
837.45	1861.40
837.63	1905.23
837.81	1997.79
837.99	2187.03
838.17	2034.25
838.35	1957.45
838.53	2592.11
838.71	2327.72
838.89	1978.95
839.07	1970.56
839.25	2210.58
839.43	2428.07
839.61	2601.13
839.79	4427.91
839.97	6652.01
840.15	7791.50
840.33	8692.81
840.51	9269.11
840.69	9092.98
840.87	7448.26
841.05	6503.53
841.23	7137.38
841.41	9434.58
841.59	13442.46
841.77	15185.89
841.95	16619.27
842.13	17910.92
842.31	17102.38
842.49	13620.84
842.67	11334.48
842.85	11224.71
843.03	9673.99
843.21	8995.91
843.39	8359.19
843.57	7597.55
843.75	6838.17
843.93	5672.87
844.11	5061.76
844.29	4753.75
844.47	4324.29
844.65	4003.16
844.83	3514.31
845.01	3216.33
845.19	3080.35
845.36	2530.27
845.54	2358.65
845.72	2392.03
845.90	2396.94
846.08	2019.09
846.26	2117.39
846.44	2295.98
846.62	2293.93
846.80	2101.63
846.98	1947.41
847.16	2135.21
847.34	2238.84
847.52	1925.09
847.70	1856.69
847.88	2129.48
848.06	2416.81
848.24	2109.00
848.41	1910.14
848.59	2357.83
848.77	2224.30
848.95	1944.96
849.13	1917.31
849.31	2275.70
849.49	2218.36
849.67	1906.66
849.85	1870.21
850.03	2219.18
850.21	2214.47
850.39	1882.90
850.57	2079.10
850.74	2436.88
850.92	2572.25
851.10	2892.96
851.28	3657.06
851.46	4495.09
851.64	5266.15
851.82	4920.04
852.00	5001.55
852.18	4776.89
852.36	4162.09
852.53	3749.42
852.71	3597.46
852.89	3687.37
853.07	3545.24
853.25	3043.08
853.43	2872.28
853.61	2992.70
853.79	2879.24
853.97	2439.54
854.14	2408.21
854.32	2735.68
854.50	2604.81
854.68	2216.93
854.86	2110.23
855.04	2113.30
855.22	2360.90
855.40	1844.61
855.57	1918.95
855.75	2315.23
855.93	2237.00
856.11	1812.04
856.29	1924.27
856.47	2004.96
856.65	2178.83
856.82	1888.02
857.00	1842.15
857.18	2106.95
857.36	2035.48
857.54	2013.97
857.72	2089.95
857.89	2236.79
858.07	2163.88
858.25	2127.63
858.43	1856.69
858.61	2098.96
858.79	2132.35
858.97	1855.87
859.14	2029.33
859.32	2101.63
859.50	2073.36
859.68	2042.64
859.86	1902.15
860.03	2178.63
860.21	2249.69
860.39	1936.15
860.57	2096.30
860.75	2223.68
860.93	2467.60
861.10	2146.07
861.28	1898.47
861.46	2201.57
861.64	2230.65
861.82	1938.81
861.99	2068.45
862.17	2327.11
862.35	2322.40
862.53	1976.29
862.71	1986.32
862.88	2229.21
863.06	2300.89
863.24	1943.11
863.42	1899.70
863.60	2081.15
863.77	2252.77
863.95	1808.56
864.13	1914.44
864.31	2095.69
864.49	2257.27
864.66	1874.71
864.84	1868.98
865.02	2183.13
865.20	2608.91
865.37	2015.20
865.55	1930.82
865.73	2039.16
865.91	2516.13
866.09	2429.71
866.26	2429.91
866.44	2730.15
866.62	2574.50
866.80	2297.82
866.97	2234.54
867.15	2378.92
867.33	2423.77
867.51	2264.64
867.68	2205.46
867.86	2248.67
868.04	2177.20
868.22	1878.40
868.39	2012.33
868.57	2310.11
868.75	2502.21
868.93	1884.75
869.10	1955.81
869.28	2504.26
869.46	2419.27
869.64	1967.89
869.81	1937.58
869.99	2198.08
870.17	2173.92
870.35	1891.30
870.52	1938.81
870.70	2307.86
870.88	1998.61
871.05	1877.78
871.23	1751.83
871.41	2130.91
871.59	2118.42
871.76	1931.44
871.94	1849.52
872.12	2147.09
872.29	1913.83
872.47	1886.38
872.65	1833.55
872.83	2158.56
873.00	2375.85
873.18	1907.07
873.36	1859.97
873.53	2262.80
873.71	1905.84
873.89	1830.06
874.06	1924.07
874.24	2215.08
874.42	2355.37
874.60	2063.74
874.77	1990.22
874.95	1991.04
875.13	2309.08
875.30	1917.51
875.48	1866.72
875.66	2419.27
875.83	2005.99
876.01	1903.38
876.19	2020.32
876.36	1931.23
876.54	2169.41
876.72	1838.87
876.89	2022.37
877.07	2283.08
877.25	1848.09
877.42	1956.83
877.60	1907.48
877.78	2474.36
877.95	2055.14
878.13	1854.44
878.31	2044.08
878.48	2274.27
878.66	2248.87
878.84	1882.08
879.01	1918.54
879.19	2240.48
879.37	2245.39
879.54	1942.09
879.72	1788.90
879.90	1820.23
880.07	2279.39
880.25	1702.89
880.42	2036.50
880.60	2166.96
880.78	2251.95
880.95	1904.41
881.13	1945.78
881.31	2136.85
881.48	2034.25
881.66	1891.30
881.83	2020.73
882.01	2016.63
882.19	1924.27
882.36	1954.99
882.54	1906.25
882.72	2267.31
882.89	2153.85
883.07	1879.01
883.24	1889.05
883.42	2278.77
883.60	2157.13
883.77	1831.70
883.95	1921.20
884.12	2306.83
884.30	2177.61
884.48	2069.88
884.65	1950.08
884.83	2186.62
885.00	2179.86
885.18	1810.81
885.36	1914.24
885.53	2224.91
885.71	2369.09
885.88	1828.43
886.06	1902.15
886.23	2205.46
886.41	2045.31
886.59	1894.99
886.76	1831.29
886.94	2237.20
887.11	2600.92
887.29	1950.28
887.47	1840.92
887.64	2348.61
887.82	2373.80
887.99	1777.43
888.17	1934.51
888.34	2090.57
888.52	1937.79
888.69	1891.71
888.87	1815.93
889.05	2059.64
889.22	2069.68
889.40	1910.55
889.57	2126.20
889.75	2417.63
889.92	2046.94
890.10	1820.64
890.27	1964.00
890.45	2017.86
890.62	1858.94
890.80	1821.46
890.98	1747.53
891.15	2398.79
891.33	2317.07
891.50	1868.36
891.68	1775.18
891.85	2260.34
892.03	2244.98
892.20	1860.58
892.38	1840.30
892.55	2276.93
892.73	2239.25
892.90	1755.52
893.08	1884.13
893.25	2011.92
893.43	2041.01
893.60	1980.18
893.78	1730.33
893.95	2197.68
894.13	2110.43
894.30	1848.91
894.48	1890.68
894.65	2234.74
894.83	2151.80
895.00	1726.44
895.18	1720.29
895.35	2293.93
895.53	2253.38
895.70	1807.33
895.88	2000.46
896.05	2190.30
896.23	1904.82
896.40	1875.73
896.58	1944.75
896.75	2246.21
896.93	2379.74
897.10	1894.17
897.28	1802.01
897.45	2164.91
897.63	2268.33
897.80	2004.96
897.98	1860.99
898.15	2184.98
898.33	2034.66
898.50	1920.18
898.67	1911.98
898.85	2071.32
899.02	2200.54
899.20	2121.90
899.37	1927.55
899.55	2115.55
899.72	2350.25
899.90	1871.43
900.07	1846.04
900.25	2246.42
900.42	2317.48
900.59	1841.94
900.77	1994.52
900.94	2231.88
901.12	2170.03
901.29	1915.26
901.47	2058.21
901.64	2239.66
901.82	2113.91
901.99	1702.07
902.16	1857.92
902.34	2323.22
902.51	2205.46
902.69	1866.72
902.86	1922.84
903.03	2750.83
903.21	2139.72
903.38	1876.76
903.56	1842.97
903.73	2325.88
903.91	2067.63
904.08	1817.78
904.25	1728.90
904.43	1999.43
904.60	2256.45
904.78	1880.85
904.95	1834.98
905.12	2070.50
905.30	2419.47
905.47	1989.40
905.65	2063.74
905.82	2094.87
905.99	2208.53
906.17	1895.80
906.34	1878.60
906.52	1995.95
906.69	2244.78
906.86	1988.37
907.04	1985.10
907.21	2298.44
907.38	2303.15
907.56	1864.88
907.73	1846.24
907.91	2406.36
908.08	2318.71
908.25	1931.85
908.43	1800.16
908.60	2230.24
908.77	2192.76
908.95	1950.28
909.12	1830.06
909.30	2294.75
909.47	1922.84
909.64	1949.26
909.82	2081.56
909.99	2095.69
910.16	2172.08
910.34	1866.72
910.51	1888.64
910.68	2178.22
910.86	2162.25
911.03	2018.48
911.20	2720.52
911.38	5077.94
911.55	8080.06
911.72	9328.29
911.90	10414.95
912.07	11554.23
912.24	11175.77
912.42	8466.51
912.59	6068.13
912.76	5811.32
912.94	4874.98
913.11	4199.77
913.28	3763.14
913.46	3638.22
913.63	3668.32
913.80	3559.37
913.98	3098.37
914.15	3440.18
914.32	3368.29
914.49	2969.76
914.67	2713.35
914.84	3017.07
915.01	3102.67
915.19	2775.20
915.36	2530.67
915.53	2796.50
915.71	2589.04
915.88	2232.70
916.05	2058.41
916.22	2411.89
916.40	2226.96
916.57	1847.68
916.74	2110.43
916.92	2472.72
917.09	1971.78
917.26	1860.58
917.43	1819.62
917.61	2088.11
917.78	1840.71
917.95	1825.97
918.13	1819.83
918.30	2513.27
918.47	2167.98
918.64	1875.53
918.82	1836.00
918.99	2161.02
919.16	2457.77
919.33	1956.83
919.51	1950.69
919.68	2140.95
919.85	2336.73
920.02	1793.20
920.20	1944.96
920.37	2422.95
920.54	2311.13
920.71	1861.60
920.89	1885.36
921.06	2463.09
921.23	2007.62
921.40	2002.30
921.58	2593.75
921.75	3733.65
921.92	3252.58
922.09	3394.10
922.27	3357.85
922.44	3428.71
922.61	3071.75
922.78	2399.40
922.96	2373.19
923.13	2470.46
923.30	2623.65
923.47	2074.59
923.64	2134.60
923.82	2427.46
923.99	2396.33
924.16	2179.45
924.33	1990.83
924.50	2325.67
924.68	2543.99
924.85	1990.22
925.02	2045.31
925.19	2401.86
925.36	2291.68
925.54	2014.59
925.71	2029.13
925.88	2739.16
926.05	2113.30
926.22	1861.40
926.40	2020.12
926.57	2150.37
926.74	2230.85
926.91	1863.04
927.08	2039.57
927.26	2338.78
927.43	2141.36
927.60	1843.38
927.77	1933.90
927.94	2418.65
928.11	2300.48
928.29	1757.98
928.46	1948.44
928.63	2001.68
928.80	2078.69
928.97	1979.57
929.14	1873.89
929.32	2511.22
929.49	2152.01
929.66	1850.13
929.83	1772.52
930.00	2027.08
930.17	2181.70
930.35	1826.58
930.52	1860.78
930.69	2383.63
930.86	1938.61
931.03	1924.89
931.20	1699.40
931.37	2325.06
931.55	2118.42
931.72	1951.51
931.89	1832.73
932.06	1950.49
932.23	2413.12
932.40	1972.60
932.57	1996.97
932.74	2315.64
932.92	2331.00
933.09	2044.69
933.26	1618.30
933.43	2054.73
933.60	2177.81
933.77	1914.44
933.94	1956.42
934.11	2069.47
934.29	2156.31
934.46	1842.35
934.63	1999.23
934.80	1949.26
934.97	2161.43
935.14	1947.21
935.31	1807.33
935.48	2045.92
935.65	2173.10
935.82	1947.41
936.00	1804.47
936.17	2383.84
936.34	2106.95
936.51	1961.54
936.68	1796.68
936.85	2197.68
937.02	2148.73
937.19	1974.65
937.36	1903.59
937.53	2189.28
937.70	2274.47
937.87	1858.94
938.05	1989.81
938.22	2150.57
938.39	1937.99
938.56	1905.23
938.73	1789.11
938.90	2085.24
939.07	2011.72
939.24	1972.40
939.41	1701.66
939.58	2201.77
939.75	2198.49
939.92	1838.67
940.09	2116.37
940.26	2070.29
940.43	2274.68
940.60	1927.55
940.77	1882.90
940.95	2160.20
941.12	2251.54
941.29	1895.40
941.46	1901.13
941.63	2350.45
941.80	2388.96
941.97	1778.25
942.14	1736.27
942.31	2252.77
942.48	2096.10
942.65	1984.28
942.82	1941.47
942.99	2214.47
943.16	2124.36
943.33	1800.78
943.50	1836.62
943.67	2257.48
943.84	2339.39
944.01	1882.70
944.18	1863.65
944.35	2361.31
944.52	1969.74
944.69	1951.30
944.86	1789.11
945.03	2227.78
945.20	2547.67
945.37	1713.54
945.54	1905.84
945.71	2351.48
945.88	2410.66
946.05	1822.49
946.22	1782.55
946.39	2352.71
946.56	2099.99
946.73	1727.46
946.90	1839.28
947.07	2029.33
947.24	2084.42
947.41	1713.54
947.58	1956.63
947.75	2227.78
947.92	2177.81
948.09	1692.44
948.26	1761.66
948.43	2155.28
948.60	2469.03
948.77	1806.92
948.94	1881.06
949.11	2263.62
949.27	2200.95
949.44	1835.18
949.61	1780.50
949.78	2178.42
949.95	2300.69
950.12	1773.75
950.29	1727.87
950.46	2055.55
950.63	2292.70
950.80	1826.58
950.97	1850.95
951.14	2280.21
951.31	2073.98
951.48	1810.81
951.65	1758.18
951.82	2465.14
951.99	2138.90
952.15	1770.88
952.32	1842.15
952.49	2009.26
952.66	2034.86
952.83	1830.47
953.00	1812.66
953.17	2110.84
953.34	2272.63
953.51	1899.70
953.68	1913.21
953.85	2316.66
954.02	2326.90
954.18	1905.84
954.35	1858.33
954.52	1962.77
954.69	2115.76
954.86	1726.44
955.03	1920.99
955.20	2223.48
955.37	2089.34
955.54	1834.16
955.71	1824.74
955.87	2231.06
956.04	2420.70
956.21	1853.41
956.38	1807.74
956.55	2145.86
956.72	2593.75
956.89	1931.64
957.06	1798.12
957.23	1995.95
957.39	2343.90
957.56	1881.88
957.73	1762.07
957.90	1772.11
958.07	2452.44
958.24	1905.43
958.41	1872.05
958.57	2238.23
958.74	2126.00
958.91	1754.70
959.08	1812.66
959.25	2224.30
959.42	2083.60
959.59	1891.50
959.75	1896.01
959.92	2321.99
960.09	2321.17
960.26	1805.49
960.43	1893.76
960.60	2185.18
960.76	2082.78
960.93	1754.90
961.10	1932.05
961.27	2282.46
961.44	2064.15
961.61	1759.21
961.77	1744.05
961.94	2152.82
962.11	2269.76
962.28	1868.98
962.45	1756.34
962.62	2098.96
962.78	2281.23
962.95	1726.03
963.12	1816.96
963.29	2235.97
963.46	2632.05
963.62	1923.25
963.79	1835.59
963.96	2577.78
964.13	2087.90
964.30	1976.49
964.46	1887.20
964.63	2013.15
964.80	2684.89
964.97	1952.94
965.14	2402.27
965.30	2695.54
965.47	2812.89
965.64	2582.49
965.81	2479.68
965.98	2795.89
966.14	2483.37
966.31	2103.06
966.48	2083.81
966.65	2560.98
966.81	2392.44
966.98	2051.04
967.15	2021.14
967.32	2251.74
967.49	2129.68
967.65	1837.64
967.82	1814.09
967.99	2199.72
968.16	1945.37
968.32	2100.19
968.49	1902.77
968.66	2175.56
968.83	2486.85
968.99	2063.53
969.16	1881.67
969.33	2422.54
969.50	2282.67
969.66	2042.44
969.83	2152.62
970.00	2293.11
970.17	2239.86
970.33	1892.53
970.50	1777.23
970.67	2398.99
970.84	2378.10
971.00	1799.75
971.17	1748.97
971.34	2245.19
971.50	2151.60
971.67	1952.53
971.84	1870.61
972.01	1928.16
972.17	1797.91
972.34	1749.99
972.51	2034.86
972.67	2329.36
972.84	2222.87
973.01	1788.90
973.18	1834.37
973.34	2289.83
973.51	1958.27
973.68	1873.07
973.84	1892.12
974.01	2073.57
974.18	2437.70
974.34	1923.66
974.51	1966.66
974.68	2009.26
974.85	2463.09
975.01	1946.18
975.18	1854.23
975.35	2117.60
975.51	1982.02
975.68	1726.44
975.85	2027.90
976.01	2034.25
976.18	2366.84
976.35	1869.59
976.51	1897.85
976.68	2417.01
976.85	2313.59
977.01	1902.36
977.18	1919.15
977.35	2258.30
977.51	1950.28
977.68	1713.74
977.85	1799.35
978.01	2364.38
978.18	2285.33
978.35	1976.29
978.51	1975.06
978.68	2345.33
978.85	2450.39
979.01	1920.38
979.18	1923.25
979.34	2129.27
979.51	2176.99
979.68	1851.36
979.84	1941.88
980.01	2633.48
980.18	2117.60
980.34	1825.56
980.51	1920.99
980.67	2263.01
980.84	2278.37
981.01	1868.57
981.17	1938.61
981.34	1844.81
981.51	2277.96
981.67	1784.40
981.84	1957.04
982.00	2222.25
982.17	2116.17
982.34	1710.87
982.50	1610.93
982.67	2429.10
982.83	2047.56
983.00	1744.66
983.17	1647.80
983.33	2317.07
983.50	1870.00
983.66	1729.51
983.83	1646.57
984.00	2050.63
984.16	2136.85
984.33	1652.10
984.49	1634.48
984.66	1962.77
984.83	2247.03
984.99	1685.68
985.16	1620.35
985.32	2225.12
985.49	2278.16
985.65	1790.13
985.82	1625.88
985.99	2392.03
986.15	2141.36
986.32	1752.65
986.48	1701.66
986.65	2045.10
986.81	2268.53
986.98	1637.35
987.14	1739.14
987.31	2136.24
987.48	1873.48
987.64	1585.13
987.81	1629.57
987.97	2504.26
988.14	1956.42
988.30	1662.95
988.47	1518.98
988.63	2150.98
988.80	1926.52
988.96	1723.37
989.13	1784.60
989.30	2071.11
989.46	2266.90
989.63	1618.10
989.79	1607.25
989.96	2110.64
990.12	2391.82
990.29	1672.37
990.45	1736.06
990.62	2131.53
990.78	2337.14
990.95	1764.12
991.11	1669.50
991.28	2034.04
991.44	2174.74
991.61	1558.09
991.77	1751.63
991.94	2148.11
992.10	2311.34
992.27	1729.10
992.43	1718.66
992.60	2205.25
992.76	2047.56
992.93	1885.97
993.09	1622.20
993.26	2290.45
993.42	2396.53
993.59	1675.03
993.75	1607.66
993.92	1984.48
994.08	1993.29
994.25	1736.47
994.41	1623.42
994.58	2218.97
994.74	2374.01
994.91	1621.58
995.07	1770.67
995.24	2104.70
995.40	2108.18
995.56	1829.45
995.73	1776.00
995.89	2424.39
996.06	2078.28
996.22	1650.46
996.39	1595.37
996.55	2061.69
996.72	2186.82
996.88	1592.09
997.05	1642.68
997.21	2473.13
997.37	2211.19
997.54	1766.17
997.70	1698.18
997.87	2171.46
998.03	2091.80
998.20	1583.90
998.36	1582.26
998.52	2240.68
998.69	2287.99
998.85	1600.28
999.02	1705.14
999.18	2277.55
999.35	2274.68
999.51	1754.90
999.67	1695.72
999.84	1926.52
1000.00	2224.30
1000.17	1765.14
1000.33	1688.14
1000.49	2016.02
1000.66	2089.54
1000.82	1652.92
1000.99	1745.28
1001.15	2325.88
1001.31	2043.67
1001.48	1683.23
1001.64	1767.60
1001.81	2047.15
1001.97	2470.06
1002.13	1705.34
1002.30	1710.26
1002.46	2347.18
1002.63	2056.78
1002.79	1767.81
1002.95	1676.26
1003.12	2284.71
1003.28	2205.25
1003.45	1684.66
1003.61	1621.17
1003.77	2162.25
1003.94	1872.87
1004.10	1679.54
1004.26	1766.58
1004.43	2227.78
1004.59	2396.74
1004.75	1665.82
1004.92	1633.87
1005.08	2067.83
1005.25	2139.31
1005.41	1689.16
1005.57	1749.99
1005.74	2323.22
1005.90	2042.44
1006.06	1839.69
1006.23	1662.34
1006.39	2212.42
1006.55	2635.33
1006.72	1795.66
1006.88	1591.07
1007.04	1973.42
1007.21	2059.44
1007.37	1720.29
1007.53	1655.78
1007.70	2377.08
1007.86	2254.40
1008.02	1731.76
1008.19	1636.94
1008.35	2152.21
1008.51	1961.34
1008.68	1690.19
1008.84	1608.88
1009.00	1935.74
1009.17	2306.42
1009.33	1864.88
1009.49	1797.91
1009.65	1979.16
1009.82	2190.92
1009.98	1761.05
1010.14	1571.00
1010.31	2247.24
1010.47	2207.30
1010.63	1737.70
1010.80	1745.48
1010.96	2203.20
1011.12	2086.27
1011.28	1711.49
1011.45	1649.02
1011.61	2580.24
1011.77	1964.82
1011.94	1641.24
1012.10	1652.71
1012.26	1928.78
1012.42	2042.85
1012.59	1754.49
1012.75	1708.83
1012.91	2066.81
1013.07	2261.57
1013.24	1629.57
1013.40	1669.30
1013.56	2129.89
1013.72	2104.29
1013.89	1747.33
1014.05	1781.53
1014.21	2448.96
1014.37	2563.65
1014.54	1726.44
1014.70	1612.16
1014.86	2095.69
1015.02	1916.08
1015.19	1692.03
1015.35	1615.85
1015.51	2101.22
1015.67	2038.34
1015.84	1668.68
1016.00	1705.96
1016.16	2324.03
1016.32	2263.21
1016.49	1665.20
1016.65	1630.18
1016.81	2076.85
1016.97	2189.89
1017.14	1794.43
1017.30	1676.47
1017.46	2037.11
1017.62	2155.69
1017.78	1738.32
1017.95	1678.52
1018.11	2266.28
1018.27	2531.29
1018.43	1837.03
1018.59	1745.07
1018.76	2242.32
1018.92	2599.08
1019.08	1665.82
1019.24	1677.90
1019.40	2385.68
1019.57	2141.36
1019.73	1764.12
1019.89	1702.48
1020.05	2170.64
1020.21	2494.84
1020.38	1655.99
1020.54	1856.07
1020.70	2239.86
1020.86	2224.09
1021.02	1686.30
1021.18	1676.26
1021.35	2026.67
1021.51	2204.43
1021.67	1858.12
1021.83	1723.37
1021.99	2085.65
1022.15	2170.03
1022.32	1737.29
1022.48	1753.88
1022.64	2365.20
1022.80	2435.85
1022.96	1750.81
1023.12	1590.66
1023.29	2291.27
1023.45	2222.25
1023.61	1675.03
1023.77	1906.04
1023.93	2150.78
1024.09	1960.93
1024.25	1643.49
1024.42	1607.66
1024.58	2048.58
1024.74	2158.56
1024.90	1698.79
1025.06	1766.78
1025.22	2026.87
1025.38	2409.03
1025.54	1646.16
1025.71	1782.55
1025.87	2229.21
1026.03	2230.65
1026.19	1641.04
1026.35	1875.73
1026.51	2210.78
1026.67	2131.53
1026.83	1726.03
1026.99	1844.40
1027.16	2182.52
1027.32	2300.48
1027.48	1689.16
1027.64	1694.69
1027.80	2236.79
1027.96	2160.61
1028.12	1700.63
1028.28	1677.70
1028.44	2177.40
1028.60	2385.88
1028.77	1851.16
1028.93	1734.42
1029.09	2043.87
1029.25	1948.44
1029.41	1713.95
1029.57	1784.40
1029.73	2179.65
1029.89	2379.94
1030.05	1779.48
1030.21	1766.17
1030.37	2544.81
1030.53	2214.67
1030.69	1723.57
1030.85	1648.82
1031.02	1967.28
1031.18	2106.54
1031.34	1709.64
1031.50	1783.17
1031.66	1981.41
1031.82	2390.80
1031.98	1722.55
1032.14	1639.81
1032.30	1959.29
1032.46	2262.80
1032.62	1809.79
1032.78	1602.95
1032.94	1965.44
1033.10	2051.45
1033.26	1774.97
1033.42	1836.21
1033.58	2520.44
1033.74	2045.92
1033.90	1665.82
1034.06	1875.53
1034.22	2524.12
1034.38	2304.58
1034.54	1725.62
1034.70	1759.21
1034.86	2474.56
>>>>>End Processed Spectral Data<<<<<
