SpectraSuite Data File
++++++++++++++++++++++++++++++++++++
Date: Thu Mar 30 16:26:25 PDT 2017
User: UCSD _CER
Dark Spectrum Present: No
Reference Spectrum Present: No
Number of Sampled Component Spectra: 1
Spectrometers: USB4C00073
Integration Time (usec): 250000 (USB4C00073)
Spectra Averaged: 10 (USB4C00073)
Boxcar Smoothing: 0 (USB4C00073)
Correct for Electrical Dark: No (USB4C00073)
Strobe/Lamp Enabled: No (USB4C00073)
Correct for Detector Non-linearity: No (USB4C00073)
Correct for Stray Light: No (USB4C00073)
Number of Pixels in Processed Spectrum: 3648
>>>>>Begin Processed Spectral Data<<<<<
345.37	1265.64
345.58	1265.64
345.80	1265.64
346.01	1278.96
346.22	1270.15
346.43	1985.30
346.65	1784.40
346.86	2139.10
347.07	2088.31
347.28	1798.53
347.50	1787.26
347.71	1924.89
347.92	1728.08
348.13	1793.41
348.35	1691.01
348.56	1903.18
348.77	1775.18
348.98	1832.32
349.20	1684.04
349.41	1941.47
349.62	1999.43
349.83	1835.18
350.05	1718.86
350.26	1930.62
350.47	2097.53
350.68	1777.23
350.90	1745.69
351.11	2105.93
351.32	2084.42
351.53	1811.43
351.75	1725.00
351.96	1926.32
352.17	1916.90
352.38	1858.74
352.60	1873.28
352.81	1946.18
353.02	2123.74
353.23	1769.24
353.44	1771.49
353.66	1848.09
353.87	1876.55
354.08	1872.66
354.29	1812.66
354.51	1853.00
354.72	1890.68
354.93	1791.97
355.14	1729.30
355.35	1719.68
355.57	2037.93
355.78	1814.30
355.99	1869.18
356.20	1916.49
356.42	1920.59
356.63	1917.72
356.84	1826.79
357.05	2036.70
357.26	2178.22
357.48	1908.50
357.69	1817.78
357.90	1920.59
358.11	1865.49
358.32	1806.92
358.54	1841.12
358.75	1864.88
358.96	2000.46
359.17	1780.50
359.38	1802.21
359.60	1989.40
359.81	1897.24
360.02	1816.55
360.23	1778.25
360.44	1848.50
360.66	2019.91
360.87	1757.77
361.08	1732.79
361.29	1929.19
361.50	1918.33
361.72	1764.33
361.93	1850.34
362.14	1930.21
362.35	1738.73
362.56	1890.07
362.77	1715.38
362.99	1987.14
363.20	1920.38
363.41	1889.87
363.62	1693.87
363.83	2002.71
364.05	2041.82
364.26	1723.37
364.47	1774.97
364.68	2045.10
364.89	1821.26
365.10	1746.92
365.32	1808.97
365.53	1799.35
365.74	1855.25
365.95	1825.97
366.16	1678.11
366.37	1895.40
366.59	1885.97
366.80	1787.88
367.01	1700.43
367.22	2137.26
367.43	2283.49
367.64	1806.92
367.86	1800.98
368.07	1976.09
368.28	2040.80
368.49	1734.02
368.70	1827.20
368.91	1865.90
369.12	1898.88
369.34	1704.11
369.55	1734.02
369.76	1902.15
369.97	1880.85
370.18	1757.16
370.39	1739.54
370.60	1745.28
370.82	1802.62
371.03	1814.71
371.24	1775.59
371.45	1999.02
371.66	1971.17
371.87	1802.42
372.08	1778.05
372.30	1784.40
372.51	1997.18
372.72	1846.45
372.93	1770.47
373.14	2083.40
373.35	1817.37
373.56	1754.49
373.78	1823.72
373.99	2016.63
374.20	2253.79
374.41	1810.61
374.62	1811.84
374.83	2123.54
375.04	1857.10
375.25	1808.36
375.47	1790.54
375.68	1872.87
375.89	1997.18
376.10	1818.39
376.31	1876.76
376.52	1966.87
376.73	1961.54
376.94	1808.77
377.15	1787.47
377.37	1905.02
377.58	1873.89
377.79	1669.71
378.00	1725.82
378.21	1927.34
378.42	1969.33
378.63	1822.49
378.84	1899.49
379.05	2037.73
379.27	1921.81
379.48	1928.98
379.69	1752.24
379.90	2020.73
380.11	1686.30
380.32	1815.73
380.53	1907.48
380.74	2067.01
380.95	1933.49
381.16	1790.95
381.37	1781.94
381.59	2088.72
381.80	2036.91
382.01	1781.32
382.22	1720.70
382.43	1995.34
382.64	1895.40
382.85	1734.63
383.06	1861.81
383.27	1997.79
383.48	1886.18
383.69	1856.07
383.91	1737.91
384.12	1984.89
384.33	1992.67
384.54	1807.33
384.75	1684.25
384.96	2286.15
385.17	2028.92
385.38	1778.25
385.59	1770.88
385.80	2013.77
386.01	2107.16
386.22	1890.28
386.43	1846.45
386.64	2200.34
386.86	1903.59
387.07	1917.10
387.28	1706.98
387.49	1841.94
387.70	2053.50
387.91	1864.27
388.12	1753.27
388.33	1977.52
388.54	1844.81
388.75	1758.59
388.96	1842.97
389.17	1853.41
389.38	1893.14
389.59	1874.92
389.80	1828.63
390.01	1902.77
390.22	1856.69
390.43	1889.87
390.64	1692.03
390.86	1969.74
391.07	2058.41
391.28	1792.18
391.49	1848.50
391.70	1754.90
391.91	1813.48
392.12	1784.60
392.33	1764.53
392.54	1910.96
392.75	1873.89
392.96	1883.31
393.17	1737.09
393.38	2209.96
393.59	2049.40
393.80	1748.97
394.01	1855.25
394.22	1961.54
394.43	2222.05
394.64	1857.30
394.85	1968.30
395.06	1985.10
395.27	1981.41
395.48	1840.92
395.69	1731.76
395.90	1882.70
396.11	1928.37
396.32	1766.37
396.53	1904.61
396.74	1890.07
396.95	2027.90
397.16	1759.61
397.37	1704.32
397.58	2033.02
397.79	1900.92
398.00	1870.82
398.21	1787.67
398.42	1920.99
398.63	2155.69
398.84	1796.48
399.05	1768.42
399.26	2069.47
399.47	1952.53
399.68	1647.59
399.89	1740.16
400.10	1783.58
400.31	1844.20
400.52	1831.91
400.73	1772.52
400.94	1719.68
401.15	1936.97
401.36	1810.81
401.57	1853.41
401.78	2052.06
401.99	2040.19
402.20	1729.10
402.41	1901.54
402.62	2078.28
402.83	1897.24
403.04	1764.94
403.25	1950.49
403.46	1940.25
403.67	2164.29
403.88	1912.39
404.09	1899.49
404.30	1958.06
404.51	1904.41
404.72	1824.54
404.93	1961.34
405.14	1855.66
405.35	1911.37
405.56	1838.87
405.77	1788.70
405.98	1947.82
406.19	1895.19
406.40	1765.35
406.61	1787.67
406.82	1786.03
407.03	2205.05
407.24	1702.48
407.45	1809.18
407.66	1949.67
407.87	1986.53
408.08	1856.89
408.29	1894.37
408.49	1977.11
408.70	1897.44
408.91	1823.72
409.12	1893.76
409.33	1804.47
409.54	2051.66
409.75	1793.82
409.96	1784.40
410.17	2008.44
410.38	1857.71
410.59	1779.68
410.80	1881.06
411.01	1887.41
411.22	1863.04
411.43	1877.17
411.64	1765.96
411.85	1826.38
412.06	1805.90
412.27	1647.18
412.47	1768.63
412.68	1889.87
412.89	1962.57
413.10	1752.24
413.31	1710.26
413.52	2139.51
413.73	2156.72
413.94	1760.23
414.15	1921.81
414.36	1846.45
414.57	1828.02
414.78	1788.08
414.99	2104.29
415.19	2554.23
415.40	2655.81
415.61	2766.40
415.82	2611.77
416.03	2608.91
416.24	2369.70
416.45	2118.42
416.66	1931.23
416.87	1836.21
417.08	2001.48
417.29	1830.27
417.50	1953.15
417.70	2097.32
417.91	2118.62
418.12	2037.93
418.33	2106.75
418.54	2278.16
418.75	2436.47
418.96	2448.55
419.17	2605.43
419.38	3101.85
419.59	3098.37
419.79	2925.11
420.00	2816.57
420.21	2980.00
420.42	2364.58
420.63	2106.54
420.84	2056.37
421.05	1957.86
421.26	1930.62
421.47	1752.45
421.67	2052.27
421.88	1801.80
422.09	1750.60
422.30	1961.13
422.51	1837.23
422.72	2107.77
422.93	1987.55
423.14	1822.08
423.35	1695.92
423.55	1709.44
423.76	1812.25
423.97	1838.46
424.18	1718.45
424.39	1912.80
424.60	2090.77
424.81	1885.97
425.02	2025.65
425.22	2117.80
425.43	2122.72
425.64	2277.14
425.85	2237.00
426.06	2554.23
426.27	2428.48
426.48	2368.48
426.68	2353.12
426.89	2483.16
427.10	2537.84
427.31	2122.51
427.52	1916.69
427.73	2097.94
427.94	2038.75
428.14	1908.71
428.35	1823.10
428.56	2082.78
428.77	2041.21
428.98	1903.79
429.19	1983.46
429.40	2081.56
429.60	2163.88
429.81	2187.64
430.02	2118.83
430.23	2058.21
430.44	2114.73
430.65	1867.34
430.85	1915.06
431.06	2002.91
431.27	1722.96
431.48	1839.90
431.69	1849.32
431.90	1912.80
432.10	1916.69
432.31	1872.46
432.52	1880.65
432.73	2485.41
432.94	2446.91
433.15	2290.45
433.35	2164.29
433.56	2321.58
433.77	2132.75
433.98	2110.84
434.19	1944.14
434.40	2039.78
434.60	1950.49
434.81	1840.30
435.02	1905.02
435.23	1910.14
435.44	1840.71
435.64	1699.40
435.85	1766.58
436.06	1873.89
436.27	1872.05
436.48	1732.38
436.68	1769.45
436.89	2111.87
437.10	1943.52
437.31	1846.04
437.52	1897.24
437.73	1954.99
437.93	1914.65
438.14	1864.68
438.35	1671.76
438.56	1859.97
438.77	1891.71
438.97	1945.16
439.18	1754.09
439.39	2032.81
439.60	1743.23
439.80	1711.90
440.01	1817.16
440.22	1832.73
440.43	1981.00
440.64	1713.54
440.84	1874.71
441.05	1756.54
441.26	2249.08
441.47	1879.63
441.68	1762.48
441.88	1884.13
442.09	1870.00
442.30	1951.51
442.51	1839.28
442.71	1843.99
442.92	1932.46
443.13	1747.33
443.34	1737.09
443.55	1776.00
443.75	1975.47
443.96	1782.96
444.17	1743.64
444.38	2032.61
444.58	1812.04
444.79	1869.80
445.00	1849.32
445.21	1893.35
445.41	1868.57
445.62	1613.39
445.83	1881.67
446.04	1905.63
446.24	1753.68
446.45	1646.16
446.66	1812.86
446.87	1946.39
447.07	1852.18
447.28	1970.15
447.49	1839.28
447.70	2027.49
447.90	2032.61
448.11	1847.27
448.32	1885.97
448.53	2092.61
448.73	2063.12
448.94	1802.01
449.15	1925.30
449.36	1919.97
449.56	1960.73
449.77	1789.72
449.98	1730.33
450.19	1891.91
450.39	1977.93
450.60	1992.67
450.81	1966.05
451.02	2036.09
451.22	2163.47
451.43	1859.56
451.64	1865.70
451.84	1923.25
452.05	2132.96
452.26	1937.17
452.47	1841.94
452.67	1875.53
452.88	2095.28
453.09	1781.94
453.30	1771.29
453.50	2027.49
453.71	2110.64
453.92	1799.14
454.12	1887.41
454.33	1817.78
454.54	1870.41
454.75	1752.04
454.95	1748.56
455.16	1962.16
455.37	1970.56
455.57	1824.94
455.78	1800.57
455.99	1912.39
456.19	1930.21
456.40	1731.97
456.61	1854.23
456.82	1896.21
457.02	2012.95
457.23	1865.49
457.44	1993.29
457.64	1857.92
457.85	1988.99
458.06	1844.61
458.26	1855.25
458.47	1899.90
458.68	2062.71
458.89	1780.09
459.09	1974.24
459.30	2232.08
459.51	1950.28
459.71	1769.85
459.92	1814.30
460.13	2004.76
460.33	2195.83
460.54	1808.77
460.75	1815.32
460.95	1783.37
461.16	1977.93
461.37	1791.97
461.57	1834.37
461.78	1907.48
461.99	1800.78
462.19	2020.94
462.40	1783.78
462.61	2210.99
462.81	2074.80
463.02	1790.13
463.23	1813.68
463.43	2031.18
463.64	1876.76
463.85	2753.70
464.05	1817.16
464.26	2306.01
464.47	2103.47
464.67	2015.41
464.88	1896.21
465.09	1849.73
465.29	1916.28
465.50	1938.81
465.71	1838.87
465.91	1845.02
466.12	1912.19
466.33	1878.40
466.53	1810.40
466.74	2106.75
466.94	1892.94
467.15	1820.23
467.36	2033.84
467.56	1781.32
467.77	1949.67
467.98	1878.81
468.18	1813.48
468.39	1839.49
468.60	2166.55
468.80	1860.78
469.01	1757.36
469.21	1958.47
469.42	2073.16
469.63	1871.84
469.83	1806.72
470.04	2105.93
470.25	2182.52
470.45	1953.56
470.66	1822.49
470.86	1985.51
471.07	1895.60
471.28	1919.56
471.48	1985.51
471.69	1927.55
471.90	2367.45
472.10	1833.34
472.31	1829.86
472.51	1824.74
472.72	1797.30
472.93	1785.01
473.13	1911.78
473.34	1946.59
473.54	1891.09
473.75	1842.76
473.96	2011.92
474.16	1880.24
474.37	2012.54
474.57	1925.50
474.78	1840.51
474.99	2031.79
475.19	1988.99
475.40	1845.02
475.60	1774.16
475.81	2119.44
476.02	1942.50
476.22	1938.81
476.43	2009.06
476.63	1972.19
476.84	2122.72
477.05	1755.31
477.25	1821.26
477.46	2320.14
477.66	1924.68
477.87	1750.40
478.08	1859.76
478.28	2042.44
478.49	1907.68
478.69	1790.54
478.90	1829.25
479.10	2021.75
479.31	2120.06
479.52	1908.50
479.72	1954.99
479.93	2002.30
480.13	1858.33
480.34	1806.51
480.54	1896.42
480.75	1834.57
480.96	2078.07
481.16	1786.85
481.37	1920.18
481.57	2030.15
481.78	1982.23
481.98	2003.32
482.19	1877.78
482.40	2141.97
482.60	2021.14
482.81	2013.56
483.01	1839.69
483.22	2074.59
483.42	2097.12
483.63	1982.43
483.83	1924.48
484.04	1850.13
484.24	2024.21
484.45	1899.08
484.66	1736.06
484.86	1982.23
485.07	1829.04
485.27	1892.73
485.48	1809.79
485.68	2063.74
485.89	1826.38
486.09	1920.18
486.30	1829.86
486.50	1928.57
486.71	1958.68
486.91	1971.37
487.12	2045.31
487.33	2276.73
487.53	2276.52
487.74	2098.55
487.94	1999.64
488.15	2124.97
488.35	2195.01
488.56	2045.92
488.76	2034.45
488.97	2062.30
489.17	2120.47
489.38	1942.29
489.58	1891.30
489.79	2002.50
489.99	2001.28
490.20	1880.24
490.40	1969.53
490.61	1992.88
490.81	1877.37
491.02	1875.12
491.22	1931.64
491.43	2031.79
491.63	1947.41
491.84	2004.35
492.04	1788.70
492.25	1995.13
492.45	1888.02
492.66	1836.62
492.86	1735.45
493.07	1885.36
493.27	2188.66
493.48	1726.85
493.68	1860.37
493.89	1915.47
494.09	2006.60
494.30	1817.78
494.50	2103.26
494.71	2012.74
494.91	1826.38
495.12	1941.27
495.32	2033.84
495.53	2007.62
495.73	1775.79
495.94	1878.81
496.14	1726.03
496.35	2154.87
496.55	1881.06
496.76	1833.34
496.96	1912.80
497.17	1909.53
497.37	2004.35
497.58	1847.47
497.78	1796.07
497.98	1906.45
498.19	1930.42
498.39	1934.10
498.60	1933.90
498.80	1770.26
499.01	2069.88
499.21	1784.19
499.42	1876.35
499.62	1890.48
499.83	2209.35
500.03	1741.59
500.24	1900.11
500.44	2088.52
500.64	2058.62
500.85	1848.29
501.05	1968.30
501.26	1725.00
501.46	2096.92
501.67	1794.84
501.87	1765.96
502.08	1793.20
502.28	1886.18
502.48	1967.69
502.69	2006.19
502.89	1787.88
503.10	1867.54
503.30	1935.74
503.51	1904.61
503.71	1825.97
503.92	2043.26
504.12	1995.75
504.32	1936.97
504.53	2119.44
504.73	2138.69
504.94	2092.00
505.14	2229.62
505.35	2231.67
505.55	2197.47
505.75	2147.09
505.96	2252.15
506.16	2318.71
506.37	1961.34
506.57	1890.28
506.78	2009.06
506.98	2138.90
507.18	1846.04
507.39	1851.98
507.59	1917.72
507.80	1918.33
508.00	2001.28
508.20	2054.11
508.41	1936.76
508.61	2126.20
508.82	2082.78
509.02	2005.78
509.22	1799.14
509.43	1805.08
509.63	1839.28
509.84	1865.49
510.04	1786.65
510.24	2140.54
510.45	2022.37
510.65	1770.06
510.86	1916.49
511.06	1821.46
511.26	2072.34
511.47	2026.87
511.67	1857.92
511.88	2052.88
512.08	2072.75
512.28	1802.62
512.49	1967.69
512.69	1981.41
512.90	1946.18
513.10	1855.46
513.30	1904.61
513.51	2007.83
513.71	2122.72
513.91	1933.90
514.12	1936.35
514.32	2103.26
514.53	1965.64
514.73	2082.78
514.93	2020.32
515.14	2126.61
515.34	2343.90
515.54	2231.26
515.75	2324.03
515.95	2400.83
516.15	2472.92
516.36	2200.34
516.56	2113.91
516.77	1831.29
516.97	2096.71
517.17	1975.06
517.38	2031.58
517.58	2244.78
517.78	2089.34
517.99	2246.42
518.19	2331.61
518.39	2574.91
518.60	2417.42
518.80	2240.89
519.00	2257.89
519.21	2106.34
519.41	2296.18
519.61	1936.76
519.82	2023.39
520.02	2002.91
520.22	2017.04
520.43	1957.65
520.63	1962.77
520.83	1925.71
521.04	1853.00
521.24	2176.38
521.44	2220.82
521.65	2274.06
521.85	2482.96
522.05	2237.61
522.26	2134.80
522.46	2364.79
522.66	2178.22
522.87	1949.87
523.07	2124.56
523.27	1966.66
523.48	2219.18
523.68	2049.20
523.88	1990.42
524.09	2178.63
524.29	2073.98
524.49	1919.97
524.70	2199.52
524.90	2385.27
525.10	2264.44
525.31	2005.17
525.51	1925.09
525.71	2128.66
525.91	2065.79
526.12	1866.52
526.32	1804.26
526.52	1885.16
526.73	1864.06
526.93	1930.01
527.13	1755.93
527.34	1940.45
527.54	1961.13
527.74	1904.61
527.94	1826.79
528.15	1840.92
528.35	1978.95
528.55	1979.36
528.76	1968.10
528.96	1772.31
529.16	2074.39
529.36	2003.12
529.57	1788.90
529.77	2092.61
529.97	1810.20
530.18	1983.25
530.38	1850.54
530.58	2012.54
530.78	1961.95
530.99	1860.58
531.19	2011.11
531.39	1889.66
531.60	1955.61
531.80	1870.61
532.00	1995.95
532.20	1958.88
532.41	1864.06
532.61	1861.60
532.81	1876.14
533.01	1897.44
533.22	1967.69
533.42	1987.35
533.62	1742.82
533.82	2096.30
534.03	1894.37
534.23	1922.63
534.43	1820.85
534.63	1869.59
534.84	1979.98
535.04	1936.35
535.24	1914.24
535.44	2261.57
535.65	1875.73
535.85	1816.96
536.05	1820.23
536.25	1914.24
536.46	1839.69
536.66	2070.29
536.86	1969.94
537.06	2088.52
537.27	2167.98
537.47	2016.02
537.67	1876.35
537.87	2128.04
538.08	1935.74
538.28	1843.17
538.48	1838.26
538.68	1951.10
538.88	2031.38
539.09	1783.78
539.29	1885.77
539.49	2063.74
539.69	1994.11
539.90	1985.51
540.10	1856.28
540.30	2129.68
540.50	1936.15
540.70	1882.70
540.91	1982.23
541.11	2135.62
541.31	2266.08
541.51	2140.54
541.72	2187.64
541.92	2202.59
542.12	2055.96
542.32	1991.04
542.52	1925.71
542.73	1937.58
542.93	2047.97
543.13	1923.25
543.33	2049.40
543.53	2187.85
543.74	2153.44
543.94	2043.26
544.14	2205.05
544.34	2384.86
544.54	2221.23
544.75	2355.37
544.95	2502.82
545.15	2383.02
545.35	2409.84
545.55	2271.61
545.75	2072.13
545.96	2376.87
546.16	1965.03
546.36	2021.55
546.56	2023.39
546.76	2162.25
546.97	2212.63
547.17	1953.15
547.37	1999.64
547.57	1880.24
547.77	2043.87
547.97	1970.76
548.18	1975.68
548.38	2014.79
548.58	2490.94
548.78	2513.47
548.98	2833.57
549.18	3168.00
549.39	3356.21
549.59	2970.37
549.79	2676.29
549.99	2776.64
550.19	2620.99
550.39	2491.56
550.60	2281.64
550.80	2233.11
551.00	2228.39
551.20	2023.80
551.40	1953.76
551.60	2085.04
551.80	2054.11
552.01	2108.38
552.21	1995.95
552.41	2067.63
552.61	2234.54
552.81	2011.72
553.01	1872.46
553.21	2050.22
553.42	1893.14
553.62	1874.71
553.82	1850.95
554.02	2158.35
554.22	2059.23
554.42	1813.07
554.62	1969.33
554.83	2320.76
555.03	2541.53
555.23	2522.28
555.43	2880.47
555.63	2877.40
555.83	2702.91
556.03	2439.13
556.23	2258.09
556.44	2412.10
556.64	2519.41
556.84	2106.95
557.04	2299.46
557.24	2311.34
557.44	2218.15
557.64	2138.49
557.84	1948.23
558.04	2004.76
558.25	2095.07
558.45	1925.71
558.65	2013.56
558.85	2073.77
559.05	1863.04
559.25	2017.04
559.45	2164.29
559.65	2538.46
559.85	3034.27
560.05	2461.66
560.26	2571.22
560.46	2595.80
560.66	2439.13
560.86	2250.51
561.06	2136.65
561.26	2360.90
561.46	2243.14
561.66	2068.04
561.86	2139.31
562.06	1991.24
562.26	2015.20
562.47	1994.31
562.67	1835.59
562.87	2066.40
563.07	1836.21
563.27	1987.55
563.47	2026.67
563.67	1937.17
563.87	2151.39
564.07	2011.92
564.27	2145.86
564.47	2214.26
564.67	2327.72
564.87	2171.26
565.08	2232.29
565.28	2087.29
565.48	2190.92
565.68	2132.35
565.88	2121.08
566.08	2275.70
566.28	1988.37
566.48	1802.42
566.68	1939.02
566.88	1934.92
567.08	2071.93
567.28	1956.22
567.48	1978.75
567.68	2080.53
567.88	1910.14
568.08	2072.95
568.28	2183.95
568.48	2071.11
568.68	2207.71
568.89	2052.27
569.09	1841.33
569.29	2097.12
569.49	2102.24
569.69	1860.37
569.89	1825.35
570.09	1727.87
570.29	1835.18
570.49	1773.13
570.69	1866.52
570.89	2026.87
571.09	2174.94
571.29	1768.01
571.49	2022.78
571.69	1966.66
571.89	1985.92
572.09	1819.21
572.29	1843.17
572.49	2022.37
572.69	2020.53
572.89	1954.99
573.09	1770.47
573.29	2087.08
573.49	2102.85
573.69	2089.13
573.89	2176.99
574.09	1977.72
574.29	2173.10
574.49	1923.45
574.69	1871.84
574.89	1813.48
575.09	1818.80
575.29	1809.38
575.49	1924.07
575.69	1961.75
575.89	1781.94
576.09	1942.50
576.29	1962.77
576.49	1866.11
576.69	1974.65
576.89	1911.98
577.09	1981.00
577.29	1806.31
577.49	2251.54
577.69	1877.99
577.89	2016.63
578.09	1944.34
578.29	1753.27
578.49	1922.63
578.69	1848.91
578.89	2053.91
579.09	1974.65
579.29	1840.10
579.49	2054.93
579.69	1933.49
579.89	2229.01
580.09	1782.55
580.29	1777.23
580.49	1878.60
580.69	1825.76
580.89	1873.89
581.09	1850.54
581.29	1866.11
581.49	1876.76
581.69	1777.43
581.89	1802.42
582.09	1828.63
582.28	1830.06
582.48	2022.16
582.68	2141.97
582.88	2204.43
583.08	2037.93
583.28	1988.58
583.48	1987.55
583.68	1886.38
583.88	1989.40
584.08	1942.91
584.28	1915.47
584.48	2168.59
584.68	2006.60
584.88	1890.28
585.08	2050.43
585.28	2090.77
585.48	2099.78
585.68	2021.14
585.87	2034.45
586.07	2028.10
586.27	1957.04
586.47	2003.12
586.67	1923.66
586.87	1941.27
587.07	1903.79
587.27	1840.51
587.47	1996.36
587.67	2283.49
587.87	2615.46
588.07	2445.48
588.27	2455.10
588.46	2637.37
588.66	2663.79
588.86	2396.12
589.06	2336.53
589.26	2330.59
589.46	2253.79
589.66	1965.44
589.86	1932.46
590.06	2013.56
590.26	2209.35
590.46	2115.55
590.66	2263.21
590.85	2200.75
591.05	2278.57
591.25	2036.50
591.45	2070.91
591.65	2157.74
591.85	2184.98
592.05	2164.09
592.25	2273.65
592.45	2378.72
592.64	2227.37
592.84	2184.77
593.04	2029.74
593.24	2461.86
593.44	2065.38
593.64	2166.75
593.84	2163.47
594.04	2079.30
594.24	2266.28
594.43	1964.62
594.63	2023.80
594.83	2121.08
595.03	2096.30
595.23	1856.89
595.43	1787.67
595.63	1852.18
595.83	2070.50
596.02	1729.51
596.22	1948.64
596.42	1989.81
596.62	1981.41
596.82	1898.06
597.02	2076.03
597.22	2130.71
597.41	1977.11
597.61	1904.41
597.81	2069.47
598.01	2139.10
598.21	2005.58
598.41	1988.99
598.61	1941.27
598.80	2075.41
599.00	2086.06
599.20	2157.94
599.40	2015.20
599.60	2002.09
599.80	2143.81
599.99	2162.65
600.19	1979.77
600.39	2021.96
600.59	2100.81
600.79	2058.41
600.99	2023.39
601.19	2227.17
601.38	2262.19
601.58	2062.10
601.78	1837.23
601.98	2302.94
602.18	2992.49
602.37	3704.57
602.57	3828.88
602.77	4258.55
602.97	4347.84
603.17	4156.15
603.37	3924.11
603.56	3963.02
603.76	3806.76
603.96	3706.21
604.16	3476.22
604.36	3265.28
604.56	2987.37
604.75	2609.32
604.95	2566.10
605.15	2613.41
605.35	2446.91
605.55	2282.67
605.74	2172.69
605.94	2339.60
606.14	2153.03
606.34	2077.05
606.54	2029.74
606.73	1959.50
606.93	2083.40
607.13	1895.40
607.33	1956.83
607.53	2146.07
607.72	2073.57
607.92	2013.56
608.12	2088.93
608.32	1933.49
608.51	2084.42
608.71	1911.37
608.91	2073.36
609.11	2178.63
609.31	2129.48
609.50	2255.43
609.70	2439.75
609.90	2415.37
610.10	2380.56
610.29	2253.58
610.49	2106.75
610.69	2268.74
610.89	2132.14
611.09	2099.78
611.28	2165.32
611.48	2163.06
611.68	2019.91
611.88	1966.46
612.07	1930.21
612.27	2100.19
612.47	1928.16
612.67	2000.25
612.86	2048.99
613.06	1958.68
613.26	1792.59
613.46	1972.60
613.65	2070.29
613.85	2453.67
614.05	2233.51
614.25	2207.71
614.44	2103.88
614.64	2127.63
614.84	2077.66
615.04	2031.18
615.23	2035.89
615.43	2168.18
615.63	2163.47
615.83	1991.04
616.02	1954.38
616.22	2318.10
616.42	2146.27
616.62	2204.02
616.81	2325.06
617.01	2374.82
617.21	2280.21
617.41	2100.19
617.60	2147.30
617.80	2188.25
618.00	2146.48
618.19	2059.64
618.39	2040.19
618.59	2058.21
618.79	1948.64
618.98	1759.00
619.18	1887.61
619.38	2210.37
619.57	1889.87
619.77	1884.54
619.97	1920.59
620.17	1911.98
620.36	1947.82
620.56	2231.06
620.76	2028.92
620.95	2128.04
621.15	2187.44
621.35	2059.64
621.54	2098.96
621.74	2115.76
621.94	1980.59
622.14	1924.27
622.33	1848.29
622.53	1971.17
622.73	1948.85
622.92	1778.05
623.12	1932.46
623.32	2178.22
623.51	2010.49
623.71	1758.80
623.91	2021.55
624.10	1817.57
624.30	1967.28
624.50	1815.32
624.69	1807.33
624.89	2442.00
625.09	1876.14
625.29	1729.30
625.48	1788.08
625.68	1944.34
625.88	2061.28
626.07	1941.27
626.27	1774.16
626.47	1828.84
626.66	1723.98
626.86	1880.65
627.06	1879.42
627.25	1909.53
627.45	2128.25
627.64	1877.78
627.84	2057.59
628.04	1841.94
628.23	2191.12
628.43	1808.97
628.63	1901.33
628.82	1946.18
629.02	2268.33
629.22	2147.70
629.41	2232.90
629.61	2116.17
629.81	2393.87
630.00	2085.65
630.20	2056.98
630.40	2259.11
630.59	2251.13
630.79	2082.37
630.98	2018.48
631.18	2006.39
631.38	1991.24
631.57	2089.95
631.77	1821.05
631.97	1966.25
632.16	1968.92
632.36	1923.25
632.56	1940.86
632.75	1950.69
632.95	2035.89
633.14	1774.77
633.34	2070.50
633.54	1679.13
633.73	1838.26
633.93	1832.73
634.12	1741.80
634.32	2228.39
634.52	1886.79
634.71	1745.48
634.91	1937.17
635.11	1772.52
635.30	1817.78
635.50	1922.22
635.69	1815.93
635.89	2212.42
636.09	2092.61
636.28	1871.64
636.48	1888.64
636.67	2064.97
636.87	2044.08
637.07	2015.20
637.26	1876.76
637.46	2020.12
637.65	2107.56
637.85	2001.68
638.04	1933.28
638.24	1961.75
638.44	2052.47
638.63	1959.09
638.83	1902.56
639.02	1993.70
639.22	2017.04
639.42	1861.81
639.61	1924.07
639.81	1945.57
640.00	1906.66
640.20	1978.95
640.39	2007.42
640.59	2406.36
640.79	2374.62
640.98	2410.87
641.18	2428.48
641.37	2481.11
641.57	2275.50
641.76	2246.83
641.96	2023.39
642.15	2211.40
642.35	2078.48
642.55	2095.89
642.74	1912.39
642.94	2100.40
643.13	2167.16
643.33	1912.80
643.52	1865.29
643.72	1860.58
643.91	1923.45
644.11	1829.04
644.31	1805.08
644.50	1813.89
644.70	2053.09
644.89	1873.89
645.09	1930.82
645.28	1891.71
645.48	1966.66
645.67	1818.60
645.87	1743.44
646.06	1913.01
646.26	1984.28
646.45	1688.76
646.65	1686.50
646.84	2177.40
647.04	1887.00
647.24	1760.23
647.43	1888.64
647.63	1941.27
647.82	2104.70
648.02	1782.14
648.21	1810.61
648.41	2080.74
648.60	1868.98
648.80	1999.02
648.99	1920.79
649.19	1862.22
649.38	1722.14
649.58	1900.31
649.77	1915.26
649.97	2054.93
650.16	1966.25
650.36	1685.89
650.55	2011.92
650.75	1951.51
650.94	2095.28
651.14	1891.09
651.33	1914.24
651.53	2103.06
651.72	1809.18
651.92	1865.09
652.11	1686.91
652.31	1966.66
652.50	1962.77
652.70	1925.91
652.89	1808.15
653.09	2124.97
653.28	1917.31
653.48	1747.33
653.67	1755.31
653.87	2349.22
654.06	1930.82
654.25	2072.54
654.45	1828.43
654.64	1889.66
654.84	1892.73
655.03	1665.41
655.23	2003.94
655.42	1993.70
655.62	2117.19
655.81	1876.55
656.01	1792.59
656.20	2005.58
656.40	2108.18
656.59	1906.04
656.79	2019.30
656.98	1926.11
657.17	2006.19
657.37	1895.19
657.56	1827.20
657.76	1942.70
657.95	2033.02
658.15	1567.52
658.34	1849.32
658.54	1887.82
658.73	1759.21
658.92	1860.17
659.12	1934.92
659.31	2007.83
659.51	1841.12
659.70	2019.91
659.90	1944.14
660.09	2112.07
660.29	1993.08
660.48	1860.78
660.67	2082.99
660.87	1893.55
661.06	1999.02
661.26	1992.67
661.45	1976.90
661.65	1977.31
661.84	1860.58
662.03	1834.16
662.23	1843.17
662.42	2164.50
662.62	1791.77
662.81	1794.64
663.00	1830.68
663.20	1932.26
663.39	1931.85
663.59	1957.45
663.78	1827.61
663.97	1854.44
664.17	2008.85
664.36	1728.28
664.56	1780.09
664.75	1994.52
664.94	2013.15
665.14	1942.91
665.33	1937.79
665.53	1967.69
665.72	1966.05
665.91	2060.46
666.11	1975.68
666.30	1986.32
666.50	1915.67
666.69	1958.06
666.88	1893.35
667.08	1958.88
667.27	1919.77
667.47	1897.85
667.66	1873.28
667.85	2001.07
668.05	1941.47
668.24	1831.09
668.43	2016.43
668.63	1857.10
668.82	2069.06
669.02	1945.98
669.21	1908.50
669.40	1787.88
669.60	2169.00
669.79	1777.02
669.98	2354.96
670.18	1807.13
670.37	1786.24
670.56	1867.54
670.76	1924.27
670.95	1933.49
671.15	2060.05
671.34	1970.56
671.53	1932.87
671.73	1909.12
671.92	1837.85
672.11	1799.96
672.31	1877.37
672.50	1971.37
672.69	1791.36
672.89	1664.79
673.08	1857.30
673.27	2005.17
673.47	1929.60
673.66	1925.91
673.85	1798.53
674.05	2032.40
674.24	2308.68
674.43	2340.62
674.63	2715.40
674.82	3070.11
675.01	2567.74
675.21	2710.69
675.40	2477.84
675.59	2421.11
675.79	2652.94
675.98	2286.56
676.17	2405.75
676.37	2312.77
676.56	2134.19
676.75	2112.89
676.95	2064.56
677.14	1984.69
677.33	2113.91
677.52	1856.07
677.72	1868.77
677.91	1965.85
678.10	1759.82
678.30	1801.80
678.49	1776.82
678.68	2171.46
678.88	1712.10
679.07	1986.12
679.26	1841.74
679.45	2160.20
679.65	2068.45
679.84	1698.99
680.03	1744.66
680.23	1857.51
680.42	2222.66
680.61	1788.08
680.81	1832.73
681.00	1917.31
681.19	1962.57
681.38	1994.72
681.58	1961.75
681.77	1900.92
681.96	2013.56
682.15	1880.44
682.35	1956.83
682.54	2009.06
682.73	1794.84
682.93	1844.20
683.12	1801.19
683.31	2011.92
683.50	2250.10
683.70	1818.80
683.89	1904.61
684.08	1784.19
684.27	2033.63
684.47	1736.06
684.66	1907.89
684.85	2169.62
685.04	2088.31
685.24	1807.13
685.43	1891.50
685.62	1680.36
685.81	1972.40
686.01	2085.04
686.20	2114.73
686.39	2201.77
686.58	2682.63
686.78	2473.13
686.97	2428.89
687.16	2420.90
687.35	2328.75
687.55	2189.89
687.74	2233.11
687.93	2068.86
688.12	2153.64
688.32	2155.08
688.51	1957.04
688.70	2115.35
688.89	1899.29
689.08	1857.30
689.28	1875.94
689.47	1965.85
689.66	1942.50
689.85	2001.28
690.05	1875.12
690.24	1835.39
690.43	1928.98
690.62	1905.23
690.81	1846.86
691.01	1914.65
691.20	1852.80
691.39	1793.00
691.58	1949.67
691.77	2146.27
691.97	1905.84
692.16	1932.26
692.35	1893.96
692.54	1849.93
692.73	2059.64
692.93	2060.05
693.12	2117.60
693.31	2174.53
693.50	2142.18
693.69	2149.14
693.89	2004.55
694.08	2211.40
694.27	2238.63
694.46	1945.98
694.65	2011.51
694.85	2100.81
695.04	2102.44
695.23	2028.51
695.42	2490.13
695.61	2842.38
695.80	3096.12
696.00	3323.44
696.19	3420.31
696.38	3009.69
696.57	2853.84
696.76	2794.25
696.95	2612.59
697.15	2705.37
697.34	2624.88
697.53	2341.85
697.72	2295.36
697.91	2172.08
698.10	2320.76
698.30	2044.69
698.49	1992.47
698.68	2032.20
698.87	1937.17
699.06	1823.51
699.25	1908.71
699.45	2074.80
699.64	1945.37
699.83	2006.60
700.02	1813.27
700.21	1944.96
700.40	1853.41
700.59	1862.01
700.79	1861.19
700.98	1973.01
701.17	1853.41
701.36	1820.23
701.55	1818.80
701.74	2153.64
701.93	2092.20
702.12	2382.81
702.32	2461.86
702.51	2756.98
702.70	2766.60
702.89	2553.00
703.08	2329.77
703.27	2514.91
703.46	2401.86
703.65	2226.35
703.85	2080.12
704.04	2111.25
704.23	2275.29
704.42	1979.16
704.61	1996.16
704.80	2206.07
704.99	1874.92
705.18	1987.35
705.37	1942.50
705.57	2325.47
705.76	2862.24
705.95	2898.49
706.14	3409.05
706.33	3653.99
706.52	3785.06
706.71	3119.67
706.90	2804.28
707.09	2872.28
707.28	2696.15
707.47	2461.25
707.67	2534.77
707.86	2327.52
708.05	2464.12
708.24	2215.08
708.43	2163.68
708.62	2009.88
708.81	1923.86
709.00	1827.20
709.19	1837.85
709.38	2060.87
709.57	1832.52
709.76	1999.43
709.96	1935.54
710.15	2174.33
710.34	2036.70
710.53	2093.84
710.72	1958.47
710.91	2158.15
711.10	2075.82
711.29	2035.27
711.48	1911.78
711.67	1828.63
711.86	2038.55
712.05	1871.64
712.24	1895.80
712.43	2051.45
712.62	2146.89
712.81	1949.05
713.00	2075.62
713.19	1791.36
713.39	1980.39
713.58	1797.09
713.77	1931.85
713.96	2019.50
714.15	1957.86
714.34	1960.52
714.53	1845.42
714.72	2203.61
714.91	1922.43
715.10	2016.43
715.29	1904.00
715.48	2414.35
715.67	2099.17
715.86	2005.99
716.05	1953.97
716.24	1976.29
716.43	1908.09
716.62	1827.20
716.81	1818.19
717.00	1880.65
717.19	2169.62
717.38	1956.42
717.57	1907.27
717.76	1742.62
717.95	2030.97
718.14	1903.38
718.33	1843.58
718.52	1710.26
718.71	1743.44
718.90	1751.22
719.09	1847.68
719.28	1902.36
719.47	2054.32
719.66	2082.17
719.85	2109.82
720.04	2040.60
720.23	2108.79
720.42	1994.52
720.61	2089.75
720.80	1880.85
720.99	2052.68
721.18	1937.99
721.37	1898.88
721.56	1954.17
721.75	2080.12
721.94	1885.56
722.13	1915.47
722.32	1904.82
722.51	2030.56
722.70	1896.42
722.89	1933.28
723.08	1903.59
723.27	2021.14
723.46	1920.99
723.65	1856.07
723.84	1834.98
724.03	2082.17
724.22	1767.60
724.41	1913.42
724.60	1867.13
724.79	1993.08
724.98	1946.18
725.16	1840.30
725.35	1986.53
725.54	1800.57
725.73	1887.00
725.92	1942.29
726.11	1977.52
726.30	2186.41
726.49	2049.61
726.68	2200.95
726.87	2271.20
727.06	2387.32
727.25	2045.92
727.44	2167.77
727.63	2084.22
727.82	2050.02
728.01	2061.89
728.20	2109.41
728.38	2206.48
728.57	2000.66
728.76	1985.71
728.95	2044.69
729.14	1800.98
729.33	1813.07
729.52	1682.00
729.71	1806.51
729.90	1810.61
730.09	1899.08
730.28	1970.76
730.47	1949.46
730.66	2232.29
730.84	2129.07
731.03	2099.78
731.22	2099.99
731.41	2087.49
731.60	2092.20
731.79	1833.96
731.98	1873.28
732.17	2079.30
732.36	2029.13
732.55	1888.23
732.73	1813.89
732.92	2083.81
733.11	1993.08
733.30	1836.21
733.49	1769.45
733.68	1981.00
733.87	1985.51
734.06	1864.88
734.25	2001.07
734.43	2113.30
734.62	2330.38
734.81	2304.17
735.00	2311.13
735.19	2230.65
735.38	2239.04
735.57	2034.25
735.76	2191.53
735.94	2327.52
736.13	2848.31
736.32	2851.59
736.51	2911.19
736.70	3288.22
736.89	3312.38
737.08	3167.59
737.27	3438.54
737.45	4114.98
737.64	4203.66
737.83	4617.56
738.02	4659.54
738.21	4535.43
738.40	4061.53
738.59	3639.85
738.77	3518.82
738.96	3201.18
739.15	3097.76
739.34	3011.95
739.53	2804.49
739.72	2762.71
739.90	2629.59
740.09	2262.19
740.28	2270.99
740.47	2236.38
740.66	2177.20
740.85	1969.74
741.03	2029.95
741.22	1899.70
741.41	1949.46
741.60	1881.47
741.79	2041.62
741.98	2156.10
742.16	2257.07
742.35	2079.30
742.54	2074.39
742.73	2408.00
742.92	2162.65
743.10	2050.84
743.29	2142.38
743.48	2457.77
743.67	2033.02
743.86	1937.79
744.05	1932.87
744.23	1956.83
744.42	1931.44
744.61	1987.14
744.80	1829.86
744.99	1900.11
745.17	1723.16
745.36	1765.35
745.55	1951.92
745.74	1904.20
745.93	1820.44
746.11	1797.50
746.30	1795.04
746.49	2017.25
746.68	1803.03
746.86	1859.97
747.05	1859.15
747.24	1977.11
747.43	2048.99
747.62	1824.33
747.80	1894.58
747.99	2167.57
748.18	2098.14
748.37	2025.44
748.56	2029.74
748.74	2120.26
748.93	2023.39
749.12	2182.11
749.31	2737.72
749.49	3103.90
749.68	3431.37
749.87	3687.16
750.06	3759.05
750.24	3826.02
750.43	4134.64
750.62	4508.60
750.81	4751.08
750.99	5036.57
751.18	5013.43
751.37	4356.85
751.56	3951.97
751.74	4093.07
751.93	3957.90
752.12	3211.83
752.31	3038.57
752.49	2913.03
752.68	2957.06
752.87	2631.03
753.06	2435.03
753.24	2353.12
753.43	2365.81
753.62	2084.83
753.81	2007.21
753.99	2233.51
754.18	2074.80
754.37	1845.63
754.55	1961.95
754.74	2178.22
754.93	1732.58
755.12	1852.59
755.30	1810.40
755.49	2053.29
755.68	1940.04
755.86	1940.86
756.05	1807.54
756.24	2067.01
756.43	1761.05
756.61	1801.80
756.80	1942.09
756.99	2087.49
757.17	1901.95
757.36	1777.84
757.55	1899.49
757.74	1970.15
757.92	1920.79
758.11	1748.15
758.30	1723.78
758.48	1866.52
758.67	1764.73
758.86	1877.78
759.04	1766.78
759.23	1846.24
759.42	1911.37
759.60	1848.50
759.79	1904.41
759.98	1860.99
760.16	1816.34
760.35	1790.74
760.54	1760.84
760.73	1911.98
760.91	1758.80
761.10	1907.07
761.29	1949.87
761.47	1888.84
761.66	2173.92
761.85	1940.86
762.03	2068.04
762.22	2653.76
762.41	4565.13
762.59	6575.00
762.78	7689.10
762.97	9206.23
763.15	9728.47
763.34	8892.89
763.52	6948.55
763.71	6470.35
763.90	6181.79
764.08	5671.03
764.27	5375.71
764.46	5149.82
764.64	4554.07
764.83	4211.03
765.02	3913.26
765.20	3545.03
765.39	3182.75
765.58	2600.92
765.76	2438.11
765.95	2307.65
766.13	2149.34
766.32	2052.06
766.51	2014.38
766.69	2532.11
766.88	2036.70
767.07	1817.37
767.25	1742.62
767.44	2061.08
767.62	2102.85
767.81	1851.36
768.00	1941.47
768.18	1959.91
768.37	1850.13
768.56	1752.65
768.74	1847.27
768.93	1784.19
769.11	1960.32
769.30	1904.00
769.49	1850.13
769.67	1872.46
769.86	1870.21
770.04	1855.66
770.23	1887.82
770.42	2069.68
770.60	1925.09
770.79	1811.22
770.97	1878.60
771.16	2292.91
771.35	2748.58
771.53	3258.52
771.72	3546.67
771.90	3983.30
772.09	4313.02
772.27	3908.14
772.46	3241.93
772.65	3305.83
772.83	3093.25
773.02	3059.87
773.20	2764.35
773.39	2863.06
773.58	2741.21
773.76	2399.60
773.95	2380.15
774.13	2362.54
774.32	2167.57
774.50	2021.14
774.69	2053.91
774.87	1966.05
775.06	2225.73
775.25	1843.99
775.43	1886.38
775.62	1942.70
775.80	1974.24
775.99	1935.94
776.17	1823.51
776.36	1906.25
776.54	1998.41
776.73	1848.91
776.92	1910.55
777.10	2014.38
777.29	1924.07
777.47	1779.48
777.66	1821.87
777.84	1924.48
778.03	1888.84
778.21	1795.45
778.40	1884.54
778.58	1971.37
778.77	2020.12
778.95	1751.01
779.14	1808.36
779.32	2108.38
779.51	2019.91
779.70	1859.76
779.88	1761.25
780.07	1858.74
780.25	2230.44
780.44	1849.73
780.62	1984.69
780.81	1985.51
780.99	1957.65
781.18	1822.90
781.36	1832.93
781.55	1865.09
781.73	2085.45
781.92	1759.61
782.10	1757.57
782.29	1946.18
782.47	2070.91
782.66	1914.24
782.84	1755.31
783.03	1813.89
783.21	2044.49
783.40	1861.40
783.58	1815.93
783.77	1828.22
783.95	1890.07
784.14	1765.76
784.32	1892.53
784.51	2060.87
784.69	1839.49
784.88	1780.09
785.06	1916.90
785.24	1810.61
785.43	2065.58
785.61	1981.82
785.80	1810.81
785.98	2018.48
786.17	1917.92
786.35	1817.78
786.54	1967.07
786.72	2033.84
786.91	2046.74
787.09	1888.64
787.28	1738.32
787.46	1908.50
787.65	2013.97
787.83	1772.11
788.01	1899.08
788.20	1820.03
788.38	1958.88
788.57	1890.89
788.75	1926.32
788.94	2214.26
789.12	2120.26
789.31	1956.01
789.49	1981.61
789.67	1873.07
789.86	2005.99
790.04	1842.56
790.23	1767.19
790.41	2241.71
790.60	1914.44
790.78	1921.20
790.96	1907.07
791.15	2029.33
791.33	1922.22
791.52	1898.67
791.70	1800.98
791.89	1928.37
792.07	2020.53
792.25	1872.87
792.44	1760.23
792.62	2038.96
792.81	1862.01
792.99	1891.71
793.17	1823.10
793.36	1866.93
793.54	2266.69
793.73	2489.72
793.91	2820.26
794.10	3289.65
794.28	3600.53
794.46	3556.50
794.65	3464.14
794.83	2967.30
795.01	2932.49
795.20	2976.31
795.38	2749.81
795.57	2753.90
795.75	2674.85
795.93	2467.39
796.12	2447.53
796.30	2439.34
796.49	2355.37
796.67	2097.12
796.85	2224.50
797.04	2101.83
797.22	2108.38
797.40	1845.02
797.59	1969.53
797.77	1937.38
797.96	1860.17
798.14	1845.22
798.32	1825.97
798.51	1993.70
798.69	2147.50
798.87	1903.59
799.06	1847.68
799.24	1767.60
799.42	2162.66
799.61	2315.02
799.79	2514.29
799.98	2954.19
800.16	2909.96
800.34	3415.40
800.53	4021.19
800.71	4271.65
800.89	4888.91
801.08	4958.34
801.26	4957.52
801.44	4310.56
801.63	3732.22
801.81	3661.15
801.99	3445.71
802.18	3343.10
802.36	3241.93
802.54	3086.08
802.73	2731.99
802.91	2724.00
803.09	2591.70
803.28	2538.25
803.46	2385.27
803.64	2445.68
803.83	2027.49
804.01	1987.76
804.19	1888.02
804.38	2129.07
804.56	2074.18
804.74	1942.50
804.92	1985.30
805.11	1836.82
805.29	2093.43
805.47	1874.71
805.66	1786.85
805.84	1817.78
806.02	2058.82
806.21	1878.19
806.39	2041.42
806.57	2036.91
806.76	2030.97
806.94	1942.29
807.12	1867.13
807.30	1879.22
807.49	2015.61
807.67	1997.38
807.85	2067.63
808.04	2096.71
808.22	2269.15
808.40	1812.04
808.58	1801.80
808.77	2007.01
808.95	2171.05
809.13	2169.62
809.31	3197.49
809.50	4093.07
809.68	4625.13
809.86	4916.97
810.05	5257.95
810.23	5825.04
810.41	7157.04
810.59	10952.13
810.78	13282.72
810.96	15239.35
811.14	16503.76
811.32	16024.74
811.51	13239.50
811.69	10812.05
811.87	10741.19
812.05	9438.27
812.24	8914.60
812.42	8355.71
812.60	7571.34
812.78	6501.48
812.97	5723.87
813.15	5440.43
813.33	4701.73
813.51	4221.89
813.70	3491.79
813.88	3043.08
814.06	2741.82
814.24	2485.62
814.42	2126.61
814.61	2186.62
814.79	2301.92
814.97	1851.36
815.15	1913.83
815.34	1987.35
815.52	2085.86
815.70	1807.95
815.88	1869.18
816.06	1826.58
816.25	1864.68
816.43	1796.48
816.61	1977.72
816.79	2130.30
816.98	1790.74
817.16	1881.88
817.34	1822.08
817.52	2003.73
817.70	2177.81
817.89	1886.18
818.07	1813.68
818.25	1919.56
818.43	1953.35
818.61	1888.64
818.80	1810.40
818.98	2141.36
819.16	1938.81
819.34	1796.07
819.52	2094.66
819.70	1799.75
819.89	1924.07
820.07	1752.45
820.25	1730.74
820.43	1910.35
820.61	2007.62
820.80	1863.04
820.98	1789.31
821.16	1728.08
821.34	1740.77
821.52	1851.98
821.70	1885.56
821.89	1880.65
822.07	1846.24
822.25	1825.15
822.43	1766.17
822.61	2084.63
822.79	1943.93
822.98	1828.22
823.16	1689.78
823.34	1931.03
823.52	2018.27
823.70	1949.26
823.88	1729.30
824.06	1950.08
824.25	1892.32
824.43	1986.73
824.61	1796.07
824.79	1958.47
824.97	1993.49
825.15	2099.99
825.33	2344.72
825.52	2630.82
825.70	2739.36
825.88	2819.64
826.06	3013.79
826.24	3038.78
826.42	2974.06
826.60	2619.56
826.78	2644.75
826.97	2453.47
827.15	2601.53
827.33	2265.26
827.51	2368.48
827.69	2189.48
827.87	2237.61
828.05	2213.24
828.23	2033.84
828.41	2199.31
828.60	2130.30
828.78	1828.22
828.96	1995.13
829.14	1875.12
829.32	1915.67
829.50	1865.09
829.68	1833.14
829.86	1871.02
830.04	1974.86
830.22	1911.16
830.41	1769.04
830.59	1856.69
830.77	1954.17
830.95	1818.39
831.13	1804.26
831.31	1812.04
831.49	1998.00
831.67	1987.96
831.85	1958.47
832.03	1851.16
832.21	1978.75
832.39	1731.76
832.57	1760.84
832.76	2020.94
832.94	1913.01
833.12	1710.67
833.30	1836.00
833.48	2057.80
833.66	1960.73
833.84	1807.54
834.02	1883.93
834.20	1999.23
834.38	1991.85
834.56	1695.51
834.74	1788.08
834.92	1741.59
835.10	2121.29
835.28	1893.14
835.46	1846.04
835.64	1865.70
835.82	1814.09
836.01	2101.42
836.19	1997.79
836.37	1833.34
836.55	1768.63
836.73	1763.51
836.91	1747.74
837.09	1974.04
837.27	2077.05
837.45	1725.62
837.63	1787.67
837.81	1750.19
837.99	1925.50
838.17	1888.84
838.35	1843.38
838.53	2274.06
838.71	2069.06
838.89	1925.09
839.07	1944.14
839.25	2007.42
839.43	2100.60
839.61	2066.81
839.79	2816.16
839.97	3418.26
840.15	3771.33
840.33	3992.11
840.51	4372.82
840.69	4143.04
840.87	3595.62
841.05	3419.29
841.23	3480.32
841.41	4137.92
841.59	5473.20
841.77	5983.14
841.95	6393.14
842.13	6908.41
842.31	6536.50
842.49	5476.88
842.67	4869.25
842.85	4806.99
843.03	4236.63
843.21	4121.74
843.39	3975.93
843.57	3726.48
843.75	3445.09
843.93	3119.67
844.11	2867.57
844.29	2802.03
844.47	2581.67
844.65	2652.53
844.83	2302.74
845.01	2265.05
845.19	2257.27
845.36	2081.56
845.54	2080.33
845.72	1974.86
845.90	2032.61
846.08	1788.90
846.26	1871.23
846.44	1987.35
846.62	1962.16
846.80	1906.25
846.98	1801.19
847.16	1866.31
847.34	1949.87
847.52	1782.35
847.70	1771.29
847.88	1846.04
848.06	2061.89
848.24	1929.19
848.41	1713.95
848.59	2046.74
848.77	1922.02
848.95	1811.63
849.13	1797.09
849.31	2002.50
849.49	1922.22
849.67	1773.13
849.85	1758.18
850.03	1932.46
850.21	1907.89
850.39	1829.86
850.57	1925.09
850.74	2092.41
850.92	2104.70
851.10	2120.26
851.28	2310.93
851.46	2528.63
851.64	2886.41
851.82	2643.31
852.00	2679.97
852.18	2717.04
852.36	2499.96
852.53	2310.11
852.71	2342.47
852.89	2341.44
853.07	2285.53
853.25	2104.08
853.43	2005.99
853.61	2140.74
853.79	2113.50
853.97	1939.22
854.14	1902.97
854.32	2174.12
854.50	2061.28
854.68	1864.27
854.86	1845.83
855.04	1828.02
855.22	2004.35
855.40	1761.25
855.57	1795.86
855.75	2010.29
855.93	1958.27
856.11	1711.69
856.29	1781.32
856.47	1839.49
856.65	1944.14
856.82	1797.50
857.00	1730.12
857.18	1885.16
857.36	1828.43
857.54	1874.30
857.72	1957.45
857.89	1943.32
858.07	1906.66
858.25	1973.83
858.43	1747.33
858.61	1865.90
858.79	1863.45
858.97	1809.38
859.14	1885.77
859.32	1856.07
859.50	1860.99
859.68	1945.78
859.86	1836.21
860.03	1928.57
860.21	2005.99
860.39	1825.15
860.57	1942.70
860.75	1973.83
860.93	2158.97
861.10	2010.29
861.28	1850.13
861.46	1971.99
861.64	1999.02
861.82	1868.16
861.99	1945.37
862.17	2017.45
862.35	2023.19
862.53	1873.48
862.71	1882.70
862.88	1943.32
863.06	1992.06
863.24	1836.21
863.42	1799.14
863.60	1871.02
863.77	1933.90
863.95	1650.66
864.13	1869.59
864.31	1855.87
864.49	1956.22
864.66	1723.37
864.84	1803.44
865.02	1913.42
865.20	2242.12
865.37	1875.53
865.55	1822.49
865.73	1757.77
865.91	2049.20
866.09	1996.97
866.26	1998.20
866.44	2090.36
866.62	2007.42
866.80	1883.52
866.97	1952.74
867.15	1934.31
867.33	1976.29
867.51	2023.60
867.68	1913.83
867.86	1893.35
868.04	1861.60
868.22	1712.31
868.39	1839.49
868.57	1962.77
868.75	2094.87
868.93	1735.86
869.10	1822.08
869.28	2119.03
869.46	2054.73
869.64	1880.65
869.81	1829.04
869.99	1914.24
870.17	1918.54
870.35	1746.71
870.52	1757.16
870.70	1991.04
870.88	1845.02
871.05	1735.24
871.23	1651.07
871.41	1884.54
871.59	1877.17
871.76	1828.43
871.94	1786.85
872.12	1861.81
872.29	1716.81
872.47	1813.07
872.65	1765.14
872.83	1904.20
873.00	2056.16
873.18	1813.07
873.36	1819.42
873.53	1972.60
873.71	1740.57
873.89	1767.40
874.06	1860.78
874.24	1944.55
874.42	2066.61
874.60	1966.25
874.77	1879.63
874.95	1800.98
875.13	2010.49
875.30	1793.61
875.48	1834.57
875.66	2078.89
875.83	1825.15
876.01	1847.47
876.19	1976.49
876.36	1743.85
876.54	1898.88
876.72	1749.99
876.89	1917.92
877.07	1984.89
877.25	1715.38
877.42	1896.01
877.60	1834.57
877.78	2097.32
877.95	1817.78
878.13	1774.97
878.31	1927.14
878.48	1977.93
878.66	1953.56
878.84	1818.80
879.01	1860.37
879.19	1938.81
879.37	1968.10
879.54	1811.22
879.72	1742.62
879.90	1684.66
880.07	1974.04
880.25	1613.80
880.42	1961.54
880.60	1924.07
880.78	1977.72
880.95	1809.59
881.13	1850.75
881.31	1876.76
881.48	1823.72
881.66	1786.85
881.83	1876.35
882.01	1801.80
882.19	1732.58
882.36	1873.89
882.54	1839.69
882.72	1969.53
882.89	1900.52
883.07	1751.42
883.24	1816.55
883.42	1992.06
883.60	1895.19
883.77	1750.60
883.95	1803.85
884.12	2030.97
884.30	1967.28
884.48	2021.55
884.65	1934.92
884.83	1987.96
885.00	1987.55
885.18	1765.76
885.36	1852.80
885.53	2011.11
885.71	2074.18
885.88	1748.15
886.06	1813.68
886.23	1964.00
886.41	1862.83
886.59	1791.15
886.76	1815.11
886.94	1949.26
887.11	2242.53
887.29	1817.98
887.47	1721.32
887.64	2038.55
887.82	2070.29
887.99	1679.74
888.17	1841.33
888.34	1840.92
888.52	1746.51
888.69	1875.32
888.87	1747.12
889.05	1828.63
889.22	1855.05
889.40	1799.35
889.57	1976.49
889.75	2091.39
889.92	1822.28
890.10	1735.65
890.27	1840.51
890.45	1802.42
890.62	1671.55
890.80	1740.57
890.98	1699.61
891.15	2060.67
891.33	1972.60
891.50	1777.43
891.68	1716.81
891.85	1954.79
892.03	1937.79
892.20	1796.27
892.38	1749.58
892.55	1970.35
892.73	1969.74
892.90	1750.40
893.08	1788.49
893.25	1769.04
893.43	1812.66
893.60	1927.96
893.78	1642.47
893.95	1954.58
894.13	1851.77
894.30	1746.51
894.48	1822.90
894.65	1985.10
894.83	1893.76
895.00	1678.11
895.18	1657.83
895.35	2000.05
895.53	1954.58
895.70	1741.80
895.88	1936.35
896.05	1966.87
896.23	1757.77
896.40	1815.32
896.58	1863.86
896.75	1985.71
896.93	2057.80
897.10	1780.50
897.28	1698.38
897.45	1901.33
897.63	1965.23
897.80	1938.20
897.98	1802.21
898.15	1893.14
898.33	1769.04
898.50	1880.44
898.67	1831.91
898.85	1837.85
899.02	1958.27
899.20	1966.87
899.37	1820.23
899.55	1918.95
899.72	2043.67
899.90	1766.78
900.07	1778.87
900.25	1935.13
900.42	2036.91
900.59	1805.69
900.77	1916.49
900.94	1962.98
901.12	1918.54
901.29	1788.29
901.47	1929.80
901.64	1950.49
901.82	1862.83
901.99	1603.76
902.16	1768.63
902.34	1996.77
902.51	1916.28
902.69	1817.78
902.86	1837.85
903.03	2349.63
903.21	1892.12
903.38	1844.81
903.56	1796.68
903.73	2000.05
903.91	1832.32
904.08	1745.89
904.25	1666.84
904.43	1779.28
904.60	1966.25
904.78	1787.88
904.95	1742.21
905.12	1837.64
905.30	2087.90
905.47	1925.09
905.65	1970.76
905.82	1931.64
905.99	1984.69
906.17	1878.19
906.34	1826.38
906.52	1830.06
906.69	2020.94
906.86	2008.85
907.04	1933.69
907.21	2071.52
907.38	2051.66
907.56	1821.87
907.73	1805.49
907.91	2082.78
908.08	2062.92
908.25	1770.67
908.43	1771.70
908.60	1945.37
908.77	1889.66
908.95	1794.02
909.12	1762.89
909.30	1986.73
909.47	1722.96
909.64	1833.14
909.82	1970.97
909.99	1848.29
910.16	1900.11
910.34	1788.49
910.51	1823.10
910.68	1907.68
910.86	1859.35
911.03	1740.77
911.20	1915.67
911.38	2476.20
911.55	3237.84
911.72	3510.42
911.90	3586.61
912.07	3896.47
912.24	3978.79
912.42	3223.91
912.59	2673.62
912.76	2786.26
912.94	2497.50
913.11	2320.14
913.28	2170.85
913.46	2082.99
913.63	2233.31
913.80	2367.86
913.98	2026.67
914.15	2209.35
914.32	2229.01
914.49	2054.32
914.67	1919.77
914.84	2052.06
915.01	2110.02
915.19	2014.59
915.36	1901.74
915.53	2112.27
915.71	2010.70
915.88	1927.55
916.05	1803.65
916.22	2043.26
916.40	1932.67
916.57	1764.73
916.74	1872.66
916.92	2059.85
917.09	1794.02
917.26	1765.76
917.43	1747.74
917.61	1841.94
917.78	1708.83
917.95	1675.24
918.13	1759.21
918.30	2156.10
918.47	1906.45
918.64	1765.14
918.82	1771.70
918.99	1909.73
919.16	2153.03
919.33	1910.55
919.51	1847.68
919.68	1957.86
919.85	2099.78
920.02	1733.61
920.20	1821.26
920.37	2110.64
920.54	2010.90
920.71	1779.68
920.89	1835.18
921.06	2121.49
921.23	1846.24
921.40	1790.95
921.58	2021.75
921.75	2539.69
921.92	2160.61
922.09	2232.49
922.27	2207.92
922.44	2212.63
922.61	2189.07
922.78	1976.90
922.96	1935.13
923.13	1942.70
923.30	2068.65
923.47	1767.19
923.64	1842.76
923.82	1968.30
923.99	1978.75
924.16	1930.62
924.33	1756.34
924.50	1902.15
924.68	2104.29
924.85	1755.72
925.02	1828.02
925.19	2001.89
925.36	1930.62
925.54	1886.59
925.71	1868.16
925.88	2284.92
926.05	1850.54
926.22	1762.07
926.40	1849.73
926.57	1922.22
926.74	1977.72
926.91	1771.49
927.08	1969.12
927.26	2019.09
927.43	1898.88
927.60	1757.16
927.77	1838.26
927.94	2088.72
928.11	2043.05
928.29	1723.37
928.46	1851.36
928.63	1776.41
928.80	1867.54
928.97	1924.27
929.14	1757.77
929.32	2172.89
929.49	1883.72
929.66	1770.67
929.83	1695.92
930.00	1817.37
930.17	1911.37
930.35	1709.23
930.52	1760.84
930.69	2064.97
930.86	1747.33
931.03	1851.36
931.20	1633.05
931.37	2018.89
931.55	1854.64
931.72	1872.87
931.89	1706.16
932.06	1739.34
932.23	2091.59
932.40	1889.05
932.57	1891.09
932.74	2055.14
932.92	2032.40
933.09	1950.49
933.26	1574.27
933.43	1855.05
933.60	1932.05
933.77	1845.83
933.94	1842.97
934.11	1879.63
934.29	1899.49
934.46	1741.39
934.63	1851.98
934.80	1742.82
934.97	1872.46
935.14	1822.49
935.31	1692.44
935.48	1763.10
935.65	1930.42
935.82	1878.81
936.00	1738.52
936.17	2064.76
936.34	1883.72
936.51	1892.53
936.68	1686.71
936.85	1926.52
937.02	1895.60
937.19	1894.99
937.36	1802.62
937.53	1940.25
937.70	1985.10
937.87	1860.58
938.05	1881.26
938.22	1904.82
938.39	1750.81
938.56	1820.85
938.73	1740.57
938.90	1855.25
939.07	1815.52
939.24	1842.97
939.41	1665.82
939.58	1920.38
939.75	1961.95
939.92	1774.97
940.09	1942.09
940.26	1842.15
940.43	2002.50
940.60	1776.82
940.77	1807.95
940.95	1922.63
941.12	1969.74
941.29	1804.06
941.46	1839.90
941.63	2032.20
941.80	2051.45
941.97	1689.98
942.14	1705.55
942.31	1944.34
942.48	1863.45
942.65	1884.34
942.82	1833.75
942.99	1930.82
943.16	1887.00
943.33	1741.39
943.50	1757.77
943.67	1980.18
943.84	2037.73
944.01	1778.05
944.18	1723.16
944.35	2054.32
944.52	1775.18
944.69	1853.21
944.86	1705.14
945.03	2004.55
945.20	2212.83
945.37	1669.71
945.54	1804.26
945.71	2061.49
945.88	2086.88
946.05	1762.48
946.22	1721.73
946.39	2057.18
946.56	1871.84
946.73	1719.88
946.90	1739.95
947.07	1826.38
947.24	1869.18
947.41	1659.88
947.58	1908.50
947.75	1953.15
947.92	1926.93
948.09	1606.43
948.26	1714.76
948.43	1902.15
948.60	2131.94
948.77	1742.21
948.94	1789.52
949.11	1992.67
949.27	1912.60
949.44	1786.24
949.61	1763.92
949.78	1907.89
949.95	1998.41
950.12	1731.35
950.29	1689.78
950.46	1836.62
950.63	2013.97
950.80	1758.18
950.97	1825.56
951.14	1974.24
951.31	1832.11
951.48	1755.11
951.65	1718.66
951.82	2118.83
951.99	1891.30
952.15	1658.24
952.32	1800.57
952.49	1797.30
952.66	1795.66
952.83	1743.64
953.00	1762.48
953.17	1852.59
953.34	1977.52
953.51	1830.88
953.68	1808.15
953.85	2003.53
954.02	2010.70
954.18	1790.95
954.35	1815.32
954.52	1774.77
954.69	1902.36
954.86	1652.92
955.03	1838.87
955.20	1941.68
955.37	1863.45
955.54	1775.18
955.71	1761.25
955.87	1941.06
956.04	2117.39
956.21	1779.68
956.38	1749.17
956.55	1883.93
956.72	2206.28
956.89	1831.50
957.06	1763.51
957.23	1812.86
957.39	2041.82
957.56	1764.33
957.73	1697.97
957.90	1620.15
958.07	2101.01
958.24	1827.81
958.41	1769.65
958.57	1985.92
958.74	1858.53
958.91	1720.70
959.08	1749.17
959.25	1971.78
959.42	1863.65
959.59	1840.92
959.75	1794.84
959.92	2032.40
960.09	1999.84
960.26	1749.78
960.43	1837.03
960.60	1905.23
960.76	1832.73
960.93	1665.61
961.10	1830.47
961.27	1991.85
961.44	1864.27
961.61	1714.35
961.77	1720.70
961.94	1896.21
962.11	1976.90
962.28	1790.95
962.45	1711.90
962.62	1865.90
962.78	2015.41
962.95	1725.41
963.12	1764.33
963.29	1940.45
963.46	2215.08
963.62	1847.88
963.79	1775.59
963.96	2188.25
964.13	1844.81
964.30	1856.28
964.46	1780.30
964.63	1789.11
964.80	2223.68
964.97	1655.58
965.14	1923.45
965.30	2009.88
965.47	2080.12
965.64	1999.43
965.81	1952.33
965.98	2171.67
966.14	1953.97
966.31	1836.21
966.48	1802.62
966.65	2080.74
966.81	1991.44
966.98	1833.96
967.15	1846.65
967.32	1913.21
967.49	1815.32
967.65	1687.94
967.82	1674.42
967.99	1896.21
968.16	1698.59
968.32	1926.52
968.49	1803.65
968.66	1865.09
968.83	2089.34
968.99	1831.50
969.16	1722.14
969.33	2045.10
969.50	1970.15
969.66	1876.14
969.83	1998.82
970.00	1950.90
970.17	1935.13
970.33	1799.96
970.50	1717.22
970.67	2100.19
970.84	2074.39
971.00	1719.88
971.17	1720.70
971.34	1970.76
971.50	1878.19
971.67	1911.78
971.84	1824.54
972.01	1742.00
972.17	1642.06
972.34	1730.12
972.51	1877.17
972.67	2020.94
972.84	1923.66
973.01	1723.37
973.18	1773.13
973.34	1974.45
973.51	1780.50
973.68	1803.85
973.84	1797.30
974.01	1829.04
974.18	2088.72
974.34	1866.31
974.51	1857.71
974.68	1810.61
974.85	2120.88
975.01	1892.94
975.18	1804.26
975.35	1860.99
975.51	1763.10
975.68	1685.07
975.85	1925.71
976.01	1802.83
976.18	2065.38
976.35	1785.83
976.51	1762.89
976.68	2081.97
976.85	2007.01
977.01	1808.77
977.18	1878.81
977.35	1974.04
977.51	1725.82
977.68	1651.07
977.85	1686.09
978.01	2006.19
978.18	1977.93
978.35	1827.40
978.51	1828.63
978.68	2020.94
978.85	2072.75
979.01	1786.03
979.18	1812.66
979.34	1865.09
979.51	1919.77
979.68	1742.82
979.84	1819.62
980.01	2210.78
980.18	1892.53
980.34	1778.87
980.51	1859.97
980.67	2000.05
980.84	1966.46
981.01	1793.00
981.17	1885.97
981.34	1700.43
981.51	1977.72
981.67	1741.59
981.84	1904.00
982.00	1934.10
982.17	1856.28
982.34	1660.08
982.50	1597.83
982.67	2098.35
982.83	1829.25
983.00	1702.07
983.17	1616.67
983.33	1992.47
983.50	1707.19
983.66	1683.23
983.83	1612.37
984.00	1832.11
984.16	1890.07
984.33	1630.18
984.49	1590.86
984.66	1776.00
984.83	1981.82
984.99	1637.56
985.16	1618.71
985.32	1981.00
985.49	2011.31
985.65	1726.64
985.82	1613.59
985.99	2032.20
986.15	1916.49
986.32	1704.73
986.48	1676.06
986.65	1819.01
986.81	1967.07
986.98	1614.62
987.14	1670.73
987.31	1880.44
987.48	1706.78
987.64	1543.14
987.81	1584.72
987.97	2187.85
988.14	1785.21
988.30	1646.36
988.47	1495.63
988.63	1923.86
988.80	1757.57
988.96	1702.48
989.13	1721.73
989.30	1839.08
989.46	1960.93
989.63	1592.50
989.79	1616.67
989.96	1866.31
990.12	2055.75
990.29	1648.00
990.45	1676.47
990.62	1871.43
990.78	2042.44
990.95	1739.34
991.11	1643.70
991.28	1813.07
991.44	1924.89
991.61	1562.40
991.77	1700.43
991.94	1886.79
992.10	2005.17
992.27	1721.93
992.43	1653.73
992.60	1945.57
992.76	1818.60
992.93	1813.07
993.09	1604.38
993.26	1985.30
993.42	2084.42
993.59	1656.81
993.75	1574.68
993.92	1778.66
994.08	1785.01
994.25	1716.81
994.41	1627.11
994.58	1969.33
994.74	2068.24
994.91	1640.01
995.07	1727.05
995.24	1843.79
995.40	1871.43
995.56	1761.87
995.73	1742.41
995.89	2077.25
996.06	1868.57
996.22	1635.10
996.39	1572.43
996.55	1851.16
996.72	1923.04
996.88	1570.59
997.05	1609.91
997.21	2125.79
997.37	1934.31
997.54	1701.66
997.70	1680.56
997.87	1905.84
998.03	1850.34
998.20	1553.79
998.36	1572.43
998.52	1961.34
998.69	1974.24
998.85	1548.06
999.02	1662.34
999.18	1978.95
999.35	1969.94
999.51	1691.01
999.67	1654.96
999.84	1751.63
1000.00	1982.02
1000.17	1735.24
1000.33	1616.05
1000.49	1791.56
1000.66	1851.36
1000.82	1634.48
1000.99	1708.42
1001.15	2034.25
1001.31	1832.32
1001.48	1680.56
1001.64	1723.37
1001.81	1821.46
1001.97	2132.14
1002.13	1661.11
1002.30	1661.11
1002.46	2034.45
1002.63	1859.97
1002.79	1735.86
1002.95	1638.78
1003.12	1996.36
1003.28	1937.99
1003.45	1625.68
1003.61	1610.73
1003.77	1920.38
1003.94	1716.40
1004.10	1685.89
1004.26	1719.68
1004.43	1932.87
1004.59	2070.50
1004.75	1629.36
1004.92	1633.46
1005.08	1798.94
1005.25	1924.68
1005.41	1642.88
1005.57	1732.17
1005.74	2030.77
1005.90	1825.97
1006.06	1743.64
1006.23	1670.94
1006.39	1969.53
1006.55	2241.71
1006.72	1819.83
1006.88	1620.76
1007.04	1785.21
1007.21	1854.23
1007.37	1676.67
1007.53	1653.73
1007.70	2074.59
1007.86	1993.29
1008.02	1711.28
1008.19	1620.56
1008.35	1903.38
1008.51	1743.44
1008.68	1657.01
1008.84	1586.77
1009.00	1776.61
1009.17	1996.56
1009.33	1767.19
1009.49	1724.80
1009.65	1763.92
1009.82	1942.29
1009.98	1727.46
1010.14	1572.43
1010.31	1976.49
1010.47	1937.79
1010.63	1698.59
1010.80	1705.55
1010.96	1969.33
1011.12	1853.62
1011.28	1658.04
1011.45	1635.30
1011.61	2240.07
1011.77	1766.37
1011.94	1619.12
1012.10	1599.67
1012.26	1745.89
1012.42	1814.50
1012.59	1709.64
1012.75	1693.67
1012.91	1848.70
1013.07	1975.06
1013.24	1593.93
1013.40	1635.92
1013.56	1887.61
1013.72	1842.35
1013.89	1725.62
1014.05	1722.55
1014.21	2103.26
1014.37	2181.70
1014.54	1693.26
1014.70	1626.50
1014.86	1823.51
1015.02	1722.14
1015.19	1655.37
1015.35	1611.96
1015.51	1857.51
1015.67	1809.38
1015.84	1652.51
1016.00	1652.71
1016.16	2006.80
1016.32	1960.32
1016.49	1619.94
1016.65	1615.23
1016.81	1862.01
1016.97	1936.56
1017.14	1768.83
1017.30	1659.88
1017.46	1826.17
1017.62	1920.38
1017.78	1721.52
1017.95	1615.23
1018.11	1966.25
1018.27	2192.56
1018.43	1772.52
1018.59	1713.33
1018.76	1970.15
1018.92	2204.64
1019.08	1627.73
1019.24	1644.72
1019.40	2066.81
1019.57	1909.73
1019.73	1756.34
1019.89	1658.04
1020.05	1919.15
1020.21	2133.78
1020.38	1623.22
1020.54	1787.06
1020.70	1963.39
1020.86	1951.71
1021.02	1661.31
1021.18	1653.53
1021.35	1797.30
1021.51	1938.40
1021.67	1812.25
1021.83	1668.28
1021.99	1870.82
1022.15	1915.06
1022.32	1728.69
1022.48	1705.96
1022.64	2060.46
1022.80	2061.49
1022.96	1701.45
1023.12	1604.17
1023.29	2004.76
1023.45	1923.45
1023.61	1633.46
1023.77	1819.21
1023.93	1896.01
1024.09	1814.50
1024.25	1627.52
1024.42	1594.14
1024.58	1827.40
1024.74	1890.28
1024.90	1671.55
1025.06	1709.64
1025.22	1812.86
1025.38	2077.46
1025.54	1611.34
1025.71	1748.35
1025.87	1961.95
1026.03	1947.21
1026.19	1637.97
1026.35	1789.31
1026.51	1946.80
1026.67	1874.10
1026.83	1701.86
1026.99	1744.87
1027.16	1943.73
1027.32	1828.43
1027.48	1701.66
1027.64	1637.76
1027.80	1945.98
1027.96	1880.44
1028.12	1659.06
1028.28	1622.40
1028.44	1929.60
1028.60	2063.12
1028.77	1760.23
1028.93	1686.50
1029.09	1826.99
1029.25	1749.78
1029.41	1697.77
1029.57	1757.36
1029.73	1924.68
1029.89	2059.64
1030.05	1759.61
1030.21	1723.57
1030.37	2149.75
1030.53	1948.64
1030.69	1709.85
1030.85	1596.80
1031.02	1759.00
1031.18	1858.12
1031.34	1679.54
1031.50	1734.83
1031.66	1813.48
1031.82	2100.19
1031.98	1724.80
1032.14	1642.06
1032.30	1777.43
1032.46	1963.18
1032.62	1770.67
1032.78	1600.28
1032.94	1800.16
1033.10	1847.68
1033.26	1725.00
1033.42	1731.15
1033.58	2148.52
1033.74	1821.67
1033.90	1636.53
1034.06	1824.74
1034.22	2115.14
1034.38	2018.48
1034.54	1670.73
1034.70	1701.66
1034.86	2132.96
>>>>>End Processed Spectral Data<<<<<
