SpectraSuite Data File
++++++++++++++++++++++++++++++++++++
Date: Thu Mar 30 16:01:01 PDT 2017
User: UCSD _CER
Dark Spectrum Present: No
Reference Spectrum Present: No
Number of Sampled Component Spectra: 1
Spectrometers: USB4C00073
Integration Time (usec): 250000 (USB4C00073)
Spectra Averaged: 10 (USB4C00073)
Boxcar Smoothing: 0 (USB4C00073)
Correct for Electrical Dark: No (USB4C00073)
Strobe/Lamp Enabled: No (USB4C00073)
Correct for Detector Non-linearity: No (USB4C00073)
Correct for Stray Light: No (USB4C00073)
Number of Pixels in Processed Spectrum: 3648
>>>>>Begin Processed Spectral Data<<<<<
345.37	1283.26
345.58	1283.26
345.80	1283.26
346.01	1263.60
346.22	1257.04
346.43	1988.37
346.65	1766.58
346.86	2141.97
347.07	2078.48
347.28	1807.13
347.50	1787.67
347.71	1918.33
347.92	1726.23
348.13	1797.71
348.35	1704.11
348.56	1924.89
348.77	1754.09
348.98	1822.69
349.20	1692.24
349.41	1921.61
349.62	1965.64
349.83	1852.80
350.05	1732.58
350.26	1960.32
350.47	2086.88
350.68	1764.12
350.90	1734.63
351.11	2123.54
351.32	2088.11
351.53	1829.86
351.75	1737.91
351.96	1960.32
352.17	1908.91
352.38	1884.54
352.60	1872.87
352.81	1946.18
353.02	2139.72
353.23	1792.59
353.44	1823.92
353.66	1894.58
353.87	1895.60
354.08	1899.29
354.29	1813.68
354.51	1860.78
354.72	1915.47
354.93	1769.04
355.14	1740.98
355.35	1721.93
355.57	2035.27
355.78	1809.59
355.99	1891.09
356.20	1951.10
356.42	1913.21
356.63	1910.14
356.84	1825.56
357.05	2024.42
357.26	2205.87
357.48	1929.39
357.69	1862.42
357.90	1989.60
358.11	1858.53
358.32	1823.51
358.54	1876.96
358.75	1874.71
358.96	2007.01
359.17	1794.43
359.38	1822.49
359.60	2010.70
359.81	1905.02
360.02	1825.56
360.23	1771.08
360.44	1830.06
360.66	2043.05
360.87	1772.52
361.08	1743.64
361.29	1944.96
361.50	1911.37
361.72	1805.90
361.93	1832.93
362.14	1959.29
362.35	1744.87
362.56	1875.32
362.77	1730.53
362.99	1977.93
363.20	1899.49
363.41	1869.80
363.62	1703.09
363.83	1985.10
364.05	2026.87
364.26	1701.45
364.47	1758.39
364.68	2065.17
364.89	1814.50
365.10	1729.51
365.32	1805.69
365.53	1792.79
365.74	1845.83
365.95	1797.50
366.16	1690.80
366.37	1927.75
366.59	1878.60
366.80	1795.04
367.01	1672.78
367.22	2169.00
367.43	2254.20
367.64	1796.27
367.86	1793.00
368.07	1974.45
368.28	2063.53
368.49	1730.74
368.70	1861.19
368.91	1869.80
369.12	1888.23
369.34	1740.36
369.55	1717.43
369.76	1937.79
369.97	1875.53
370.18	1734.22
370.39	1740.57
370.60	1738.93
370.82	1785.21
371.03	1791.56
371.24	1781.12
371.45	2018.48
371.66	1970.97
371.87	1823.72
372.08	1804.87
372.30	1782.14
372.51	2042.85
372.72	1929.80
372.93	1786.24
373.14	2116.37
373.35	1833.75
373.56	1762.48
373.78	1821.46
373.99	2020.73
374.20	2287.79
374.41	1804.26
374.62	1806.51
374.83	2113.50
375.04	1883.31
375.25	1824.33
375.47	1775.59
375.68	1864.88
375.89	2016.02
376.10	1794.64
376.31	1912.19
376.52	1991.04
376.73	1955.61
376.94	1807.74
377.15	1797.09
377.37	1921.20
377.58	1883.93
377.79	1708.83
378.00	1774.77
378.21	1949.87
378.42	1999.23
378.63	1841.53
378.84	1922.22
379.05	2052.06
379.27	1924.68
379.48	1934.31
379.69	1755.72
379.90	2083.40
380.11	1696.13
380.32	1845.22
380.53	1919.77
380.74	2126.82
380.95	1930.21
381.16	1822.90
381.37	1803.85
381.59	2081.56
381.80	2048.38
382.01	1783.78
382.22	1713.74
382.43	1968.51
382.64	1942.70
382.85	1784.60
383.06	1862.22
383.27	2031.79
383.48	1885.36
383.69	1866.72
383.91	1762.28
384.12	2033.63
384.33	2028.10
384.54	1884.34
384.75	1775.59
384.96	2385.88
385.17	2122.11
385.38	1845.63
385.59	1874.10
385.80	2055.75
386.01	2146.27
386.22	1935.33
386.43	1862.01
386.64	2255.84
386.86	1937.58
387.07	1984.89
387.28	1792.18
387.49	1917.10
387.70	2098.96
387.91	1917.10
388.12	1803.65
388.33	2002.30
388.54	1886.18
388.75	1816.75
388.96	1878.60
389.17	1855.05
389.38	1869.18
389.59	1869.18
389.80	1848.29
390.01	1912.19
390.22	1879.63
390.43	1936.76
390.64	1696.74
390.86	2001.07
391.07	2089.13
391.28	1835.59
391.49	1883.31
391.70	1780.30
391.91	1841.33
392.12	1825.15
392.33	1845.02
392.54	1959.91
392.75	1937.58
392.96	1934.72
393.17	1778.05
393.38	2227.99
393.59	2055.75
393.80	1765.55
394.01	1832.73
394.22	1936.76
394.43	2178.42
394.64	1782.76
394.85	1940.04
395.06	1943.52
395.27	1946.59
395.48	1819.62
395.69	1717.84
395.90	1891.91
396.11	1904.00
396.32	1793.00
396.53	1927.34
396.74	1883.52
396.95	2047.97
397.16	1779.07
397.37	1721.93
397.58	2033.02
397.79	1920.59
398.00	1873.69
398.21	1814.71
398.42	1923.66
398.63	2190.92
398.84	1807.95
399.05	1779.89
399.26	2101.42
399.47	1971.17
399.68	1645.13
399.89	1762.07
400.10	1792.79
400.31	1883.11
400.52	1869.80
400.73	1822.90
400.94	1795.45
401.15	1972.40
401.36	1834.16
401.57	1881.06
401.78	2099.37
401.99	2026.87
402.20	1729.51
402.41	1911.57
402.62	2121.08
402.83	1906.45
403.04	1809.59
403.25	1979.57
403.46	1995.34
403.67	2141.97
403.88	1862.42
404.09	1859.56
404.30	1900.92
404.51	1854.23
404.72	1760.23
404.93	1935.54
405.14	1838.67
405.35	1926.11
405.56	1843.17
405.77	1792.18
405.98	1944.55
406.19	1917.51
406.40	1763.92
406.61	1824.33
406.82	1876.96
407.03	2251.33
407.24	1795.45
407.45	1899.70
407.66	2022.78
407.87	2052.68
408.08	1889.05
408.29	1900.31
408.49	2012.74
408.70	1899.90
408.91	1810.61
409.12	1901.33
409.33	1828.02
409.54	2091.18
409.75	1790.95
409.96	1820.03
410.17	2048.79
410.38	1893.35
410.59	1806.72
410.80	1928.98
411.01	1906.25
411.22	1911.16
411.43	1857.30
411.64	1779.28
411.85	1839.08
412.06	1814.09
412.27	1673.80
412.47	1812.66
412.68	1912.60
412.89	1996.97
413.10	1804.06
413.31	1725.21
413.52	2174.12
413.73	2164.09
413.94	1795.86
414.15	1897.24
414.36	1853.82
414.57	1796.07
414.78	1747.12
414.99	1906.66
415.19	2195.83
415.40	2202.18
415.61	2247.85
415.82	2087.29
416.03	2197.06
416.24	2119.03
416.45	1931.44
416.66	1829.45
416.87	1773.54
417.08	2001.68
417.29	1791.36
417.50	1889.25
417.70	2017.04
417.91	2017.04
418.12	1914.85
418.33	1940.04
418.54	2081.56
418.75	2214.26
418.96	2176.38
419.17	2200.13
419.38	2567.74
419.59	2496.06
419.79	2357.01
420.00	2263.42
420.21	2573.48
420.42	2127.02
420.63	1947.82
420.84	1968.51
421.05	1940.86
421.26	1944.75
421.47	1759.00
421.67	2077.66
421.88	1843.38
422.09	1816.75
422.30	2012.54
422.51	1897.65
422.72	2198.49
422.93	2031.59
423.14	1871.64
423.35	1735.65
423.55	1727.67
423.76	1849.93
423.97	1860.99
424.18	1702.89
424.39	1930.62
424.60	2047.56
424.81	1868.36
425.02	1970.56
425.22	2049.20
425.43	2064.56
425.64	2208.32
425.85	2141.56
426.06	2434.83
426.27	2267.72
426.48	2154.05
426.68	2129.27
426.89	2252.15
427.10	2350.04
427.31	1976.29
427.52	1895.60
427.73	2105.93
427.94	2017.45
428.14	1961.54
428.35	1837.64
428.56	2131.73
428.77	2044.69
428.98	1889.05
429.19	1902.97
429.40	1960.11
429.60	1991.44
429.81	2030.77
430.02	1975.47
430.23	1984.07
430.44	2035.48
430.65	1829.86
430.85	1874.92
431.06	2025.44
431.27	1754.70
431.48	1832.32
431.69	1847.68
431.90	1948.23
432.10	1933.28
432.31	1963.80
432.52	1912.80
432.73	2398.99
432.94	2322.40
433.15	2161.43
433.35	2003.32
433.56	2245.60
433.77	2069.06
433.98	2321.99
434.19	2357.42
434.40	2558.12
434.60	2536.41
434.81	2427.66
435.02	2291.88
435.23	2175.35
435.44	2045.31
435.64	1865.09
435.85	1850.54
436.06	1928.16
436.27	1916.90
436.48	1814.50
436.68	1867.54
436.89	2258.30
437.10	2115.76
437.31	1996.16
437.52	2057.59
437.73	2098.14
437.93	2027.69
438.14	1952.94
438.35	1765.14
438.56	1889.46
438.77	1924.27
438.97	1954.17
439.18	1847.88
439.39	2172.69
439.60	1907.89
439.80	1891.09
440.01	1969.53
440.22	1943.11
440.43	2070.91
440.64	1787.26
440.84	1904.82
441.05	1830.68
441.26	2289.22
441.47	1904.61
441.68	1858.74
441.88	2132.35
442.09	2188.87
442.30	2386.91
442.51	2307.04
442.71	2255.84
442.92	2200.75
443.13	2008.03
443.34	1915.87
443.55	1890.48
443.75	2041.82
443.96	1789.11
444.17	1784.40
444.38	2055.75
444.58	1830.68
444.79	1887.20
445.00	1845.63
445.21	1900.11
445.41	1867.34
445.62	1643.70
445.83	1896.01
446.04	1951.30
446.24	1757.98
446.45	1655.58
446.66	1807.95
446.87	1992.47
447.07	1848.29
447.28	2028.10
447.49	1879.63
447.70	2067.01
447.90	2115.14
448.11	1864.27
448.32	1960.32
448.53	2114.12
448.73	2095.07
448.94	1832.93
449.15	1957.24
449.36	1941.47
449.56	1976.29
449.77	1812.04
449.98	1758.59
450.19	1894.78
450.39	1966.66
450.60	1953.97
450.81	1945.57
451.02	1985.71
451.22	2153.23
451.43	1836.00
451.64	1859.15
451.84	1893.35
452.05	2121.29
452.26	1882.70
452.47	1842.76
452.67	1860.99
452.88	2083.40
453.09	1812.86
453.30	1735.04
453.50	2070.29
453.71	2217.54
453.92	1957.24
454.12	2105.11
454.33	2006.19
454.54	2024.83
454.75	1868.98
454.95	1820.85
455.16	1980.59
455.37	2003.32
455.57	1896.21
455.78	1853.82
455.99	1899.29
456.19	1952.74
456.40	1780.71
456.61	1894.37
456.82	1937.38
457.02	2109.00
457.23	2013.15
457.44	2157.94
457.64	2014.18
457.85	2110.64
458.06	1968.51
458.26	1931.64
458.47	1998.82
458.68	2141.77
458.89	1849.52
459.09	2070.70
459.30	2252.56
459.51	1986.94
459.71	1767.40
459.92	1851.36
460.13	2111.66
460.33	2327.11
460.54	1945.57
460.75	1957.45
460.95	1919.15
461.16	2038.14
461.37	1881.88
461.57	1914.03
461.78	1977.11
461.99	1822.08
462.19	2051.25
462.40	1810.20
462.61	2221.64
462.81	2064.35
463.02	1795.25
463.23	1814.91
463.43	2049.20
463.64	1863.65
463.85	2714.58
464.05	1816.14
464.26	2343.49
464.47	2081.56
464.67	1987.14
464.88	1922.43
465.09	1930.21
465.29	2099.17
465.50	2129.07
465.71	2002.09
465.91	1989.81
466.12	1949.46
466.33	1916.49
466.53	1850.75
466.74	2110.23
466.94	1904.82
467.15	1845.63
467.36	2028.92
467.56	1820.23
467.77	1967.07
467.98	1877.37
468.18	1814.09
468.39	1878.19
468.60	2158.56
468.80	1876.76
469.01	1804.26
469.21	1973.42
469.42	2032.40
469.63	1840.30
469.83	1807.13
470.04	2037.73
470.25	2131.53
470.45	1874.71
470.66	1817.98
470.86	1986.53
471.07	1882.70
471.28	1911.98
471.48	1946.80
471.69	1949.05
471.90	2500.77
472.10	2001.68
472.31	2053.29
472.51	2084.01
472.72	2107.56
472.93	2000.46
473.13	2157.74
473.34	2185.39
473.54	2123.95
473.75	2018.89
473.96	2099.58
474.16	1968.30
474.37	2036.30
474.57	1926.73
474.78	1832.93
474.99	1997.79
475.19	1948.03
475.40	1827.40
475.60	1830.68
475.81	2281.44
476.02	2112.68
476.22	2097.32
476.43	2206.28
476.63	2040.80
476.84	2167.77
477.05	1759.61
477.25	1864.88
477.46	2347.79
477.66	1951.51
477.87	1792.18
478.08	1843.79
478.28	2055.96
478.49	1903.18
478.69	1783.58
478.90	1821.26
479.10	1996.36
479.31	2103.88
479.52	1881.06
479.72	2111.66
479.93	2325.47
480.13	2250.51
480.34	2244.98
480.54	2348.00
480.75	2103.47
480.96	2238.84
481.16	1935.54
481.37	2034.45
481.57	2105.31
481.78	2074.39
481.98	2092.41
482.19	1950.90
482.40	2182.11
482.60	1998.41
482.81	1909.32
483.01	1806.10
483.22	2042.03
483.42	2028.72
483.63	1945.57
483.83	1950.69
484.04	1939.84
484.24	2142.38
484.45	1992.26
484.66	1873.48
484.86	2065.79
485.07	1884.13
485.27	1909.73
485.48	1819.62
485.68	2123.54
485.89	1860.58
486.09	1940.25
486.30	1834.78
486.50	1968.51
486.71	1933.08
486.91	1930.62
487.12	2199.11
487.33	2642.49
487.53	2773.56
487.74	2576.55
487.94	2553.41
488.15	2366.43
488.35	2256.25
488.56	2061.89
488.76	1992.26
488.97	2057.80
489.17	2102.65
489.38	1970.56
489.58	1937.79
489.79	2071.73
489.99	2043.46
490.20	1915.87
490.40	1997.38
490.61	2004.76
490.81	1901.74
491.02	1900.31
491.22	1946.80
491.43	2004.55
491.63	1928.16
491.84	1993.70
492.04	1755.93
492.25	2011.31
492.45	1908.50
492.66	1901.95
492.86	1801.60
493.07	1960.73
493.27	2256.86
493.48	1782.14
493.68	1891.09
493.89	1922.84
494.09	2033.22
494.30	1830.47
494.50	2103.88
494.71	2014.59
494.91	1749.78
495.12	1847.27
495.32	1937.99
495.53	1966.05
495.73	1839.08
495.94	2017.45
496.14	1899.90
496.35	2356.19
496.55	2057.80
496.76	1939.84
496.96	1976.09
497.17	1973.63
497.37	2014.79
497.58	1840.30
497.78	1780.30
497.98	1926.73
498.19	1918.13
498.39	1885.36
498.60	1914.03
498.80	1743.85
499.01	2020.94
499.21	1791.97
499.42	1888.23
499.62	1889.66
499.83	2246.21
500.03	1769.45
500.24	2009.47
500.44	2189.89
500.64	2148.73
500.85	1962.77
501.05	2060.46
501.26	1826.79
501.46	2152.62
501.67	1864.47
501.87	1809.38
502.08	1838.67
502.28	1899.70
502.48	1945.37
502.69	1981.20
502.89	1739.54
503.10	1840.71
503.30	1909.94
503.51	1885.36
503.71	1788.08
503.92	1991.85
504.12	1915.26
504.32	1860.99
504.53	1999.43
504.73	2043.26
504.94	1988.58
505.14	2056.57
505.35	2057.80
505.55	2038.34
505.75	1990.42
505.96	2094.66
506.16	2264.85
506.37	1938.61
506.57	1834.78
506.78	1928.78
506.98	2127.23
507.18	1791.56
507.39	1819.83
507.59	1937.17
507.80	1865.90
508.00	1961.75
508.20	2027.90
508.41	1941.06
508.61	2115.96
508.82	2071.52
509.02	1971.99
509.22	1805.90
509.43	1829.25
509.63	1854.85
509.84	1882.90
510.04	1771.08
510.24	2140.74
510.45	2048.79
510.65	1771.29
510.86	1883.31
511.06	1827.20
511.26	2009.06
511.47	1948.44
511.67	1815.73
511.88	1976.90
512.08	2062.30
512.28	1759.61
512.49	1957.04
512.69	1936.35
512.90	1945.98
513.10	1825.56
513.30	1907.27
513.51	2012.33
513.71	2177.61
513.91	1996.97
514.12	1995.13
514.32	2100.60
514.53	1917.92
514.73	1987.35
514.93	1872.66
515.14	1946.59
515.34	2085.04
515.54	1883.31
515.75	1941.06
515.95	2035.27
516.15	2089.54
516.36	1943.32
516.56	1964.00
516.77	1707.60
516.97	1998.20
517.17	1860.78
517.38	1941.27
517.58	2142.18
517.78	1880.24
517.99	1928.37
518.19	1918.54
518.39	2127.84
518.60	1918.54
518.80	1830.88
519.00	1977.31
519.21	1917.10
519.41	2172.28
519.61	1832.52
519.82	1951.92
520.02	1951.10
520.22	1928.98
520.43	1882.49
520.63	1852.18
520.83	1838.05
521.04	1731.97
521.24	1938.40
521.44	1842.35
521.65	1834.78
521.85	2013.77
522.05	1800.78
522.26	1826.58
522.46	2169.82
522.66	2019.09
522.87	1826.79
523.07	1996.16
523.27	1869.18
523.48	2098.96
523.68	1870.21
523.88	1894.58
524.09	2077.46
524.29	1931.44
524.49	1718.25
524.70	1955.81
524.90	2068.86
525.10	1985.71
525.31	1746.92
525.51	1753.47
525.71	2035.27
525.91	1996.97
526.12	1824.33
526.32	1778.87
526.52	1866.52
526.73	1855.66
526.93	1923.86
527.13	1733.81
527.34	1901.95
527.54	1909.53
527.74	1828.84
527.94	1782.55
528.15	1793.41
528.35	1948.23
528.55	1945.98
528.76	1941.68
528.96	1722.55
529.16	2039.78
529.36	1981.82
529.57	1784.40
529.77	2055.96
529.97	1799.96
530.18	1948.85
530.38	1856.07
530.58	1976.90
530.78	1923.25
530.99	1845.83
531.19	1977.72
531.39	1828.43
531.60	1918.74
531.80	1839.49
532.00	2023.39
532.20	1945.78
532.41	1834.16
532.61	1837.23
532.81	1875.94
533.01	1863.04
533.22	1964.21
533.42	2018.27
533.62	1743.85
533.82	2109.61
534.03	1931.23
534.23	1959.50
534.43	1801.60
534.63	1870.61
534.84	1958.06
535.04	1927.55
535.24	1911.98
535.44	2274.68
535.65	1857.30
535.85	1876.76
536.05	1866.11
536.25	1947.00
536.46	1836.00
536.66	2058.00
536.86	1920.18
537.06	2012.54
537.27	2090.57
537.47	1994.11
537.67	1874.51
537.87	2114.53
538.08	1896.62
538.28	1808.15
538.48	1779.89
538.68	1900.92
538.88	2018.48
539.09	1752.65
539.29	1897.44
539.49	2005.78
539.69	1973.01
539.90	1962.16
540.10	1812.04
540.30	2106.54
540.50	1881.47
540.70	1773.34
540.91	1890.07
541.11	2030.36
541.31	2129.68
541.51	1944.55
541.72	1976.70
541.92	1955.61
542.12	1839.69
542.32	1874.71
542.52	1828.43
542.73	1836.00
542.93	1999.02
543.13	1881.06
543.33	1967.07
543.53	2032.61
543.74	2003.53
543.94	1856.48
544.14	1990.01
544.34	2066.81
544.54	1939.22
544.75	1977.11
544.95	2105.52
545.15	2042.85
545.35	2169.62
545.55	2002.09
545.75	1870.41
545.96	2229.62
546.16	1866.31
546.36	1919.36
546.56	1908.71
546.76	2068.86
546.97	2173.71
547.17	1913.21
547.37	1956.63
547.57	1855.66
547.77	2026.06
547.97	1927.34
548.18	1950.90
548.38	1955.61
548.58	2117.39
548.78	1807.33
548.98	1950.69
549.18	2059.03
549.39	2143.81
549.59	1974.86
549.79	1922.02
549.99	2134.19
550.19	2048.17
550.39	1995.34
550.60	1905.23
550.80	1985.10
551.00	2006.19
551.20	1876.96
551.40	1831.29
551.60	1982.23
551.80	1989.60
552.01	1997.59
552.21	1919.77
552.41	1967.69
552.61	2163.68
552.81	1972.40
553.01	1788.70
553.21	1997.59
553.42	1825.15
553.62	1816.34
553.82	1819.21
554.02	2136.44
554.22	2060.05
554.42	1817.37
554.62	1979.98
554.83	2161.02
555.03	2129.27
555.23	1936.35
555.43	2189.07
555.63	2033.22
555.83	2015.00
556.03	1956.83
556.23	1786.44
556.44	2002.91
556.64	2098.76
556.84	1684.25
557.04	1884.13
557.24	1996.36
557.44	1966.66
557.64	1932.67
557.84	1809.18
558.04	1876.35
558.25	2011.72
558.45	1843.38
558.65	1924.07
558.85	1925.71
559.05	1707.80
559.25	1884.95
559.45	1969.12
559.65	2239.25
559.85	2609.11
560.05	1965.23
560.26	1994.72
560.46	1990.22
560.66	1915.26
560.86	1895.60
561.06	1852.39
561.26	2125.18
561.46	2006.60
561.66	1878.40
561.86	1974.24
562.06	1839.08
562.26	1928.16
562.47	1922.43
562.67	1798.32
562.87	2017.45
563.07	1779.48
563.27	1909.73
563.47	1903.18
563.67	1889.05
563.87	2009.67
564.07	1839.69
564.27	1901.13
564.47	1936.97
564.67	2006.39
564.87	1863.04
565.08	1975.88
565.28	1874.92
565.48	2009.67
565.68	1943.32
565.88	1981.61
566.08	2163.27
566.28	1930.82
566.48	1775.38
566.68	1915.67
566.88	1913.21
567.08	2074.59
567.28	1879.63
567.48	1885.56
567.68	1968.92
567.88	1767.40
568.08	1940.04
568.28	2059.85
568.48	1925.50
568.68	2090.36
568.89	1903.18
569.09	1742.21
569.29	2027.28
569.49	2046.94
569.69	1812.66
569.89	1827.81
570.09	1700.63
570.29	1856.48
570.49	1775.38
570.69	1842.56
570.89	2046.54
571.09	2190.10
571.29	1790.95
571.49	2042.03
571.69	1957.45
571.89	1986.32
572.09	1860.99
572.29	1842.97
572.49	2030.97
572.69	2012.74
572.89	1901.54
573.09	1663.97
573.29	1957.86
573.49	1942.09
573.69	1919.56
573.89	2012.74
574.09	1874.92
574.29	2094.46
574.49	1878.81
574.69	1822.69
574.89	1811.84
575.09	1844.61
575.29	1831.09
575.49	1920.38
575.69	1982.02
575.89	1810.81
576.09	1931.44
576.29	1933.08
576.49	1819.62
576.69	1912.60
576.89	1842.15
577.09	1909.32
577.29	1782.76
577.49	2178.01
577.69	1854.03
577.89	1988.99
578.09	1942.91
578.29	1736.06
578.49	1935.13
578.69	1834.57
578.89	2066.20
579.09	1946.80
579.29	1819.21
579.49	1997.79
579.69	1896.42
579.89	2175.76
580.09	1722.75
580.29	1773.75
580.49	1869.59
580.69	1808.56
580.89	1872.25
581.09	1864.88
581.29	1880.65
581.49	1906.45
581.69	1796.68
581.89	1837.64
582.09	1826.17
582.28	1841.12
582.48	1998.00
582.68	2058.00
582.88	2100.19
583.08	1922.63
583.28	1905.23
583.48	1918.33
583.68	1863.04
583.88	1938.61
584.08	1933.49
584.28	1906.86
584.48	2195.83
584.68	2013.56
584.88	1882.70
585.08	2036.09
585.28	2046.33
585.48	2102.85
585.68	1968.30
585.87	2015.41
586.07	2005.37
586.27	1960.32
586.47	2017.04
586.67	1928.57
586.87	1952.12
587.07	1926.52
587.27	1798.32
587.47	1931.23
587.67	2164.91
587.87	2305.19
588.07	1995.34
588.27	1927.75
588.46	2082.17
588.66	2099.17
588.86	1969.33
589.06	2016.43
589.26	2086.68
589.46	2048.99
589.66	1857.10
589.86	1852.80
590.06	1930.21
590.26	1993.08
590.46	1888.23
590.66	2030.56
590.85	1909.32
591.05	2031.18
591.25	1860.37
591.45	1921.61
591.65	2025.85
591.85	1976.70
592.05	1908.71
592.25	2017.04
592.45	2081.56
592.64	1899.90
592.84	1944.75
593.04	1848.09
593.24	2277.75
593.44	1897.65
593.64	2002.91
593.84	2013.36
594.04	1905.23
594.24	2163.27
594.43	1830.68
594.63	1930.42
594.83	2039.57
595.03	2027.08
595.23	1835.80
595.43	1791.15
595.63	1859.97
595.83	2053.91
596.02	1712.31
596.22	1881.88
596.42	1966.66
596.62	1959.29
596.82	1847.06
597.02	1999.43
597.22	2084.63
597.41	1935.74
597.61	1843.38
597.81	2006.80
598.01	2040.60
598.21	1885.56
598.41	1871.43
598.61	1849.32
598.80	1949.05
599.00	1992.26
599.20	2040.39
599.40	1891.09
599.60	1909.73
599.80	2048.38
599.99	2081.76
600.19	1923.66
600.39	1966.87
600.59	2000.25
600.79	1968.10
600.99	1976.29
601.19	2153.64
601.38	2173.10
601.58	1948.23
601.78	1752.65
601.98	2029.13
602.18	2087.90
602.37	2248.26
602.57	2118.01
602.77	2218.56
602.97	2220.20
603.17	2259.73
603.37	2163.68
603.56	2238.63
603.76	2204.84
603.96	2112.48
604.16	2116.17
604.36	2211.60
604.56	2142.58
604.75	1894.37
604.95	1992.06
605.15	2161.02
605.35	2143.40
605.55	1936.15
605.74	1889.25
605.94	2107.56
606.14	1991.04
606.34	1961.34
606.54	1927.75
606.73	1896.21
606.93	2037.93
607.13	1858.12
607.33	1934.31
607.53	2120.06
607.72	2078.89
607.92	1995.75
608.12	2025.03
608.32	1884.95
608.51	2010.90
608.71	1848.29
608.91	1945.57
609.11	2015.82
609.31	1914.65
609.50	1950.69
609.70	2107.77
609.90	2050.02
610.10	2067.22
610.29	1929.60
610.49	1865.09
610.69	2019.30
610.89	1998.61
611.09	1977.11
611.28	2055.34
611.48	2093.02
611.68	1952.74
611.88	1880.65
612.07	1844.81
612.27	2014.59
612.47	1850.95
612.67	1942.50
612.86	2029.95
613.06	1934.31
613.26	1750.60
613.46	1880.44
613.65	1930.62
613.85	2312.16
614.05	2051.04
614.25	2000.25
614.44	1893.55
614.64	1925.71
614.84	1865.49
615.04	1828.22
615.23	1852.18
615.43	2007.01
615.63	2002.30
615.83	1823.72
616.02	1755.52
616.22	2025.03
616.42	1800.16
616.62	1820.44
616.81	1901.54
617.01	1984.89
617.21	1940.45
617.41	1819.62
617.60	1897.03
617.80	2010.08
618.00	2012.74
618.19	1958.68
618.39	1942.91
618.59	1982.43
618.79	1921.61
618.98	1725.00
619.18	1884.75
619.38	2184.98
619.57	1930.21
619.77	1908.91
619.97	1881.47
620.17	1846.86
620.36	1787.47
620.56	2018.07
620.76	1786.03
620.95	1812.66
621.15	1875.12
621.35	1816.34
621.54	1887.20
621.74	1928.16
621.94	1834.16
622.14	1780.09
622.33	1761.46
622.53	1873.69
622.73	1863.45
622.92	1732.38
623.12	1920.38
623.32	2183.13
623.51	2017.25
623.71	1769.45
623.91	2073.57
624.10	1816.55
624.30	1934.10
624.50	1809.38
624.69	1793.61
624.89	2398.58
625.09	1891.30
625.29	1725.00
625.48	1777.43
625.68	1943.93
625.88	2059.44
626.07	1950.28
626.27	1833.55
626.47	1850.13
626.66	1746.71
626.86	1899.29
627.06	1878.60
627.25	1916.28
627.45	2160.40
627.64	1907.89
627.84	2068.45
628.04	1839.49
628.23	2171.67
628.43	1786.24
628.63	1853.82
628.82	1882.70
629.02	2159.99
629.22	1992.67
629.41	2081.56
629.61	1934.72
629.81	2181.09
630.00	1884.75
630.20	1797.30
630.40	1950.69
630.59	2005.37
630.79	1902.97
630.98	1869.80
631.18	1918.33
631.38	1917.92
631.57	2020.12
631.77	1763.92
631.97	1946.39
632.16	1951.51
632.36	1945.57
632.56	1930.62
632.75	1945.98
632.95	2053.29
633.14	1775.59
633.34	2073.36
633.54	1697.77
633.73	1877.17
633.93	1859.15
634.12	1737.09
634.32	2275.09
634.52	1921.61
634.71	1783.17
634.91	1969.94
635.11	1806.31
635.30	1842.15
635.50	1928.57
635.69	1819.42
635.89	2168.39
636.09	2021.14
636.28	1790.54
636.48	1846.04
636.67	2014.38
636.87	1993.29
637.07	1963.39
637.26	1851.36
637.46	1957.65
637.65	2088.31
637.85	1958.88
638.04	1840.92
638.24	1887.82
638.44	2017.04
638.63	1928.78
638.83	1882.90
639.02	1959.70
639.22	2010.08
639.42	1897.44
639.61	1920.38
639.81	1930.82
640.00	1914.03
640.20	1994.52
640.39	1978.95
640.59	2194.40
640.79	2125.18
640.98	2057.39
641.18	2012.54
641.37	2041.21
641.57	1961.13
641.76	1992.26
641.96	1802.62
642.15	2010.90
642.35	1904.61
642.55	1984.69
642.74	1829.45
642.94	2041.01
643.13	2126.00
643.33	1907.89
643.52	1865.09
643.72	1886.59
643.91	1946.39
644.11	1878.19
644.31	1852.80
644.50	1873.69
644.70	2093.23
644.89	1907.68
645.09	1980.59
645.28	1958.88
645.48	2010.90
645.67	1842.76
645.87	1732.99
646.06	1884.34
646.26	1972.40
646.45	1708.83
646.65	1713.95
646.84	2169.82
647.04	1888.84
647.24	1774.16
647.43	1951.71
647.63	1951.51
647.82	2118.01
648.02	1815.11
648.21	1850.54
648.41	2111.87
648.60	1895.80
648.80	2015.20
648.99	1937.38
649.19	1886.18
649.38	1773.75
649.58	1933.69
649.77	1968.30
649.97	2080.53
650.16	2002.91
650.36	1709.64
650.55	2022.78
650.75	1982.43
650.94	2147.09
651.14	1910.75
651.33	1959.70
651.53	2160.20
651.72	1857.71
651.92	1918.95
652.11	1770.26
652.31	1989.81
652.50	1999.43
652.70	1953.56
652.89	1802.01
653.09	2127.23
653.28	1919.77
653.48	1729.10
653.67	1776.20
653.87	2350.86
654.06	1982.02
654.25	2077.05
654.45	1840.92
654.64	1892.73
654.84	1919.36
655.03	1700.02
655.23	2032.81
655.42	2025.44
655.62	2149.96
655.81	1949.05
656.01	1838.46
656.20	2044.69
656.40	2137.67
656.59	1946.39
656.79	2056.57
656.98	1963.59
657.17	2064.97
657.37	1952.94
657.56	1868.98
657.76	1987.14
657.95	2067.01
658.15	1628.95
658.34	1934.72
658.54	1917.51
658.73	1815.11
658.92	1874.10
659.12	1934.72
659.31	2012.74
659.51	1847.27
659.70	1987.14
659.90	1881.67
660.09	2050.63
660.29	1945.16
660.48	1836.00
660.67	2068.24
660.87	1877.99
661.06	1981.41
661.26	2030.56
661.45	1995.95
661.65	1990.63
661.84	1867.75
662.03	1852.39
662.23	1857.71
662.42	2186.62
662.62	1811.43
662.81	1816.55
663.00	1888.23
663.20	1987.96
663.39	2041.21
663.59	2060.67
663.78	1947.82
663.97	1963.39
664.17	2089.13
664.36	1794.23
664.56	1861.81
664.75	2064.15
664.94	2047.97
665.14	1961.95
665.33	1901.95
665.53	1942.29
665.72	1939.63
665.91	2076.64
666.11	1916.90
666.30	1946.80
666.50	1920.79
666.69	1994.72
666.88	1954.79
667.08	2033.43
667.27	1983.66
667.47	2048.79
667.66	1986.53
667.85	2151.60
668.05	2018.68
668.24	1902.36
668.43	2096.51
668.63	1923.04
668.82	2131.73
669.02	2025.24
669.21	1975.68
669.40	1807.54
669.60	2173.92
669.79	1789.11
669.98	2368.27
670.18	1829.66
670.37	1807.74
670.56	1848.91
670.76	1924.48
670.95	1914.44
671.15	2025.03
671.34	1959.91
671.53	1894.78
671.73	1839.08
671.92	1848.09
672.11	1798.53
672.31	1858.33
672.50	1953.56
672.69	1753.27
672.89	1666.84
673.08	1870.21
673.27	2018.07
673.47	1936.97
673.66	1952.53
673.85	1817.37
674.05	1979.77
674.24	2069.47
674.43	1994.93
674.63	2212.63
674.82	2489.92
675.01	1964.21
675.21	2236.18
675.40	2065.79
675.59	2060.67
675.79	2266.69
675.98	1985.92
676.17	2144.43
676.37	2051.45
676.56	1965.03
676.75	1950.28
676.95	1927.34
677.14	1891.50
677.33	2064.35
677.52	1828.43
677.72	1865.09
677.91	1956.63
678.10	1789.31
678.30	1787.26
678.49	1787.88
678.68	2184.77
678.88	1720.29
679.07	2034.45
679.26	1847.47
679.45	2146.48
679.65	2068.86
679.84	1719.68
680.03	1738.93
680.23	1880.24
680.42	2242.73
680.61	1779.68
680.81	1824.94
681.00	1934.51
681.19	1954.17
681.38	1982.23
681.58	1975.88
681.77	1840.30
681.96	2033.63
682.15	1857.51
682.35	1925.50
682.54	1952.53
682.73	1789.72
682.93	1818.80
683.12	1838.46
683.31	1985.30
683.50	2248.26
683.70	1827.61
683.89	1900.52
684.08	1798.12
684.27	2055.34
684.47	1744.66
684.66	1923.25
684.85	2181.91
685.04	2078.48
685.24	1858.74
685.43	1917.51
685.62	1730.33
685.81	1966.66
686.01	1973.42
686.20	1964.41
686.39	1923.25
686.58	2405.13
686.78	2180.06
686.97	2152.01
687.16	2181.70
687.35	2106.95
687.55	1983.66
687.74	2019.30
687.93	1906.66
688.12	1980.80
688.32	1970.35
688.51	1803.03
688.70	2024.83
688.89	1818.80
689.08	1770.26
689.28	1808.77
689.47	1937.38
689.66	1939.63
689.85	1984.28
690.05	1842.15
690.24	1834.16
690.43	1955.61
690.62	1900.72
690.81	1831.50
691.01	1887.61
691.20	1881.26
691.39	1806.51
691.58	1955.81
691.77	2113.71
691.97	1924.27
692.16	1946.18
692.35	1899.08
692.54	1848.50
692.73	2005.78
692.93	1948.23
693.12	1991.85
693.31	2028.10
693.50	2028.92
693.69	2046.13
693.89	1915.06
694.08	2127.84
694.27	2131.32
694.46	1851.98
694.65	1945.37
694.85	2028.10
695.04	2033.63
695.23	2097.73
695.42	3009.49
695.61	3846.70
695.80	4394.33
696.00	4922.91
696.19	5187.50
696.38	4594.82
696.57	3931.69
696.76	3826.83
696.95	3532.75
697.15	3540.73
697.34	3348.22
697.53	2941.91
697.72	2836.44
697.91	2631.64
698.10	2634.71
698.30	2243.34
698.49	2101.63
698.68	2089.95
698.87	1949.26
699.06	1836.82
699.25	1928.37
699.45	2074.18
699.64	1950.69
699.83	2021.75
700.02	1814.30
700.21	1978.13
700.40	1863.04
700.59	1865.49
700.79	1873.69
700.98	1996.56
701.17	1843.38
701.36	1831.70
701.55	1841.53
701.74	2065.17
701.93	1853.82
702.12	2011.51
702.32	1984.69
702.51	2227.37
702.70	2183.13
702.89	2075.82
703.08	1959.09
703.27	2158.35
703.46	2077.46
703.65	1954.17
703.85	1839.08
704.04	1889.46
704.23	2093.23
704.42	1833.96
704.61	1868.77
704.80	2146.68
704.99	1835.80
705.18	1957.45
705.37	1990.83
705.57	2684.27
705.76	3579.64
705.95	3833.18
706.14	4541.99
706.33	4849.59
706.52	4789.58
706.71	3816.80
706.90	3531.72
707.09	3476.63
707.28	3253.20
707.47	2980.00
707.67	2966.28
707.86	2668.50
708.05	2762.51
708.24	2446.91
708.43	2289.63
708.62	2119.65
708.81	1969.12
709.00	1866.31
709.19	1859.15
709.38	2065.58
709.57	1836.82
709.76	1963.59
709.96	1883.11
710.15	2115.96
710.34	1918.95
710.53	2017.86
710.72	1917.31
710.91	2093.43
711.10	2002.71
711.29	1996.16
711.48	1831.29
711.67	1800.16
711.86	2003.94
712.05	1773.34
712.24	1825.56
712.43	1990.22
712.62	2091.80
712.81	1919.56
713.00	2059.64
713.19	1793.82
713.39	1967.28
713.58	1862.42
713.77	2053.29
713.96	2194.19
714.15	2150.16
714.34	2136.24
714.53	1987.76
714.72	2328.95
714.91	1959.91
715.10	2056.16
715.29	1898.67
715.48	2397.15
715.67	2121.08
715.86	2008.44
716.05	1964.62
716.24	1943.93
716.43	1870.82
716.62	1788.70
716.81	1779.68
717.00	1867.34
717.19	2064.97
717.38	1918.33
717.57	1889.87
717.76	1755.52
717.95	2009.67
718.14	1940.86
718.33	1860.78
718.52	1710.87
718.71	1760.23
718.90	1770.06
719.09	1851.77
719.28	1918.74
719.47	2021.14
719.66	2014.18
719.85	1989.19
720.04	1918.13
720.23	1954.17
720.42	1855.46
720.61	1974.65
720.80	1773.34
720.99	1968.30
721.18	1884.34
721.37	1833.34
721.56	1874.92
721.75	2043.26
721.94	1799.35
722.13	1902.36
722.32	1887.00
722.51	2009.06
722.70	1904.41
722.89	1960.52
723.08	1926.32
723.27	2066.20
723.46	1929.19
723.65	1874.92
723.84	1870.41
724.03	2082.78
724.22	1772.52
724.41	1931.23
724.60	1880.85
724.79	2003.73
724.98	1941.68
725.16	1893.55
725.35	2000.66
725.54	1800.16
725.73	1915.47
725.92	1950.69
726.11	2041.01
726.30	2384.86
726.49	2314.61
726.68	2558.94
726.87	2657.65
727.06	2712.53
727.25	2335.91
727.44	2417.83
727.63	2319.94
727.82	2194.60
728.01	2226.55
728.20	2237.82
728.38	2337.14
728.57	2082.17
728.76	2055.75
728.95	2119.24
729.14	1849.52
729.33	1859.76
729.52	1746.30
729.71	1850.54
729.90	1824.33
730.09	1865.29
730.28	1893.96
730.47	1892.32
730.66	2096.30
730.84	2001.89
731.03	1943.52
731.22	2011.11
731.41	1967.48
731.60	2020.12
731.79	1773.95
731.98	1862.01
732.17	2007.62
732.36	2026.87
732.55	1871.43
732.73	1818.60
732.92	2089.34
733.11	2005.58
733.30	1873.07
733.49	1795.86
733.68	2034.66
733.87	1997.59
734.06	1852.39
734.25	1872.46
734.43	1914.44
734.62	2049.81
734.81	1989.81
735.00	1968.71
735.19	1996.16
735.38	2047.35
735.57	1836.00
735.76	1999.64
735.94	2083.40
736.13	2332.64
736.32	2223.68
736.51	2179.04
736.70	2475.38
736.89	2512.24
737.08	2654.78
737.27	3732.01
737.45	5297.07
737.64	5859.65
737.83	6748.67
738.02	7139.42
738.21	6738.84
738.40	5575.80
738.59	4981.07
738.77	4749.65
738.96	4378.15
739.15	4216.77
739.34	4004.60
739.53	3702.73
739.72	3560.60
739.90	3284.12
740.09	2746.94
740.28	2577.98
740.47	2449.78
740.66	2301.30
740.85	1975.27
741.03	2033.63
741.22	1911.37
741.41	1933.90
741.60	1824.94
741.79	1975.47
741.98	2115.55
742.16	2164.50
742.35	2000.66
742.54	1951.10
742.73	2234.74
742.92	1989.60
743.10	1852.80
743.29	1938.40
743.48	2341.24
743.67	1951.92
743.86	1825.15
744.05	1844.20
744.23	1886.38
744.42	1883.11
744.61	1910.35
744.80	1858.33
744.99	1893.96
745.17	1769.65
745.36	1796.89
745.55	2026.87
745.74	1971.58
745.93	1893.35
746.11	1883.31
746.30	1899.90
746.49	2112.68
746.68	1873.07
746.86	1954.79
747.05	1949.46
747.24	2037.11
747.43	2084.22
747.62	1858.94
747.80	1923.45
747.99	2118.62
748.18	2111.46
748.37	2053.91
748.56	2061.08
748.74	2167.16
748.93	2161.43
749.12	3041.85
749.31	5699.91
749.49	8005.31
749.68	9517.12
749.87	11027.29
750.06	11648.64
750.24	11050.02
750.43	10614.62
750.62	11562.01
750.81	11835.21
750.99	12334.92
751.18	12111.69
751.37	10197.04
751.56	8648.57
751.74	8444.59
751.93	7619.47
752.12	6330.89
752.31	5597.10
752.49	4915.53
752.68	4578.64
752.87	3892.57
753.06	3405.77
753.24	3061.10
753.43	2878.01
753.62	2396.33
753.81	2212.63
753.99	2353.73
754.18	2161.22
754.37	1941.06
754.55	1988.58
754.74	2214.06
754.93	1812.45
755.12	1918.74
755.30	1874.10
755.49	2088.11
755.68	1986.53
755.86	1975.27
756.05	1830.47
756.24	2150.57
756.43	1824.74
756.61	1861.19
756.80	1987.96
756.99	2087.08
757.17	1932.87
757.36	1862.01
757.55	1914.65
757.74	2021.96
757.92	1968.10
758.11	1809.59
758.30	1775.38
758.48	1936.76
758.67	1828.43
758.86	1993.49
759.04	1864.68
759.23	1957.45
759.42	2009.47
759.60	1910.35
759.79	1939.84
759.98	1958.88
760.16	1864.06
760.35	1878.19
760.54	1826.17
760.73	1976.49
760.91	1808.36
761.10	1977.11
761.29	1974.86
761.47	1940.66
761.66	2233.72
761.85	2010.49
762.03	2271.40
762.22	3738.36
762.41	8402.00
762.59	13896.49
762.78	16512.36
762.97	19857.72
763.15	21340.65
763.34	19372.97
763.52	14348.48
763.71	13196.70
763.90	12197.70
764.08	11385.48
764.27	10431.94
764.46	9717.00
764.64	8497.02
764.83	7554.55
765.02	6762.80
765.20	5848.79
765.39	4890.96
765.58	3768.47
765.76	3209.58
765.95	2745.10
766.13	2433.19
766.32	2188.05
766.51	2117.19
766.69	2616.28
766.88	2055.34
767.07	1887.00
767.25	1776.61
767.44	2096.10
767.62	2115.35
767.81	1894.78
768.00	1928.78
768.18	1942.91
768.37	1867.95
768.56	1781.94
768.74	1851.16
768.93	1774.56
769.11	2012.13
769.30	1911.37
769.49	1822.69
769.67	1921.81
769.86	1846.04
770.04	1868.16
770.23	1900.31
770.42	2095.28
770.60	1934.92
770.79	1827.81
770.97	1913.42
771.16	2632.25
771.35	3813.32
771.53	4892.60
771.72	5631.50
771.90	6465.23
772.09	6900.02
772.27	6168.28
772.46	4823.99
772.65	4847.95
772.83	4473.99
773.02	4310.36
773.20	3933.94
773.39	3864.72
773.58	3599.92
773.76	3130.53
773.95	3053.93
774.13	2909.14
774.32	2595.60
774.50	2305.81
774.69	2238.23
774.87	2087.70
775.06	2314.20
775.25	1917.72
775.43	1950.49
775.62	1997.59
775.80	2004.76
775.99	1969.12
776.17	1884.75
776.36	1947.82
776.54	2092.41
776.73	1894.37
776.92	1968.92
777.10	2053.09
777.29	1990.63
777.47	1834.16
777.66	1870.00
777.84	1925.09
778.03	1914.24
778.21	1807.74
778.40	1926.93
778.58	1954.17
778.77	2053.91
778.95	1772.11
779.14	1836.62
779.32	2129.07
779.51	2034.04
779.70	1867.75
779.88	1778.66
780.07	1859.15
780.25	2225.73
780.44	1840.30
780.62	2009.26
780.81	1995.13
780.99	1934.10
781.18	1809.99
781.36	1851.36
781.55	1909.53
781.73	2100.60
781.92	1777.84
782.10	1750.40
782.29	1954.38
782.47	2108.79
782.66	1919.56
782.84	1761.25
783.03	1838.46
783.21	2084.63
783.40	1862.01
783.58	1865.49
783.77	1845.42
783.95	1868.57
784.14	1805.08
784.32	1886.38
784.51	2064.56
784.69	1817.98
784.88	1743.64
785.06	1875.53
785.24	1764.33
785.43	2029.13
785.61	1974.04
785.80	1784.60
785.98	1982.23
786.17	1911.16
786.35	1830.47
786.54	1952.74
786.72	1997.18
786.91	2068.86
787.09	1884.75
787.28	1787.06
787.46	1943.32
787.65	2028.31
787.83	1803.44
788.01	1908.30
788.20	1790.54
788.38	1937.79
788.57	1850.75
788.75	1887.61
788.94	2153.85
789.12	2092.41
789.31	1931.64
789.49	2019.09
789.67	1882.70
789.86	1962.98
790.04	1836.62
790.23	1716.40
790.41	2221.43
790.60	1897.44
790.78	1883.31
790.96	1903.38
791.15	2008.03
791.33	1917.31
791.52	1894.37
791.70	1822.08
791.89	1945.98
792.07	2030.36
792.25	1939.22
792.44	1784.60
792.62	2054.93
792.81	1894.17
792.99	1928.16
793.17	1898.47
793.36	1916.69
793.54	2543.58
793.73	3380.38
793.91	4421.77
794.10	5214.74
794.28	6005.26
794.46	6146.98
794.65	5934.40
794.83	4756.20
795.01	4538.09
795.20	4472.97
795.38	4118.06
795.57	3985.96
795.75	3755.57
795.93	3477.25
796.12	3255.25
796.30	3141.38
796.49	2994.34
796.67	2636.55
796.85	2616.48
797.04	2437.70
797.22	2342.88
797.40	2038.75
797.59	2130.91
797.77	2078.89
797.96	1952.12
798.14	1950.28
798.32	1935.33
798.51	2113.30
798.69	2238.23
798.87	1941.68
799.06	1936.97
799.24	1855.25
799.42	2409.44
799.61	3039.19
799.79	3556.91
799.98	4174.37
800.16	4482.80
800.34	5468.49
800.53	6764.65
800.71	7173.42
800.89	8232.63
801.08	8460.16
801.26	8426.57
801.44	7109.73
801.63	5963.48
801.81	5806.81
801.99	5306.29
802.18	5014.45
802.36	4767.06
802.54	4429.35
802.73	3840.15
802.91	3637.60
803.09	3374.44
803.28	3147.93
803.46	2918.56
803.64	2829.47
803.83	2302.94
804.01	2155.90
804.19	2019.71
804.38	2177.61
804.56	2124.97
804.74	2017.66
804.92	1996.56
805.11	1871.23
805.29	2110.64
805.47	1957.24
805.66	1834.16
805.84	1841.74
806.02	2105.31
806.21	1918.95
806.39	2065.17
806.57	2097.12
806.76	2087.90
806.94	1965.23
807.12	1911.98
807.30	1965.03
807.49	2055.34
807.67	2053.70
807.85	2139.10
808.04	2138.08
808.22	2292.09
808.40	1881.47
808.58	1836.41
808.77	2048.79
808.95	2263.21
809.13	2578.39
809.31	4410.71
809.50	6270.68
809.68	7347.29
809.86	8170.37
810.05	8910.51
810.23	10205.03
810.41	14856.17
810.59	25269.07
810.78	31557.36
810.96	37067.82
811.14	40333.93
811.32	39805.75
811.51	31873.56
811.69	25162.16
811.87	24946.10
812.05	21749.02
812.24	20421.32
812.42	18706.15
812.60	16659.00
812.78	14239.94
812.97	12146.71
813.15	10808.77
813.33	9168.14
813.51	7823.24
813.70	6317.98
813.88	5091.86
814.06	4127.07
814.24	3337.98
814.42	2677.92
814.61	2534.98
814.79	2560.17
814.97	2058.21
815.15	2085.86
815.34	2155.69
815.52	2187.03
815.70	1892.12
815.88	1938.40
816.06	1906.25
816.25	1927.34
816.43	1857.51
816.61	2017.86
816.79	2137.26
816.98	1750.81
817.16	1855.25
817.34	1816.96
817.52	1978.34
817.70	2120.47
817.89	1852.18
818.07	1790.33
818.25	1890.68
818.43	1924.48
818.61	1848.70
818.80	1818.19
818.98	2113.30
819.16	1933.08
819.34	1772.31
819.52	2085.24
819.70	1788.90
819.89	1904.00
820.07	1738.73
820.25	1723.37
820.43	1919.56
820.61	2031.58
820.80	1875.32
820.98	1785.42
821.16	1731.15
821.34	1762.89
821.52	1872.87
821.70	1889.87
821.89	1903.59
822.07	1869.39
822.25	1859.15
822.43	1807.74
822.61	2105.93
822.79	1946.59
822.98	1845.63
823.16	1686.30
823.34	1941.47
823.52	2055.96
823.70	1974.65
823.88	1733.20
824.06	1989.81
824.25	1902.56
824.43	1963.18
824.61	1768.83
824.79	1880.65
824.97	1963.18
825.15	2085.86
825.33	2591.91
825.52	3359.28
825.70	3683.27
825.88	4023.03
826.06	4361.35
826.24	4453.31
826.42	4078.32
826.60	3443.66
826.78	3488.51
826.97	3181.52
827.15	3261.39
827.33	2864.70
827.51	2926.34
827.69	2692.26
827.87	2647.82
828.05	2530.06
828.23	2309.08
828.41	2435.24
828.60	2314.82
828.78	1996.97
828.96	2102.24
829.14	1941.47
829.32	1943.93
829.50	1870.00
829.68	1868.16
829.86	1889.87
830.04	1995.95
830.22	1954.38
830.41	1792.79
830.59	1903.18
830.77	1975.27
830.95	1802.62
831.13	1824.33
831.31	1802.42
831.49	2030.77
831.67	1991.44
831.85	1987.76
832.03	1860.78
832.21	2011.31
832.39	1762.69
832.57	1770.47
832.76	2012.13
832.94	1873.69
833.12	1713.54
833.30	1834.37
833.48	2042.64
833.66	1934.10
833.84	1817.98
834.02	1855.25
834.20	2010.29
834.38	1996.36
834.56	1701.04
834.74	1761.87
834.92	1766.99
835.10	2112.68
835.28	1929.19
835.46	1877.37
835.64	1901.33
835.82	1837.64
836.01	2095.69
836.19	1993.29
836.37	1854.64
836.55	1793.61
836.73	1812.04
836.91	1782.96
837.09	2005.58
837.27	2067.83
837.45	1745.48
837.63	1768.42
837.81	1800.37
837.99	1925.50
838.17	1847.47
838.35	1801.39
838.53	2216.52
838.71	1989.81
838.89	1872.87
839.07	1814.71
839.25	1954.58
839.43	2111.66
839.61	2261.98
839.79	3572.27
839.97	4977.18
840.15	5736.36
840.33	6408.91
840.51	6962.68
840.69	6647.30
840.87	5550.20
841.05	5002.16
841.23	5342.13
841.41	6731.06
841.59	9411.65
841.77	10608.27
841.95	11468.83
842.13	12356.83
842.31	11835.21
842.49	9550.91
842.67	8041.76
842.85	7891.85
843.03	6924.80
843.21	6568.65
843.39	6065.88
843.57	5554.09
843.75	5005.44
843.93	4352.34
844.11	3894.42
844.29	3582.92
844.47	3354.78
844.65	3242.55
844.83	2847.09
845.01	2602.76
845.19	2530.06
845.36	2217.54
845.54	2184.16
845.72	2068.65
845.90	2068.86
846.08	1831.50
846.26	1881.26
846.44	1983.46
846.62	2003.94
846.80	1908.09
846.98	1814.50
847.16	1853.41
847.34	1930.21
847.52	1771.49
847.70	1792.18
847.88	1876.96
848.06	2069.27
848.24	1932.87
848.41	1756.54
848.59	2016.63
848.77	1945.57
848.95	1841.94
849.13	1826.58
849.31	1987.76
849.49	1937.17
849.67	1760.84
849.85	1779.28
850.03	1922.84
850.21	1944.34
850.39	1810.20
850.57	1954.99
850.74	2101.01
850.92	2180.06
851.10	2416.40
851.28	2970.99
851.46	3454.10
851.64	3955.65
851.82	3817.82
852.00	3842.60
852.18	3648.25
852.36	3234.97
852.53	3024.85
852.71	2946.62
852.89	2935.97
853.07	2790.15
853.25	2524.74
853.43	2378.72
853.61	2478.86
853.79	2357.42
853.97	2164.70
854.14	2093.23
854.32	2301.51
854.50	2209.35
854.68	1972.40
854.86	1941.68
855.04	1874.30
855.22	2047.15
855.40	1738.11
855.57	1822.49
855.75	2006.60
855.93	1928.57
856.11	1693.06
856.29	1776.41
856.47	1808.36
856.65	1905.23
856.82	1782.96
857.00	1718.45
857.18	1866.93
857.36	1818.39
857.54	1854.23
857.72	1952.33
857.89	1972.60
858.07	1915.47
858.25	1995.54
858.43	1719.88
858.61	1859.35
858.79	1903.38
858.97	1780.91
859.14	1903.79
859.32	1865.09
859.50	1833.96
859.68	1906.04
859.86	1803.85
860.03	1918.95
860.21	1958.68
860.39	1797.09
860.57	1911.98
860.75	1946.59
860.93	2118.21
861.10	1977.31
861.28	1813.27
861.46	1942.70
861.64	1941.27
861.82	1827.40
861.99	1896.83
862.17	2015.61
862.35	2009.67
862.53	1850.54
862.71	1896.01
862.88	1942.09
863.06	1974.86
863.24	1828.02
863.42	1804.06
863.60	1855.46
863.77	1953.35
863.95	1672.58
864.13	1868.57
864.31	1850.75
864.49	1955.20
864.66	1735.24
864.84	1817.57
865.02	1922.22
865.20	2246.42
865.37	1902.97
865.55	1824.74
865.73	1831.29
865.91	2133.37
866.09	2145.25
866.26	2127.43
866.44	2303.35
866.62	2174.53
866.80	2020.53
866.97	2074.80
867.15	2058.41
867.33	2073.36
867.51	2076.23
867.68	1989.81
867.86	1947.00
868.04	1920.99
868.22	1765.76
868.39	1906.04
868.57	1973.22
868.75	2129.68
868.93	1766.37
869.10	1845.02
869.28	2131.32
869.46	2066.61
869.64	1876.96
869.81	1839.08
869.99	1923.66
870.17	1900.92
870.35	1806.51
870.52	1793.61
870.70	2001.68
870.88	1812.04
871.05	1747.53
871.23	1651.07
871.41	1865.29
871.59	1888.43
871.76	1834.16
871.94	1798.32
872.12	1872.25
872.29	1704.32
872.47	1805.49
872.65	1731.97
872.83	1907.89
873.00	2047.56
873.18	1827.20
873.36	1768.22
873.53	1982.02
873.71	1734.22
873.89	1787.88
874.06	1893.76
874.24	1938.81
874.42	2036.09
874.60	1957.86
874.77	1877.17
874.95	1797.50
875.13	1999.02
875.30	1797.91
875.48	1801.80
875.66	2072.34
875.83	1798.32
876.01	1804.67
876.19	1942.91
876.36	1745.48
876.54	1896.21
876.72	1766.78
876.89	1903.59
877.07	1962.16
877.25	1665.82
877.42	1849.11
877.60	1836.62
877.78	2095.07
877.95	1836.21
878.13	1811.02
878.31	1900.92
878.48	1979.16
878.66	1980.18
878.84	1765.35
879.01	1838.46
879.19	1929.39
879.37	1941.27
879.54	1778.66
879.72	1749.99
879.90	1644.11
880.07	1985.30
880.25	1602.13
880.42	1946.80
880.60	1900.51
880.78	1962.36
880.95	1812.86
881.13	1812.86
881.31	1881.06
881.48	1807.13
881.66	1769.24
881.83	1873.69
882.01	1793.82
882.19	1731.56
882.36	1868.57
882.54	1837.44
882.72	1958.68
882.89	1909.73
883.07	1758.59
883.24	1840.51
883.42	1989.19
883.60	1890.28
883.77	1756.13
883.95	1793.82
884.12	1967.48
884.30	1901.13
884.48	1953.97
884.65	1854.44
884.83	1919.56
885.00	1927.34
885.18	1729.10
885.36	1797.91
885.53	1933.90
885.71	2055.14
885.88	1731.15
886.06	1819.42
886.23	1948.03
886.41	1826.17
886.59	1779.48
886.76	1784.40
886.94	1981.20
887.11	2234.95
887.29	1825.15
887.47	1703.09
887.64	2026.26
887.82	2038.34
887.99	1683.64
888.17	1860.78
888.34	1845.42
888.52	1763.92
888.69	1874.92
888.87	1781.53
889.05	1836.82
889.22	1830.68
889.40	1791.77
889.57	1970.76
889.75	2074.39
889.92	1831.91
890.10	1747.94
890.27	1837.44
890.45	1830.27
890.62	1724.39
890.80	1748.97
890.98	1712.51
891.15	2043.26
891.33	1981.00
891.50	1812.04
891.68	1732.38
891.85	1958.06
892.03	1984.28
892.20	1783.78
892.38	1734.02
892.55	1979.16
892.73	1975.06
892.90	1753.27
893.08	1793.00
893.25	1804.47
893.43	1819.42
893.60	1934.92
893.78	1660.70
893.95	1927.96
894.13	1869.39
894.30	1729.30
894.48	1836.00
894.65	1981.20
894.83	1919.15
895.00	1667.25
895.18	1661.52
895.35	1986.94
895.53	1967.28
895.70	1716.81
895.88	1898.88
896.05	1930.62
896.23	1718.66
896.40	1790.54
896.58	1881.06
896.75	1965.03
896.93	2055.55
897.10	1787.06
897.28	1732.38
897.45	1913.42
897.63	1949.67
897.80	1943.11
897.98	1816.55
898.15	1929.60
898.33	1796.27
898.50	1870.61
898.67	1838.67
898.85	1825.97
899.02	1937.17
899.20	2005.78
899.37	1807.54
899.55	1898.26
899.72	2043.87
899.90	1773.95
900.07	1757.16
900.25	1931.85
900.42	2011.72
900.59	1780.09
900.77	1908.71
900.94	1949.26
901.12	1908.30
901.29	1765.14
901.47	1917.51
901.64	1929.60
901.82	1874.10
901.99	1623.42
902.16	1758.80
902.34	2019.30
902.51	1938.40
902.69	1806.92
902.86	1840.10
903.03	2314.20
903.21	1879.63
903.38	1878.60
903.56	1786.24
903.73	2003.73
903.91	1843.38
904.08	1720.29
904.25	1655.99
904.43	1796.89
904.60	1965.44
904.78	1783.78
904.95	1738.11
905.12	1852.59
905.30	2091.80
905.47	1891.91
905.65	1950.08
905.82	1878.81
905.99	1933.69
906.17	1849.93
906.34	1762.28
906.52	1798.32
906.69	1958.88
906.86	1936.56
907.04	1863.65
907.21	1989.40
907.38	2011.92
907.56	1762.48
907.73	1775.79
907.91	2081.56
908.08	2033.43
908.25	1782.35
908.43	1761.87
908.60	1968.92
908.77	1901.95
908.95	1796.89
909.12	1743.64
909.30	1971.17
909.47	1734.02
909.64	1842.97
909.82	1960.32
909.99	1880.24
910.16	1920.99
910.34	1772.72
910.51	1805.69
910.68	1923.66
910.86	1902.56
911.03	1838.67
911.20	2323.63
911.38	3656.44
911.55	5635.19
911.72	6516.02
911.90	7111.98
912.07	7685.62
912.24	7558.64
912.42	5939.93
912.59	4392.69
912.76	4247.90
912.94	3623.27
913.11	3278.39
913.28	3006.01
913.46	2813.70
913.63	2848.31
913.80	2898.90
913.98	2568.36
914.15	2698.40
914.32	2667.68
914.49	2491.15
914.67	2292.50
914.84	2449.78
915.01	2492.58
915.19	2359.46
915.36	2184.36
915.53	2323.22
915.71	2167.57
915.88	2028.10
916.05	1912.60
916.22	2082.78
916.40	1958.27
916.57	1796.48
916.74	1904.41
916.92	2081.15
917.09	1794.43
917.26	1769.24
917.43	1748.35
917.61	1820.23
917.78	1713.54
917.95	1654.14
918.13	1737.91
918.30	2158.56
918.47	1898.47
918.64	1746.10
918.82	1764.33
918.99	1886.18
919.16	2082.99
919.33	1847.27
919.51	1806.72
919.68	1874.10
919.85	2034.04
920.02	1707.80
920.20	1816.55
920.37	2077.05
920.54	2005.58
920.71	1757.16
920.89	1788.49
921.06	2100.81
921.23	1784.40
921.40	1842.56
921.58	2237.20
921.75	2946.62
921.92	2602.97
922.09	2728.30
922.27	2757.79
922.44	2702.70
922.61	2497.91
922.78	2192.96
922.96	2136.65
923.13	2117.19
923.30	2197.27
923.47	1888.23
923.64	1936.97
923.82	2058.62
923.99	2056.37
924.16	2000.87
924.33	1842.35
924.50	2004.35
924.68	2144.02
924.85	1822.28
925.02	1870.82
925.19	2062.92
925.36	1956.42
925.54	1924.48
925.71	1902.77
925.88	2310.31
926.05	1844.61
926.22	1793.20
926.40	1856.89
926.57	1920.99
926.74	1962.57
926.91	1775.79
927.08	1965.44
927.26	1994.52
927.43	1888.02
927.60	1747.53
927.77	1825.15
927.94	2110.23
928.11	2034.04
928.29	1702.89
928.46	1845.02
928.63	1834.78
928.80	1856.07
928.97	1900.31
929.14	1737.91
929.32	2164.09
929.49	1878.60
929.66	1762.07
929.83	1710.87
930.00	1813.27
930.17	1913.01
930.35	1700.63
930.52	1756.13
930.69	2081.97
930.86	1748.76
931.03	1874.30
931.20	1633.26
931.37	1981.41
931.55	1884.34
931.72	1877.99
931.89	1692.03
932.06	1780.91
932.23	2058.82
932.40	1888.23
932.57	1893.35
932.74	2051.66
932.92	2003.53
933.09	1902.97
933.26	1556.66
933.43	1811.63
933.60	1896.83
933.77	1827.20
933.94	1864.68
934.11	1851.36
934.29	1893.96
934.46	1720.09
934.63	1884.13
934.80	1762.48
934.97	1912.19
935.14	1855.05
935.31	1719.47
935.48	1815.11
935.65	1937.99
935.82	1885.36
936.00	1721.52
936.17	2075.21
936.34	1871.64
936.51	1891.50
936.68	1692.44
936.85	1913.62
937.02	1922.84
937.19	1869.39
937.36	1819.62
937.53	1915.87
937.70	1967.07
937.87	1810.40
938.05	1886.38
938.22	1901.13
938.39	1755.11
938.56	1805.08
938.73	1744.66
938.90	1853.82
939.07	1817.57
939.24	1815.93
939.41	1672.58
939.58	1921.81
939.75	1925.09
939.92	1748.56
940.09	1955.40
940.26	1793.20
940.43	1969.94
940.60	1763.51
940.77	1799.55
940.95	1904.20
941.12	1967.69
941.29	1778.05
941.46	1836.82
941.63	2002.50
941.80	2050.63
941.97	1682.41
942.14	1698.79
942.31	1960.73
942.48	1850.34
942.65	1875.73
942.82	1826.58
942.99	1926.93
943.16	1886.79
943.33	1731.15
943.50	1762.48
943.67	1967.89
943.84	2019.09
944.01	1782.76
944.18	1734.22
944.35	2037.32
944.52	1791.56
944.69	1842.15
944.86	1674.01
945.03	1957.86
945.20	2181.91
945.37	1638.17
945.54	1816.96
945.71	2026.06
945.88	2078.48
946.05	1748.15
946.22	1721.52
946.39	2052.06
946.56	1864.68
946.73	1718.66
946.90	1726.64
947.07	1819.21
947.24	1850.34
947.41	1660.29
947.58	1895.80
947.75	1964.00
947.92	1917.31
948.09	1592.71
948.26	1691.42
948.43	1909.94
948.60	2118.62
948.77	1728.08
948.94	1788.29
949.11	1983.46
949.27	1912.60
949.44	1739.34
949.61	1736.06
949.78	1929.60
949.95	2020.53
950.12	1710.05
950.29	1719.88
950.46	1818.60
950.63	1984.28
950.80	1754.09
950.97	1820.64
951.14	2017.66
951.31	1825.76
951.48	1745.69
951.65	1725.21
951.82	2138.08
951.99	1909.32
952.15	1669.71
952.32	1783.78
952.49	1802.01
952.66	1799.96
952.83	1769.04
953.00	1736.06
953.17	1872.66
953.34	1976.09
953.51	1848.29
953.68	1804.67
953.85	2011.51
954.02	2001.68
954.18	1816.14
954.35	1819.83
954.52	1760.43
954.69	1881.26
954.86	1628.34
955.03	1837.23
955.20	1960.52
955.37	1866.31
955.54	1773.75
955.71	1758.39
955.87	1922.84
956.04	2083.81
956.21	1785.01
956.38	1739.34
956.55	1884.75
956.72	2196.04
956.89	1820.64
957.06	1738.52
957.23	1787.26
957.39	2005.78
957.56	1773.95
957.73	1730.12
957.90	1640.42
958.07	2111.66
958.24	1827.61
958.41	1761.87
958.57	1977.52
958.74	1887.82
958.91	1704.73
959.08	1754.90
959.25	1963.39
959.42	1846.86
959.59	1809.18
959.75	1773.13
959.92	2017.25
960.09	2029.74
960.26	1750.40
960.43	1836.41
960.60	1896.21
960.76	1846.04
960.93	1687.53
961.10	1865.09
961.27	1992.26
961.44	1860.99
961.61	1684.25
961.77	1718.86
961.94	1900.51
962.11	1978.95
962.28	1776.00
962.45	1711.08
962.62	1853.41
962.78	2001.07
962.95	1704.32
963.12	1773.13
963.29	1959.09
963.46	2255.43
963.62	1853.00
963.79	1766.37
963.96	2195.42
964.13	1846.24
964.30	1870.21
964.46	1782.14
964.63	1801.60
964.80	2279.80
964.97	1785.62
965.14	2107.77
965.30	2228.60
965.47	2331.61
965.64	2268.74
965.81	2203.61
965.98	2336.32
966.14	2102.44
966.31	1949.05
966.48	1947.41
966.65	2175.35
966.81	2047.97
966.98	1899.29
967.15	1928.57
967.32	1991.85
967.49	1902.15
967.65	1730.33
967.82	1698.59
967.99	1936.97
968.16	1755.52
968.32	2000.87
968.49	1837.03
968.66	1900.92
968.83	2133.37
968.99	1876.76
969.16	1760.43
969.33	2085.45
969.50	1975.06
969.66	1912.39
969.83	2000.25
970.00	2017.04
970.17	1971.37
970.33	1780.30
970.50	1728.28
970.67	2083.40
970.84	2060.87
971.00	1710.46
971.17	1702.07
971.34	1955.81
971.50	1875.73
971.67	1908.91
971.84	1818.39
972.01	1751.42
972.17	1640.22
972.34	1747.53
972.51	1870.41
972.67	2012.13
972.84	1900.92
973.01	1747.74
973.18	1760.02
973.34	1993.90
973.51	1773.75
973.68	1780.30
973.84	1804.47
974.01	1816.34
974.18	2102.85
974.34	1872.66
974.51	1851.16
974.68	1793.00
974.85	2106.95
975.01	1896.62
975.18	1805.90
975.35	1887.41
975.51	1830.88
975.68	1679.95
975.85	1905.23
976.01	1815.93
976.18	2062.71
976.35	1783.37
976.51	1743.64
976.68	2047.35
976.85	2041.01
977.01	1824.94
977.18	1890.28
977.35	1959.09
977.51	1734.42
977.68	1626.09
977.85	1723.98
978.01	2031.79
978.18	1998.20
978.35	1843.58
978.51	1856.48
978.68	2022.98
978.85	2098.55
979.01	1790.95
979.18	1812.25
979.34	1850.95
979.51	1913.42
979.68	1743.23
979.84	1811.43
980.01	2189.48
980.18	1924.27
980.34	1768.01
980.51	1869.18
980.67	1975.06
980.84	2001.07
981.01	1830.27
981.17	1875.53
981.34	1672.78
981.51	1959.70
981.67	1756.13
981.84	1907.07
982.00	1955.20
982.17	1855.46
982.34	1662.95
982.50	1590.66
982.67	2053.50
982.83	1818.39
983.00	1705.55
983.17	1610.93
983.33	1995.95
983.50	1700.43
983.66	1689.57
983.83	1606.63
984.00	1846.65
984.16	1860.17
984.33	1600.90
984.49	1614.82
984.66	1779.68
984.83	1962.98
984.99	1661.72
985.16	1578.98
985.32	1960.32
985.49	1985.71
985.65	1747.53
985.82	1596.80
985.99	2062.51
986.15	1902.56
986.32	1678.92
986.48	1661.52
986.65	1831.70
986.81	1950.28
986.98	1591.48
987.14	1691.21
987.31	1898.26
987.48	1708.42
987.64	1546.42
987.81	1574.48
987.97	2139.92
988.14	1767.60
988.30	1629.36
988.47	1499.52
988.63	1911.78
988.80	1761.87
988.96	1695.72
989.13	1729.30
989.30	1822.90
989.46	1988.37
989.63	1582.26
989.79	1594.96
989.96	1869.59
990.12	2063.94
990.29	1646.36
990.45	1657.83
990.62	1880.85
990.78	2033.63
990.95	1744.05
991.11	1646.16
991.28	1804.67
991.44	1897.44
991.61	1539.87
991.77	1673.60
991.94	1899.49
992.10	2005.58
992.27	1713.33
992.43	1664.79
992.60	1920.99
992.76	1820.44
992.93	1792.38
993.09	1605.20
993.26	2016.23
993.42	2081.56
993.59	1641.86
993.75	1567.72
993.92	1772.93
994.08	1780.09
994.25	1716.20
994.41	1612.16
994.58	1947.82
994.74	2049.40
994.91	1625.27
995.07	1718.66
995.24	1844.20
995.40	1882.49
995.56	1757.98
995.73	1735.65
995.89	2054.32
996.06	1846.24
996.22	1624.45
996.39	1555.84
996.55	1848.29
996.72	1913.01
996.88	1577.55
997.05	1637.76
997.21	2103.88
997.37	1951.51
997.54	1720.29
997.70	1670.94
997.87	1897.65
998.03	1848.29
998.20	1558.09
998.36	1562.40
998.52	1959.50
998.69	1956.83
998.85	1565.06
999.02	1664.18
999.18	1989.81
999.35	1961.13
999.51	1664.38
999.67	1678.11
999.84	1749.37
1000.00	1941.88
1000.17	1722.75
1000.33	1624.65
1000.49	1810.40
1000.66	1866.72
1000.82	1631.00
1000.99	1706.57
1001.15	2006.39
1001.31	1823.72
1001.48	1681.38
1001.64	1692.03
1001.81	1862.42
1001.97	2123.13
1002.13	1655.58
1002.30	1673.80
1002.46	2034.66
1002.63	1813.07
1002.79	1724.39
1002.95	1628.95
1003.12	1944.96
1003.28	1911.57
1003.45	1656.40
1003.61	1611.14
1003.77	1882.08
1003.94	1728.90
1004.10	1661.31
1004.26	1711.90
1004.43	1962.77
1004.59	2065.79
1004.75	1635.92
1004.92	1605.20
1005.08	1825.56
1005.25	1888.43
1005.41	1632.44
1005.57	1729.92
1005.74	1992.67
1005.90	1809.38
1006.06	1724.18
1006.23	1630.18
1006.39	1956.01
1006.55	2202.39
1006.72	1807.13
1006.88	1581.85
1007.04	1787.26
1007.21	1828.43
1007.37	1666.02
1007.53	1642.27
1007.70	2057.39
1007.86	1954.17
1008.02	1691.42
1008.19	1626.91
1008.35	1889.25
1008.51	1789.11
1008.68	1641.86
1008.84	1572.43
1009.00	1751.01
1009.17	2009.26
1009.33	1790.33
1009.49	1716.81
1009.65	1768.63
1009.82	1936.15
1009.98	1720.91
1010.14	1576.32
1010.31	1949.26
1010.47	1926.32
1010.63	1735.04
1010.80	1690.19
1010.96	1931.44
1011.12	1831.91
1011.28	1648.00
1011.45	1640.01
1011.61	2176.99
1011.77	1752.86
1011.94	1629.57
1012.10	1578.16
1012.26	1731.97
1012.42	1796.89
1012.59	1707.19
1012.75	1685.48
1012.91	1838.46
1013.07	1960.93
1013.24	1602.54
1013.40	1650.46
1013.56	1883.11
1013.72	1870.61
1013.89	1706.78
1014.05	1723.98
1014.21	2144.22
1014.37	2173.30
1014.54	1666.02
1014.70	1600.90
1014.86	1835.18
1015.02	1735.65
1015.19	1635.30
1015.35	1607.66
1015.51	1823.72
1015.67	1823.31
1015.84	1657.83
1016.00	1633.87
1016.16	2002.50
1016.32	1962.16
1016.49	1656.81
1016.65	1603.97
1016.81	1853.62
1016.97	1939.43
1017.14	1782.35
1017.30	1636.53
1017.46	1822.08
1017.62	1893.14
1017.78	1736.88
1017.95	1624.86
1018.11	1962.36
1018.27	2157.94
1018.43	1767.40
1018.59	1688.55
1018.76	1981.20
1018.92	2222.87
1019.08	1619.33
1019.24	1657.63
1019.40	2045.31
1019.57	1909.94
1019.73	1738.11
1019.89	1663.97
1020.05	1873.28
1020.21	2150.37
1020.38	1646.57
1020.54	1776.61
1020.70	1929.60
1020.86	1953.76
1021.02	1668.07
1021.18	1636.53
1021.35	1797.30
1021.51	1944.75
1021.67	1784.80
1021.83	1686.50
1021.99	1855.46
1022.15	1887.20
1022.32	1739.14
1022.48	1696.95
1022.64	2022.98
1022.80	2100.60
1022.96	1700.43
1023.12	1588.20
1023.29	2006.80
1023.45	1905.43
1023.61	1633.87
1023.77	1798.73
1023.93	1887.61
1024.09	1787.47
1024.25	1620.97
1024.42	1599.67
1024.58	1817.16
1024.74	1923.86
1024.90	1673.80
1025.06	1687.73
1025.22	1799.35
1025.38	2064.15
1025.54	1605.61
1025.71	1745.28
1025.87	1958.68
1026.03	1924.48
1026.19	1599.26
1026.35	1773.75
1026.51	1951.30
1026.67	1865.49
1026.83	1702.27
1026.99	1774.56
1027.16	1935.13
1027.32	1850.34
1027.48	1670.94
1027.64	1599.87
1027.80	1964.41
1027.96	1900.11
1028.12	1678.92
1028.28	1636.74
1028.44	1908.09
1028.60	2056.16
1028.77	1776.41
1028.93	1692.65
1029.09	1826.79
1029.25	1765.14
1029.41	1680.56
1029.57	1757.57
1029.73	1922.63
1029.89	2056.78
1030.05	1760.64
1030.21	1754.09
1030.37	2133.37
1030.53	1956.63
1030.69	1695.10
1030.85	1608.07
1031.02	1762.48
1031.18	1842.35
1031.34	1671.35
1031.50	1737.09
1031.66	1784.40
1031.82	2074.39
1031.98	1724.80
1032.14	1633.46
1032.30	1777.64
1032.46	1969.33
1032.62	1775.18
1032.78	1601.10
1032.94	1791.77
1033.10	1848.91
1033.26	1707.19
1033.42	1756.95
1033.58	2141.97
1033.74	1823.31
1033.90	1665.41
1034.06	1817.16
1034.22	2155.90
1034.38	1998.61
1034.54	1670.94
1034.70	1689.57
1034.86	2088.93
>>>>>End Processed Spectral Data<<<<<
