SpectraSuite Data File
++++++++++++++++++++++++++++++++++++
Date: Thu Mar 30 14:25:39 PDT 2017
User: UCSD _CER
Dark Spectrum Present: No
Reference Spectrum Present: No
Number of Sampled Component Spectra: 1
Spectrometers: USB4C00073
Integration Time (usec): 380000 (USB4C00073)
Spectra Averaged: 10 (USB4C00073)
Boxcar Smoothing: 0 (USB4C00073)
Correct for Electrical Dark: No (USB4C00073)
Strobe/Lamp Enabled: No (USB4C00073)
Correct for Detector Non-linearity: No (USB4C00073)
Correct for Stray Light: No (USB4C00073)
Number of Pixels in Processed Spectrum: 3648
>>>>>Begin Processed Spectral Data<<<<<
345.37	1247.21
345.58	1247.21
345.80	1247.21
346.01	1227.55
346.22	1264.42
346.43	2039.57
346.65	1879.83
346.86	2429.71
347.07	2360.28
347.28	1837.03
347.50	1814.30
347.71	2135.62
347.92	1873.48
348.13	1824.54
348.35	1814.09
348.56	2138.69
348.77	1927.14
348.98	1812.86
349.20	1683.43
349.41	2139.31
349.62	2304.17
349.83	1912.60
350.05	1814.09
350.26	2192.15
350.47	2349.02
350.68	1831.50
350.90	1723.57
351.11	2374.21
351.32	2337.96
351.53	1875.94
351.75	1769.45
351.96	2179.86
352.17	2102.85
352.38	1892.53
352.60	1902.36
352.81	2139.31
353.02	2447.12
353.23	1823.10
353.44	1830.47
353.66	2043.05
353.87	2073.57
354.08	1904.20
354.29	1835.59
354.51	2063.33
354.72	2110.64
354.93	1854.44
355.14	1877.78
355.35	1927.75
355.57	2337.55
355.78	1903.38
355.99	1974.86
356.20	2175.76
356.42	2165.52
356.63	1969.53
356.84	1860.58
357.05	2290.86
357.26	2541.73
357.48	1951.10
357.69	1885.36
357.90	2199.31
358.11	2068.45
358.32	1826.79
358.54	1862.42
358.75	2059.64
358.96	2208.32
359.17	1807.33
359.38	1869.59
359.60	2265.46
359.81	2112.27
360.02	1881.06
360.23	1782.55
360.44	2044.08
360.66	2326.29
360.87	1813.89
361.08	1809.59
361.29	2196.45
361.50	2138.08
361.72	1805.69
361.93	1898.67
362.14	2144.22
362.35	1884.34
362.56	2008.65
362.77	1749.99
362.99	2257.27
363.20	2176.79
363.41	1944.14
363.62	1742.00
363.83	2235.77
364.05	2303.76
364.26	1793.00
364.47	1835.80
364.68	2329.15
364.89	1999.23
365.10	1755.31
365.32	1867.13
365.53	1994.93
365.74	2047.15
365.95	1833.14
366.16	1728.28
366.37	2092.20
366.59	2060.05
366.80	1864.47
367.01	1716.20
367.22	2501.39
367.43	2656.22
367.64	1932.67
367.86	1861.81
368.07	2231.47
368.28	2317.48
368.49	1760.64
368.70	1874.71
368.91	2066.81
369.12	2119.44
369.34	1760.02
369.55	1724.59
369.76	2144.22
369.97	2048.58
370.18	1730.94
370.39	1796.07
370.60	1888.64
370.82	1926.73
371.03	1841.33
371.24	1791.15
371.45	2260.34
371.66	2220.61
371.87	1819.83
372.08	1832.32
372.30	1941.68
372.51	2238.23
372.72	1925.30
372.93	1801.19
373.14	2397.76
373.35	1995.34
373.56	1771.08
373.78	1845.22
373.99	2308.06
374.20	2638.19
374.41	1781.32
374.62	1799.14
374.83	2385.27
375.04	2032.81
375.25	1884.34
375.47	1864.88
375.68	2022.78
375.89	2258.91
376.10	1884.13
376.31	1915.87
376.52	2187.23
376.73	2186.82
376.94	1904.00
377.15	1794.23
377.37	2107.56
377.58	2082.99
377.79	1723.98
378.00	1762.89
378.21	2190.30
378.42	2226.35
378.63	1905.02
378.84	1919.15
379.05	2286.56
379.27	2116.58
379.48	1918.54
379.69	1805.49
379.90	2345.33
380.11	1797.91
380.32	1819.42
380.53	1966.25
380.74	2353.12
380.95	2141.15
381.16	1895.60
381.37	1874.10
381.59	2352.50
381.80	2291.06
382.01	1818.19
382.22	1736.88
382.43	2209.55
382.64	2132.55
382.85	1802.42
383.06	1943.93
383.27	2281.44
383.48	2097.53
383.69	1891.30
383.91	1782.55
384.12	2212.63
384.33	2177.20
384.54	1837.03
384.75	1726.03
384.96	2614.03
385.17	2278.16
385.38	1838.67
385.59	1785.42
385.80	2275.29
386.01	2362.33
386.22	1932.87
386.43	1836.00
386.64	2514.29
386.86	2090.57
387.07	1957.86
387.28	1754.09
387.49	2027.28
387.70	2327.72
387.91	1925.09
388.12	1857.30
388.33	2180.47
388.54	2024.21
388.75	1768.63
388.96	1945.98
389.17	2022.98
389.38	2093.43
389.59	1917.31
389.80	1945.37
390.01	2122.92
390.22	2041.21
390.43	1928.98
390.64	1733.61
390.86	2193.58
391.07	2284.10
391.28	1787.88
391.49	1890.68
391.70	1881.67
391.91	1982.23
392.12	1811.02
392.33	1887.41
392.54	2116.37
392.75	2060.05
392.96	1942.50
393.17	1814.71
393.38	2528.63
393.59	2314.82
393.80	1795.25
394.01	2018.89
394.22	2256.04
394.43	2653.14
394.64	1981.00
394.85	2136.85
395.06	2241.50
395.27	2263.01
395.48	1902.15
395.69	1761.46
395.90	2099.37
396.11	2118.62
396.32	1837.03
396.53	1946.59
396.74	2074.39
396.95	2279.80
397.16	1816.34
397.37	1716.20
397.58	2280.21
397.79	2120.47
398.00	1869.59
398.21	1827.61
398.42	2141.97
398.63	2476.20
398.84	1840.10
399.05	1819.62
399.26	2329.56
399.47	2204.43
399.68	1712.72
399.89	1755.31
400.10	1950.08
400.31	2025.65
400.52	1894.37
400.73	1808.36
400.94	1858.53
401.15	2170.85
401.36	1818.19
401.57	1867.34
401.78	2308.47
401.99	2285.53
402.20	1759.21
402.41	1979.16
402.62	2353.32
402.83	2088.52
403.04	1797.09
403.25	2044.08
403.46	2253.18
403.67	2496.06
403.88	2118.01
404.09	2105.52
404.30	2305.60
404.51	2240.48
404.72	1986.73
404.93	2083.40
405.14	2050.63
405.35	2130.30
405.56	1892.53
405.77	1797.50
405.98	2151.19
406.19	2095.48
406.40	1782.76
406.61	1812.66
406.82	1988.78
407.03	2495.65
407.24	1735.86
407.45	1868.36
407.66	2170.23
407.87	2286.15
408.08	1898.47
408.29	1905.63
408.49	2221.23
408.70	2125.38
408.91	1812.04
409.12	1964.82
409.33	1950.08
409.54	2327.31
409.75	1787.47
409.96	1842.76
410.17	2284.71
410.38	2096.92
410.59	1799.96
410.80	1969.74
411.01	2093.64
411.22	2075.62
411.43	1928.16
411.64	1808.77
411.85	1969.94
412.06	1948.44
412.27	1664.79
412.47	1803.85
412.68	2111.66
412.89	2188.46
413.10	1837.85
413.31	1756.13
413.52	2418.86
413.73	2453.47
413.94	1819.83
414.15	2009.47
414.36	2009.06
414.57	2009.47
414.78	1976.70
414.99	2647.00
415.19	3522.71
415.40	3819.26
415.61	3913.87
415.82	3764.58
416.03	3548.93
416.24	3111.27
416.45	2588.63
416.66	2127.02
416.87	2051.45
417.08	2311.54
417.29	1913.83
417.50	2113.91
417.70	2494.43
417.91	2534.16
418.12	2388.96
418.33	2500.98
418.54	2920.81
418.75	3146.29
418.96	3133.60
419.17	3739.18
419.38	4713.20
419.59	4761.73
419.79	4477.06
420.00	4203.66
420.21	4153.90
420.42	3148.96
420.63	2497.91
420.84	2249.69
421.05	2203.00
421.26	2156.31
421.47	1777.02
421.67	2213.44
421.88	1989.60
422.09	1909.73
422.30	2029.54
422.51	1815.93
422.72	2416.19
422.93	2240.48
423.14	1898.26
423.35	1736.06
423.55	1873.07
423.76	1976.49
423.97	1858.74
424.18	1753.47
424.39	2147.30
424.60	2380.97
424.81	2025.65
425.02	2299.25
425.22	2618.74
425.43	2670.55
425.64	2795.48
425.85	2852.41
426.06	3372.59
426.27	3200.36
426.48	3137.08
426.68	3097.76
426.89	3344.33
427.10	3367.88
427.31	2562.42
427.52	2192.15
427.73	2466.78
427.94	2354.14
428.14	2071.11
428.35	1901.74
428.56	2386.09
428.77	2277.75
428.98	1969.33
429.19	2280.00
429.40	2593.96
429.60	2735.06
429.81	2655.19
430.02	2564.47
430.23	2464.73
430.44	2481.11
430.65	1990.22
430.85	1965.03
431.06	2244.16
431.27	1880.65
431.48	1857.92
431.69	1898.47
431.90	2134.39
432.10	2135.21
432.31	1940.45
432.52	2179.86
432.73	3179.47
432.94	3189.10
433.15	2851.18
433.35	2716.43
433.56	2955.42
433.77	2613.00
433.98	2435.03
434.19	2247.24
434.40	2421.72
434.60	2277.34
434.81	1999.64
435.02	1987.96
435.23	2174.53
435.44	2091.18
435.64	1769.24
435.85	1773.34
436.06	2102.85
436.27	2046.33
436.48	1774.97
436.68	1796.89
436.89	2378.72
437.10	2269.15
437.31	1884.34
437.52	2006.60
437.73	2164.29
437.93	2138.69
438.14	1944.34
438.35	1730.33
438.56	2036.70
438.77	2091.59
438.97	2038.96
439.18	1824.33
439.39	2282.87
439.60	1900.72
439.80	1802.01
440.01	1820.44
440.22	2004.76
440.43	2235.77
440.64	1785.83
440.84	1892.73
441.05	1929.80
441.26	2610.96
441.47	1942.09
441.68	1854.44
441.88	2077.66
442.09	2036.50
442.30	1973.83
442.51	1963.39
442.71	2064.56
442.92	2198.49
443.13	1876.96
443.34	1834.37
443.55	1950.28
443.75	2235.77
443.96	1849.32
444.17	1805.69
444.38	2321.17
444.58	1978.54
444.79	1966.05
445.00	1931.44
445.21	2109.41
445.41	2053.91
445.62	1704.73
445.83	1993.29
446.04	2144.22
446.24	1897.85
446.45	1718.25
446.66	1884.75
446.87	2183.13
447.07	2032.20
447.28	2091.80
447.49	1856.69
447.70	2270.17
447.90	2288.81
448.11	1911.16
448.32	1968.10
448.53	2347.79
448.73	2361.10
448.94	1859.56
449.15	2018.27
449.36	2136.85
449.56	2210.37
449.77	1858.12
449.98	1805.69
450.19	2175.76
450.39	2328.54
450.60	2264.23
450.81	2274.47
451.02	2432.99
451.22	2576.75
451.43	2027.69
451.64	2079.30
451.84	2241.50
452.05	2529.24
452.26	2055.96
452.47	2001.28
452.67	2076.03
452.88	2397.35
453.09	1835.59
453.30	1830.27
453.50	2275.91
453.71	2388.96
453.92	1866.72
454.12	1995.75
454.33	1998.20
454.54	2095.28
454.75	1818.80
454.95	1846.04
455.16	2150.98
455.37	2232.90
455.57	1959.29
455.78	1896.42
455.99	2100.81
456.19	2131.32
456.40	1841.53
456.61	1908.50
456.82	2100.19
457.02	2260.34
457.23	1923.25
457.44	2050.84
457.64	2034.45
457.85	2213.04
458.06	1970.35
458.26	2096.51
458.47	2165.32
458.68	2336.53
458.89	1965.64
459.09	2144.63
459.30	2608.50
459.51	2268.33
459.71	1848.91
459.92	1888.64
460.13	2279.18
460.33	2555.87
460.54	1955.40
460.75	1930.01
460.95	1942.09
461.16	2181.29
461.37	1922.22
461.57	1923.66
461.78	2171.05
461.99	1989.19
462.19	2237.00
462.40	1934.51
462.61	2831.32
462.81	2415.99
463.02	1913.83
463.23	1912.39
463.43	2288.20
463.64	2099.99
463.85	3221.25
464.05	1994.93
464.26	2747.96
464.47	2443.43
464.67	2145.86
464.88	2028.92
465.09	1982.64
465.29	2163.06
465.50	2028.31
465.71	1920.18
465.91	2032.40
466.12	2114.73
466.33	1954.58
466.53	1854.64
466.74	2361.10
466.94	2077.05
467.15	1955.81
467.36	2100.40
467.56	1981.82
467.77	2183.75
467.98	1937.38
468.18	1924.07
468.39	2061.69
468.60	2462.27
468.80	1911.78
469.01	1844.61
469.21	2225.53
469.42	2475.18
469.63	2086.06
469.83	2049.61
470.04	2451.01
470.25	2565.90
470.45	2140.13
470.66	1976.70
470.86	2251.74
471.07	2138.69
471.28	2050.22
471.48	2053.70
471.69	2193.58
471.90	2766.81
472.10	1912.19
472.31	1867.34
472.51	2008.24
472.72	2006.39
472.93	1852.39
473.13	2021.35
473.34	2191.33
473.54	2126.00
473.75	1953.97
473.96	2116.17
474.16	2164.09
474.37	2304.99
474.57	2148.73
474.78	2008.03
474.99	2294.75
475.19	2288.20
475.40	1990.01
475.60	1873.89
475.81	2412.51
476.02	2183.34
476.22	2119.24
476.43	2197.47
476.63	2221.23
476.84	2521.25
477.05	1893.14
477.25	1915.67
477.46	2707.21
477.66	2153.85
477.87	1879.22
478.08	1906.04
478.28	2297.62
478.49	2118.21
478.69	1894.99
478.90	1926.93
479.10	2269.56
479.31	2443.84
479.52	2020.53
479.72	2060.46
479.93	2271.81
480.13	2064.56
480.34	1879.63
480.54	1971.99
480.75	2012.54
480.96	2335.71
481.16	1872.87
481.37	2005.17
481.57	2282.26
481.78	2234.13
481.98	2142.58
482.19	2036.70
482.40	2500.37
482.60	2282.67
482.81	2147.50
483.01	1962.36
483.22	2425.61
483.42	2407.80
483.63	2137.67
483.83	2016.84
484.04	2093.23
484.24	2280.82
484.45	2057.18
484.66	1851.77
484.86	2223.68
485.07	1989.60
485.27	2015.41
485.48	1916.28
485.68	2389.98
485.89	2050.63
486.09	2074.39
486.30	1898.88
486.50	2173.92
486.71	2245.80
486.91	2223.27
487.12	2306.83
487.33	2739.16
487.53	2752.67
487.74	2253.79
487.94	2273.86
488.15	2546.65
488.35	2633.28
488.56	2407.80
488.76	2311.95
488.97	2454.49
489.17	2492.58
489.38	2210.78
489.58	2059.44
489.79	2299.05
489.99	2273.65
490.20	2018.89
490.40	2116.37
490.61	2278.57
490.81	2105.11
491.02	2027.49
491.22	2022.98
491.43	2325.67
491.63	2186.62
491.84	2147.30
492.04	1901.74
492.25	2265.46
492.45	2122.31
492.66	1928.78
492.86	1857.30
493.07	2122.11
493.27	2520.23
493.48	1856.28
493.68	1958.27
493.89	2141.77
494.09	2283.08
494.30	1960.73
494.50	2232.70
494.71	2300.89
494.91	2052.68
495.12	2151.19
495.32	2242.53
495.53	2322.60
495.73	1978.54
495.94	2072.54
496.14	1824.33
496.35	2498.32
496.55	2110.84
496.76	1950.28
496.96	2016.84
497.17	2170.64
497.37	2266.49
497.58	1985.92
497.78	1898.67
497.98	2150.98
498.19	2169.41
498.39	2014.38
498.60	2095.28
498.80	1964.82
499.01	2355.57
499.21	1902.36
499.42	2057.39
499.62	2114.32
499.83	2539.28
500.03	1874.92
500.24	2053.70
500.44	2413.94
500.64	2345.13
500.85	1961.34
501.05	2061.89
501.26	1895.60
501.46	2394.89
501.67	1913.62
501.87	1859.97
502.08	2004.55
502.28	2112.07
502.48	2065.58
502.69	2153.44
502.89	2024.83
503.10	2130.50
503.30	2129.07
503.51	2070.09
503.71	1971.99
503.92	2335.09
504.12	2164.91
504.32	2115.35
504.53	2505.28
504.73	2543.37
504.94	2388.75
505.14	2552.59
505.35	2680.59
505.55	2702.70
505.75	2468.62
505.96	2579.21
506.16	2800.39
506.37	2327.52
506.57	2147.09
506.78	2274.27
506.98	2533.13
507.18	2113.71
507.39	2003.73
507.59	2079.92
507.80	2182.93
508.00	2310.52
508.20	2309.49
508.41	2086.88
508.61	2502.21
508.82	2401.24
509.02	2167.98
509.22	1938.20
509.43	1996.77
509.63	2077.87
509.84	1989.40
510.04	1839.69
510.24	2430.53
510.45	2290.45
510.65	1886.59
510.86	2054.52
511.06	2032.20
511.26	2389.16
511.47	2273.86
511.67	2025.24
511.88	2310.11
512.08	2384.86
512.28	1934.10
512.49	2077.46
512.69	2208.32
512.90	2248.46
513.10	1991.24
513.30	2054.52
513.51	2267.51
513.71	2430.73
513.91	2040.39
514.12	2065.58
514.32	2471.28
514.53	2304.37
514.73	2391.41
514.93	2355.78
515.14	2528.22
515.34	2914.46
515.54	2643.93
515.75	2865.72
515.95	3145.68
516.15	3225.14
516.36	2554.43
516.56	2413.53
516.77	2093.64
516.97	2488.90
517.17	2233.92
517.38	2295.36
517.58	2629.18
517.78	2553.82
517.99	2761.48
518.19	2852.41
518.39	3376.90
518.60	3131.96
518.80	2747.15
519.00	2619.15
519.21	2530.47
519.41	2746.12
519.61	2115.96
519.82	2227.37
520.02	2319.73
520.22	2302.74
520.43	2139.10
520.63	2238.23
520.83	2222.66
521.04	2148.73
521.24	2586.17
521.44	2729.74
521.65	2928.39
521.85	3234.36
522.05	2838.89
522.26	2526.58
522.46	2898.90
522.66	2568.97
522.87	2220.20
523.07	2392.85
523.27	2256.04
523.48	2567.95
523.68	2206.48
523.88	2265.67
524.09	2564.06
524.29	2441.38
524.49	2239.66
524.70	2566.51
524.90	2961.16
525.10	2795.68
525.31	2349.63
525.51	2198.08
525.71	2495.45
525.91	2372.98
526.12	2059.03
526.32	1941.88
526.52	2117.80
526.73	2078.48
526.93	2065.79
527.13	1918.54
527.34	2178.01
527.54	2245.60
527.74	2113.91
527.94	1995.54
528.15	2082.37
528.35	2265.46
528.55	2189.69
528.76	2092.41
528.96	1924.07
529.16	2358.03
529.36	2106.75
529.57	1921.81
529.77	2373.80
529.97	1995.34
530.18	2084.42
530.38	1980.59
530.58	2263.42
530.78	2197.27
530.99	2013.77
531.19	2105.93
531.39	2121.70
531.60	2213.85
531.80	2059.03
532.00	2203.82
532.20	2217.95
532.41	2087.29
532.61	1987.35
532.81	1936.56
533.01	2106.75
533.22	2244.98
533.42	2119.65
533.62	1833.75
533.82	2384.86
534.03	2153.03
534.23	2136.03
534.43	1973.42
534.63	2106.95
534.84	2218.36
535.04	2085.86
535.24	2027.28
535.44	2621.60
535.65	2063.74
535.85	1960.52
536.05	1910.96
536.25	2138.90
536.46	2073.98
536.66	2235.15
536.86	2169.82
537.06	2404.32
537.27	2516.54
537.47	2104.90
537.67	2025.65
537.87	2440.15
538.08	2176.99
538.28	1976.09
538.48	1992.88
538.68	2253.38
538.88	2386.70
539.09	1956.22
539.29	2074.80
539.49	2356.60
539.69	2245.60
539.90	2117.80
540.10	1969.74
540.30	2502.62
540.50	2204.23
540.70	2055.96
540.91	2107.56
541.11	2522.28
541.31	2787.49
541.51	2448.55
541.72	2561.80
541.92	2721.34
542.12	2455.31
542.32	2305.19
542.52	2171.87
542.73	2181.09
542.93	2361.10
543.13	2126.61
543.33	2329.15
543.53	2593.14
543.74	2642.29
543.94	2369.70
544.14	2593.75
544.34	2940.88
544.54	2843.20
544.75	2897.26
544.95	3087.72
545.15	3047.17
545.35	3072.98
545.55	2646.59
545.75	2447.94
545.96	2858.55
546.16	2227.78
546.36	2264.23
546.56	2286.76
546.76	2550.95
546.97	2640.86
547.17	2176.79
547.37	2219.79
547.57	2158.35
547.77	2310.93
547.97	2115.14
548.18	2164.50
548.38	2317.48
548.58	3205.28
548.78	3346.79
548.98	3897.69
549.18	4546.49
549.39	4783.85
549.59	4066.65
549.79	3634.33
549.99	3707.44
550.19	3415.19
550.39	3120.29
550.60	2738.75
550.80	2767.83
551.00	2702.70
551.20	2332.43
551.40	2220.20
551.60	2440.77
551.80	2387.32
552.01	2261.98
552.21	2239.45
552.41	2417.63
552.61	2640.24
552.81	2245.60
553.01	2059.44
553.21	2341.03
553.42	2101.22
553.62	2066.61
553.82	2005.58
554.02	2471.69
554.22	2326.49
554.42	1936.76
554.62	2192.96
554.83	2859.99
555.03	3357.64
555.23	3298.46
555.43	3840.76
555.63	4009.51
555.83	3716.24
556.03	3199.54
556.23	2919.79
556.44	3134.83
556.64	3228.21
556.84	2667.27
557.04	2892.76
557.24	2944.57
557.44	2724.41
557.64	2498.73
557.84	2245.39
558.04	2335.30
558.25	2506.92
558.45	2119.65
558.65	2234.13
558.85	2418.24
559.05	2157.94
559.25	2332.23
559.45	2505.89
559.65	3258.11
559.85	3993.13
560.05	3236.00
560.26	3439.36
560.46	3559.37
560.66	3172.10
560.86	2840.74
561.06	2600.10
561.26	2951.33
561.46	2690.21
561.66	2382.61
561.86	2453.26
562.06	2311.75
562.26	2350.25
562.47	2224.30
562.67	2030.77
562.87	2381.17
563.07	2047.97
563.27	2227.99
563.47	2232.08
563.67	2252.36
563.87	2494.84
564.07	2361.92
564.27	2495.04
564.47	2771.11
564.67	2897.88
564.87	2723.59
565.08	2683.04
565.28	2570.00
565.48	2689.19
565.68	2439.54
565.88	2405.13
566.08	2702.29
566.28	2315.23
566.48	2032.81
566.68	2090.57
566.88	2140.33
567.08	2381.38
567.28	2165.73
567.48	2160.40
567.68	2438.72
567.88	2204.23
568.08	2364.58
568.28	2451.62
568.48	2440.77
568.68	2636.55
568.89	2298.03
569.09	2053.50
569.29	2411.48
569.49	2431.14
569.69	2045.51
569.89	2011.51
570.09	1894.58
570.29	2085.86
570.49	1940.66
570.69	2003.73
570.89	2316.87
571.09	2517.16
571.29	1897.44
571.49	2174.53
571.69	2219.79
571.89	2226.14
572.09	1994.72
572.29	2034.86
572.49	2267.31
572.69	2229.62
572.89	2171.26
573.09	1987.35
573.29	2439.95
573.49	2546.65
573.69	2421.93
573.89	2413.33
574.09	2316.46
574.29	2529.04
574.49	2156.31
574.69	2030.77
574.89	2029.13
575.09	2026.47
575.29	1918.74
575.49	2040.60
575.69	2234.33
575.89	1961.54
576.09	2019.50
576.29	2113.50
576.49	2098.35
576.69	2247.44
576.89	2159.99
577.09	2217.54
577.29	2040.80
577.49	2582.08
577.69	2087.90
577.89	2229.01
578.09	2238.02
578.29	1953.35
578.49	2101.83
578.69	1983.46
578.89	2359.87
579.09	2197.47
579.29	1993.08
579.49	2235.77
579.69	2211.81
579.89	2586.38
580.09	1903.59
580.29	1909.94
580.49	2109.00
580.69	2023.60
580.89	1987.76
581.09	1972.81
581.29	2052.06
581.49	2124.56
581.69	1919.56
581.89	1936.15
582.09	1987.14
582.28	2028.72
582.48	2223.68
582.68	2314.82
582.88	2636.96
583.08	2369.30
583.28	2306.42
583.48	2205.66
583.68	2167.98
583.88	2252.77
584.08	2132.75
584.28	2127.84
584.48	2503.64
584.68	2251.13
584.88	2033.02
585.08	2278.77
585.28	2396.12
585.48	2464.53
585.68	2186.21
585.87	2264.23
586.07	2322.19
586.27	2207.51
586.47	2160.40
586.67	2046.33
586.87	2186.21
587.07	2108.38
587.27	2038.55
587.47	2254.40
587.67	2765.37
587.87	3386.73
588.07	3083.22
588.27	3136.26
588.46	3600.12
588.66	3623.47
588.86	2985.32
589.06	2859.17
589.26	2909.34
589.46	2722.36
589.66	2277.34
589.86	2160.20
590.06	2392.64
590.26	2704.96
590.46	2580.44
590.66	2747.15
590.85	2797.12
591.05	2901.56
591.25	2454.70
591.45	2456.74
591.65	2664.00
591.85	2719.50
592.05	2525.15
592.25	2725.03
592.45	3023.62
592.64	2794.86
592.84	2567.54
593.04	2398.58
593.24	3012.97
593.44	2497.09
593.64	2416.19
593.84	2468.62
594.04	2451.21
594.24	2727.89
594.43	2236.79
594.63	2216.52
594.83	2453.06
595.03	2389.98
595.23	2003.12
595.43	1932.67
595.63	2099.17
595.83	2381.58
596.02	1896.01
596.22	2122.11
596.42	2343.70
596.62	2266.69
596.82	2144.22
597.02	2202.59
597.22	2473.74
597.41	2249.49
597.61	2123.33
597.81	2328.75
598.01	2524.74
598.21	2337.35
598.41	2230.44
598.61	2230.24
598.80	2409.84
599.00	2487.67
599.20	2445.07
599.40	2318.71
599.60	2400.01
599.80	2534.98
599.99	2341.44
600.19	2196.24
600.39	2410.25
600.59	2451.21
600.79	2282.67
600.99	2186.00
601.19	2635.94
601.38	2664.61
601.58	2339.80
601.78	2094.66
601.98	2946.82
602.18	4325.92
602.37	5321.65
602.57	5853.71
602.77	6844.52
602.97	7041.33
603.17	6357.30
603.37	6057.07
603.56	6100.69
603.76	5870.91
603.96	5472.99
604.16	4984.55
604.36	4684.32
604.56	4245.44
604.75	3505.51
604.95	3402.09
605.15	3479.29
605.35	3242.55
605.55	2831.52
605.74	2701.07
605.94	2869.20
606.14	2563.85
606.34	2340.83
606.54	2330.18
606.73	2252.15
606.93	2386.91
607.13	2063.94
607.33	2158.15
607.53	2504.87
607.72	2393.87
607.92	2180.47
608.12	2258.70
608.32	2235.56
608.51	2396.74
608.71	2080.33
608.91	2366.02
609.11	2603.58
609.31	2541.53
609.50	2642.08
609.70	2994.95
609.90	3037.14
610.10	3075.03
610.29	2731.38
610.49	2516.75
610.69	2760.46
610.89	2583.72
611.09	2360.69
611.28	2487.67
611.48	2560.78
611.68	2348.41
611.88	2209.14
612.07	2145.25
612.27	2470.26
612.47	2193.37
612.67	2189.07
612.86	2226.14
613.06	2232.29
613.26	1979.57
613.46	2168.39
613.65	2393.26
613.85	3005.60
614.05	2731.38
614.25	2573.68
614.44	2472.51
614.64	2578.19
614.84	2483.16
615.04	2410.05
615.23	2421.31
615.43	2636.76
615.63	2539.28
615.83	2308.27
616.02	2304.58
616.22	2865.31
616.42	2699.84
616.62	2787.08
616.81	2966.28
617.01	3047.58
617.21	2869.00
617.41	2429.30
617.60	2485.62
617.80	2589.45
618.00	2548.49
618.19	2349.22
618.39	2190.71
618.59	2345.95
618.79	2207.10
618.98	1900.52
619.18	2010.90
619.38	2515.93
619.57	2099.58
619.77	1979.36
619.97	2007.42
620.17	2198.29
620.36	2238.84
620.56	2646.39
620.76	2491.97
620.95	2608.70
621.15	2680.18
621.35	2445.89
621.54	2460.22
621.74	2554.64
621.94	2351.27
622.14	2125.79
622.33	2060.46
622.53	2250.51
622.73	2175.97
622.92	1926.93
623.12	2042.23
623.32	2508.76
623.51	2307.24
623.71	1903.59
623.91	2198.49
624.10	2042.44
624.30	2205.25
624.50	1927.96
624.69	1912.39
624.89	2838.69
625.09	2110.02
625.29	1798.73
625.48	1886.59
625.68	2161.02
625.88	2321.78
626.07	2066.20
626.27	1904.82
626.47	2045.10
626.66	1887.20
626.86	2009.26
627.06	1988.99
627.25	2127.02
627.45	2422.54
627.64	1956.22
627.84	2125.79
628.04	1980.39
628.23	2486.85
628.43	1882.08
628.63	2035.68
628.82	2249.90
629.02	2760.46
629.22	2362.13
629.41	2521.87
629.61	2534.77
629.81	2910.78
630.00	2497.50
630.20	2471.28
630.40	2774.59
630.59	2745.71
630.79	2402.68
630.98	2293.32
631.18	2394.69
631.38	2335.09
631.57	2272.43
631.77	1956.22
631.97	2239.45
632.16	2239.04
632.36	2032.81
632.56	2024.62
632.75	2181.09
632.95	2299.05
633.14	1871.02
633.34	2127.63
633.54	1806.92
633.73	2040.60
633.93	1964.82
634.12	1808.97
634.32	2582.08
634.52	2093.84
634.71	1800.16
634.91	2002.09
635.11	1883.93
635.30	2006.80
635.50	2049.20
635.69	1937.38
635.89	2540.10
636.09	2435.65
636.28	2087.49
636.48	2117.60
636.67	2418.24
636.87	2349.84
637.07	2185.80
637.26	2081.35
637.46	2360.49
637.65	2519.00
637.85	2307.65
638.04	2195.83
638.24	2303.76
638.44	2391.00
638.63	2172.69
638.83	2082.78
639.02	2276.73
639.22	2304.78
639.42	2051.04
639.61	2005.58
639.81	2164.70
640.00	2100.81
640.20	2128.04
640.39	2185.39
640.59	3004.37
640.79	3082.40
640.98	3139.54
641.18	3173.94
641.37	3386.73
641.57	3013.59
641.76	2820.46
641.96	2487.87
642.15	2755.54
642.35	2537.02
642.55	2454.90
642.74	2190.71
642.94	2505.08
643.13	2535.79
643.33	2037.52
643.52	1969.53
643.72	2091.59
643.91	2142.99
644.11	1847.47
644.31	1923.04
644.50	2009.88
644.70	2310.31
644.89	1996.56
645.09	2086.47
645.28	2137.46
645.48	2207.92
645.67	1935.13
645.87	1882.70
646.06	2143.61
646.26	2261.78
646.45	1854.85
646.65	1798.73
646.84	2470.67
647.04	2106.34
647.24	1894.58
647.43	1996.56
647.63	2178.42
647.82	2439.75
648.02	1907.07
648.21	1969.74
648.41	2404.11
648.60	2069.06
648.80	2130.09
648.99	2003.94
649.19	2045.92
649.38	1882.70
649.58	1975.27
649.77	2040.60
649.97	2325.88
650.16	2237.20
650.36	1753.68
650.55	2125.59
650.75	2201.36
650.94	2412.10
651.14	2021.96
651.33	2044.69
651.53	2390.18
651.72	1985.10
651.92	1958.68
652.11	1783.37
652.31	2209.96
652.50	2203.41
652.70	2022.37
652.89	1923.66
653.09	2473.33
653.28	2169.62
653.48	1913.01
653.67	1922.84
653.87	2738.54
654.06	2212.22
654.25	2254.81
654.45	1978.13
654.64	2097.12
654.84	2090.36
655.03	1778.25
655.23	2131.32
655.42	2276.11
655.62	2393.87
655.81	2092.20
656.01	1892.32
656.20	2268.13
656.40	2387.73
656.59	2001.89
656.79	2087.29
656.98	2168.80
657.17	2250.10
657.37	1990.83
657.56	1926.52
657.76	2178.01
657.95	2281.03
658.15	1639.40
658.34	1997.79
658.54	2119.24
658.73	1934.92
658.92	1999.02
659.12	2051.86
659.31	2294.13
659.51	2139.31
659.70	2215.08
659.90	2104.90
660.09	2500.77
660.29	2304.17
660.48	2040.39
660.67	2288.40
660.87	2135.83
661.06	2266.28
661.26	2133.16
661.45	2144.43
661.65	2251.54
661.84	2067.83
662.03	1942.70
662.23	1951.30
662.42	2491.35
662.62	1905.63
662.81	1847.27
663.00	1939.02
663.20	2122.11
663.39	2191.94
663.59	2069.06
663.78	1903.18
663.97	2062.71
664.17	2276.32
664.36	1844.20
664.56	1909.32
664.75	2274.27
664.94	2269.15
665.14	2114.32
665.33	2146.48
665.53	2319.53
665.72	2259.52
665.91	2232.70
666.11	2148.73
666.30	2263.82
666.50	2175.56
666.69	2124.77
666.88	2031.99
667.08	2235.15
667.27	2158.15
667.47	2046.74
667.66	1976.09
667.85	2311.75
668.05	2168.18
668.24	1915.67
668.43	2200.54
668.63	2076.03
668.82	2314.20
669.02	2097.73
669.21	2016.23
669.40	1960.73
669.60	2488.49
669.79	1906.04
669.98	2644.13
670.18	1997.59
670.37	1973.01
670.56	2009.06
670.76	2081.56
670.95	2166.75
671.15	2340.01
671.34	2113.71
671.53	2126.41
671.73	2156.10
671.92	2087.49
672.11	1957.65
672.31	2016.02
672.50	2232.29
672.69	1957.04
672.89	1786.44
673.08	1986.32
673.27	2250.31
673.47	2155.28
673.66	2028.51
673.85	1904.61
674.05	2386.50
674.24	2966.28
674.43	3115.57
674.63	3693.72
674.82	4383.27
675.01	3725.26
675.21	3626.75
675.40	3280.44
675.59	3271.63
675.79	3486.67
675.98	2972.63
676.17	3029.76
676.37	2946.00
676.56	2708.23
676.75	2476.81
676.95	2399.60
677.14	2334.48
677.33	2490.13
677.52	1960.73
677.72	2020.53
677.91	2262.60
678.10	1922.84
678.30	1922.02
678.49	1908.91
678.68	2497.29
678.88	1844.40
679.07	2137.26
679.26	1977.52
679.45	2433.60
679.65	2336.73
679.84	1788.90
680.03	1822.08
680.23	2074.39
680.42	2578.39
680.61	1879.22
680.81	1970.76
681.00	2138.28
681.19	2197.47
681.38	2132.14
681.58	2080.12
681.77	2108.59
681.96	2347.79
682.15	1996.56
682.35	2154.87
682.54	2279.39
682.73	2006.39
682.93	1945.98
683.12	1904.00
683.31	2271.20
683.50	2616.48
683.70	1923.66
683.89	2027.49
684.08	1998.61
684.27	2327.11
684.47	1881.47
684.66	1987.55
684.85	2511.22
685.04	2370.32
685.24	1908.09
685.43	1959.09
685.62	1852.59
685.81	2263.42
686.01	2478.25
686.20	2641.67
686.39	2855.69
686.58	3628.80
686.78	3273.47
686.97	3097.35
687.16	3151.21
687.35	2992.90
687.55	2707.21
687.74	2739.57
687.93	2615.05
688.12	2736.70
688.32	2631.84
688.51	2361.10
688.70	2577.78
688.89	2214.47
689.08	2034.25
689.28	2099.37
689.47	2282.87
689.66	2252.15
689.85	2158.15
690.05	1969.74
690.24	2061.69
690.43	2237.61
690.62	2052.47
690.81	1940.66
691.01	2139.10
691.20	2052.06
691.39	1861.40
691.58	2054.52
691.77	2448.35
691.97	2176.58
692.16	2073.57
692.35	2005.99
692.54	2130.30
692.73	2460.22
692.93	2366.84
693.12	2487.26
693.31	2703.93
693.50	2641.67
693.69	2460.63
693.89	2259.32
694.08	2675.47
694.27	2670.14
694.46	2293.32
694.65	2277.96
694.85	2544.40
695.04	2536.41
695.23	2408.41
695.42	3338.80
695.61	4195.67
695.80	4708.08
696.00	5100.26
696.19	5323.08
696.38	4717.50
696.57	4193.83
696.76	3950.12
696.95	3620.81
697.15	3794.68
697.34	3598.49
697.53	3045.74
697.72	2976.93
697.91	2819.64
698.10	2963.00
698.30	2370.52
698.49	2255.22
698.68	2394.28
698.87	2220.61
699.06	2029.95
699.25	2090.57
699.45	2359.26
699.64	2220.41
699.83	2175.97
700.02	1969.12
700.21	2255.43
700.40	2048.17
700.59	1959.29
700.79	1999.23
700.98	2204.43
701.17	2033.22
701.36	1940.45
701.55	1958.27
701.74	2513.06
701.93	2615.26
702.12	3084.24
702.32	3323.65
702.51	3955.24
702.70	3950.94
702.89	3412.94
703.08	3008.26
703.27	3309.72
703.46	3119.47
703.65	2700.45
703.85	2588.63
704.04	2645.98
704.23	2809.81
704.42	2315.84
704.61	2239.86
704.80	2585.97
704.99	2122.31
705.18	2137.06
705.37	2170.44
705.57	3002.73
705.76	4105.36
705.95	4374.87
706.14	5257.95
706.33	5832.41
706.52	5852.28
706.71	4534.00
706.90	4113.14
707.09	4123.38
707.28	3851.82
707.47	3344.74
707.67	3402.09
707.86	3158.58
708.05	3285.56
708.24	2718.06
708.43	2553.20
708.62	2417.42
708.81	2208.53
709.00	2035.89
709.19	2011.92
709.38	2361.72
709.57	2041.62
709.76	2183.75
709.96	2116.58
710.15	2636.35
710.34	2404.32
710.53	2332.43
710.72	2160.81
710.91	2499.14
711.10	2360.90
711.29	2188.66
711.48	2109.00
711.67	2142.18
711.86	2399.40
712.05	2028.31
712.24	2067.42
712.43	2394.08
712.62	2471.90
712.81	2072.54
713.00	2233.31
713.19	1992.26
713.39	2256.04
713.58	1975.06
713.77	2188.46
713.96	2403.29
714.15	2316.05
714.34	2224.09
714.53	2045.92
714.72	2663.79
714.91	2186.21
715.10	2316.05
715.29	2201.16
715.48	2932.08
715.67	2556.27
715.86	2238.84
716.05	2159.79
716.24	2256.66
716.43	2203.61
716.62	2029.54
716.81	1969.12
717.00	2165.11
717.19	2499.75
717.38	2041.01
717.57	2011.31
717.76	1920.18
717.95	2294.13
718.14	2010.29
718.33	2012.33
718.52	1861.81
718.71	1893.76
718.90	1877.78
719.09	1901.74
719.28	2106.95
719.47	2331.20
719.66	2260.55
719.85	2389.16
720.04	2463.09
720.23	2574.09
720.42	2382.81
720.61	2398.58
720.80	2185.18
720.99	2408.21
721.18	2172.28
721.37	2080.53
721.56	2215.49
721.75	2423.36
721.94	2036.70
722.13	2070.91
722.32	2169.82
722.51	2321.78
722.70	2059.23
722.89	2086.06
723.08	2121.70
723.27	2289.42
723.46	2047.76
723.65	2027.90
723.84	2039.78
724.03	2343.08
724.22	1850.75
724.41	1971.78
724.60	2088.11
724.79	2266.28
724.98	2032.20
725.16	1956.22
725.35	2229.62
725.54	1959.70
725.73	2058.62
725.92	2129.07
726.11	2368.27
726.30	2741.41
726.49	2525.76
726.68	2690.83
726.87	2992.29
727.06	3035.29
727.25	2486.85
727.44	2551.15
727.63	2571.63
727.82	2503.85
728.01	2440.56
728.20	2397.35
728.38	2687.14
728.57	2317.48
728.76	2174.94
728.95	2266.28
729.14	2035.68
729.33	2038.75
729.52	1775.59
729.71	1912.39
729.90	2028.31
730.09	2160.81
730.28	2169.00
730.47	2219.79
730.66	2731.99
730.84	2601.33
731.03	2393.26
731.22	2400.01
731.41	2473.74
731.60	2458.59
731.79	2041.21
731.98	2105.52
732.17	2457.15
732.36	2363.15
732.55	2070.50
732.73	1950.08
732.92	2433.19
733.11	2247.44
733.30	1959.09
733.49	1883.72
733.68	2288.40
733.87	2247.44
734.06	2046.54
734.25	2346.56
734.43	2690.21
734.62	2990.85
734.81	2927.78
735.00	2884.36
735.19	2906.89
735.38	2802.85
735.57	2452.44
735.76	2630.00
735.94	2965.66
736.13	3903.22
736.32	3918.38
736.51	4162.09
736.70	4894.65
736.89	4988.65
737.08	4508.19
737.27	5283.55
737.45	6869.30
737.64	7244.89
737.83	7938.13
738.02	8138.63
738.21	7798.87
738.40	6603.27
738.59	5813.36
738.77	5466.64
738.96	5088.18
739.15	4802.28
739.34	4314.05
739.53	3961.59
739.72	3975.31
739.90	3661.15
740.09	2969.15
740.28	2830.50
740.47	2875.55
740.66	2732.60
740.85	2211.81
741.03	2236.59
741.22	2161.02
741.41	2301.51
741.60	2045.31
741.79	2283.69
741.98	2585.36
742.16	2748.17
742.35	2335.50
742.54	2515.52
742.73	3081.78
742.92	2718.68
743.10	2545.42
743.29	2618.94
743.48	3054.95
743.67	2472.10
743.86	2253.79
744.05	2265.67
744.23	2306.83
744.42	2278.57
744.61	2225.73
744.80	2054.52
744.99	2196.24
745.17	1981.61
745.36	1896.83
745.55	2132.14
745.74	2153.85
745.93	2031.99
746.11	1893.76
746.30	1862.83
746.49	2354.34
746.68	1997.59
746.86	1995.54
747.05	1946.80
747.24	2277.55
747.43	2382.20
747.62	2014.79
747.80	2138.28
747.99	2537.23
748.18	2525.35
748.37	2209.55
748.56	2230.03
748.74	2482.75
748.93	2421.31
749.12	2757.79
749.31	3966.92
749.49	5022.23
749.68	5765.65
749.87	6398.26
750.06	6490.83
750.24	6773.86
750.43	7324.36
750.62	8027.42
750.81	8712.06
750.99	9270.95
751.18	9146.84
751.37	7518.91
751.56	6605.72
751.74	6809.29
751.93	6387.61
752.12	5028.17
752.31	4614.69
752.49	4379.79
752.68	4292.34
752.87	3533.97
753.06	3254.63
753.24	3085.88
753.43	3039.60
753.62	2431.96
753.81	2297.41
753.99	2673.83
754.18	2390.18
754.37	2047.56
754.55	2097.12
754.74	2508.76
754.93	1928.16
755.12	1970.56
755.30	1918.95
755.49	2338.37
755.68	2196.86
755.86	2076.44
756.05	1871.02
756.24	2389.57
756.43	1952.12
756.61	1908.71
756.80	2028.10
756.99	2397.56
757.17	2131.32
757.36	1916.28
757.55	1994.31
757.74	2278.37
757.92	2174.74
758.11	1894.17
758.30	1814.91
758.48	2121.70
758.67	1968.92
758.86	2024.62
759.04	1913.21
759.23	2073.57
759.42	2155.90
759.60	1940.86
759.79	1996.16
759.98	2073.57
760.16	1996.56
760.35	1935.13
760.54	1866.11
760.73	2169.41
760.91	1910.55
761.10	1980.59
761.29	2083.60
761.47	2143.40
761.66	2554.43
761.85	2118.01
762.03	2443.64
762.22	3868.82
762.41	8001.41
762.59	12522.51
762.78	14802.31
762.97	18064.31
763.15	19269.34
763.34	17224.85
763.52	12844.86
763.71	12119.06
763.90	11222.05
764.08	10378.70
764.27	9538.82
764.46	9057.35
764.64	7939.16
764.83	7063.44
765.02	6302.62
765.20	5655.06
765.39	4789.79
765.58	3623.06
765.76	3144.04
765.95	2960.95
766.13	2650.07
766.32	2286.35
766.51	2245.19
766.69	2574.09
766.88	2388.34
767.07	1993.29
767.25	1867.54
767.44	2353.32
767.62	2405.54
767.81	1942.09
768.00	2028.92
768.18	2204.84
768.37	2145.04
768.56	1859.76
768.74	1986.12
768.93	1965.64
769.11	2224.09
769.30	2063.74
769.49	1984.07
769.67	2167.37
769.86	2091.59
770.04	1984.48
770.23	1956.01
770.42	2376.05
770.60	2163.27
770.79	1912.39
770.97	2051.66
771.16	2928.60
771.35	4079.14
771.53	5034.11
771.72	5766.67
771.90	6712.63
772.09	7231.17
772.27	6305.49
772.46	4920.04
772.65	5117.26
772.83	4748.01
773.02	4482.59
773.20	4026.31
773.39	4118.06
773.58	3894.21
773.76	3299.48
773.95	3103.70
774.13	3155.10
774.32	2758.00
774.50	2391.21
774.69	2308.47
774.87	2253.38
775.06	2646.59
775.25	1980.39
775.43	1996.97
775.62	2205.66
775.80	2264.44
775.99	2040.80
776.17	1975.68
776.36	2163.47
776.54	2357.21
776.73	1997.79
776.92	2097.94
777.10	2333.46
777.29	2226.14
777.47	1963.59
777.66	1958.47
777.84	2173.10
778.03	2163.68
778.21	1923.66
778.40	2045.31
778.58	2216.31
778.77	2331.00
778.95	1880.85
779.14	1939.84
779.32	2451.62
779.51	2300.69
779.70	1920.59
779.88	1831.91
780.07	2045.92
780.25	2574.30
780.44	2001.89
780.62	2079.71
780.81	2210.17
780.99	2180.06
781.18	1916.49
781.36	1901.95
781.55	2105.31
781.73	2418.04
781.92	1806.10
782.10	1860.99
782.29	2217.13
782.47	2372.16
782.66	1946.59
782.84	1825.76
783.03	1985.92
783.21	2318.71
783.40	1910.96
783.58	1883.72
783.77	2018.48
783.95	2100.19
784.14	1907.89
784.32	2010.08
784.51	2337.96
784.69	2059.64
784.88	1918.33
785.06	2050.02
785.24	2003.53
785.43	2353.53
785.61	2095.89
785.80	1959.91
785.98	2306.01
786.17	2187.85
786.35	1920.79
786.54	2121.29
786.72	2323.83
786.91	2361.31
787.09	1997.59
787.28	1847.27
787.46	2170.03
787.65	2283.28
787.83	1838.05
788.01	2018.68
788.20	2036.70
788.38	2244.57
788.57	2104.70
788.75	2087.49
788.94	2598.46
789.12	2462.89
789.31	2127.84
789.49	2209.35
789.67	2141.36
789.86	2307.65
790.04	2013.36
790.23	1929.60
790.41	2628.57
790.60	2186.41
790.78	2075.41
790.96	2053.91
791.15	2352.30
791.33	2156.72
791.52	2025.03
791.70	1897.24
791.89	2148.32
792.07	2287.99
792.25	2011.11
792.44	1855.87
792.62	2324.44
792.81	2053.91
792.99	1996.36
793.17	1954.17
793.36	2033.84
793.54	2762.71
793.73	3320.37
793.91	4216.97
794.10	5117.05
794.28	5805.79
794.46	5767.08
794.65	5523.37
794.83	4609.77
795.01	4389.00
795.20	4238.07
795.38	4003.57
795.57	3956.88
795.75	3801.03
795.93	3376.90
796.12	3211.21
796.30	3280.64
796.49	3113.94
796.67	2591.29
796.85	2639.83
797.04	2582.69
797.22	2506.51
797.40	2062.71
797.59	2152.62
797.77	2257.48
797.96	2071.52
798.14	1969.33
798.32	1977.11
798.51	2293.52
798.69	2508.15
798.87	2006.60
799.06	1993.49
799.24	1973.63
799.42	2646.39
799.61	3039.19
799.79	3455.74
799.98	4292.34
800.16	4449.21
800.34	5436.95
800.53	6714.88
800.71	7247.15
800.89	8526.51
801.08	8545.35
801.26	8465.69
801.44	7205.57
801.63	6083.90
801.81	5901.84
801.99	5384.72
802.18	5172.35
802.36	4979.23
802.54	4508.40
802.73	3960.77
802.91	3817.00
803.09	3645.38
803.28	3261.39
803.46	3034.07
803.64	3145.48
803.83	2477.02
804.01	2262.80
804.19	2164.29
804.38	2529.04
804.56	2424.18
804.74	2197.88
804.92	2183.13
805.11	2138.49
805.29	2427.05
805.47	2035.27
805.66	1990.63
805.84	2060.26
806.02	2421.11
806.21	2001.07
806.39	2255.02
806.57	2381.58
806.76	2369.30
806.94	2101.22
807.12	2067.22
807.30	2178.83
807.49	2348.20
807.67	2225.73
807.85	2284.92
808.04	2416.19
808.22	2679.97
808.40	2009.06
808.58	1946.39
808.77	2314.82
808.95	2616.89
809.13	2749.40
809.31	4759.68
809.50	6800.49
809.68	7935.67
809.86	8713.29
810.05	9502.98
810.23	10497.89
810.41	13492.22
810.59	21191.56
810.78	25998.76
810.96	30169.45
811.14	32574.58
811.32	31673.07
811.51	25405.05
811.69	20625.71
811.87	20433.40
812.05	17700.59
812.24	16631.76
812.42	15512.34
812.60	13876.22
812.78	11639.22
812.97	9985.28
813.15	9199.27
813.33	7899.83
813.51	6725.94
813.70	5416.06
813.88	4554.89
814.06	3860.01
814.24	3136.05
814.42	2542.96
814.61	2646.59
814.79	2787.70
814.97	2066.61
815.15	2094.05
815.34	2318.71
815.52	2352.91
815.70	1951.92
815.88	2040.19
816.06	2040.60
816.25	2093.43
816.43	1957.45
816.61	2115.35
816.79	2438.11
816.98	1986.73
817.16	1988.99
817.34	2024.01
817.52	2348.82
817.70	2535.79
817.89	2094.05
818.07	1968.10
818.25	2166.75
818.43	2215.49
818.61	2016.02
818.80	1981.61
818.98	2456.95
819.16	2187.64
819.34	1892.73
819.52	2211.81
819.70	2011.11
819.89	2144.02
820.07	1841.94
820.25	1819.21
820.43	2153.44
820.61	2291.06
820.80	1970.35
820.98	1829.86
821.16	1854.23
821.34	1905.23
821.52	1932.67
821.70	2059.44
821.89	2132.35
822.07	2036.09
822.25	2000.46
822.43	1880.65
822.61	2388.55
822.79	2174.94
822.98	1940.45
823.16	1776.82
823.34	2145.25
823.52	2334.07
823.70	1979.98
823.88	1804.47
824.06	2240.07
824.25	2095.89
824.43	2102.85
824.61	1939.84
824.79	2206.07
824.97	2285.53
825.15	2279.59
825.33	2831.93
825.52	3698.63
825.70	3970.60
825.88	4134.23
826.06	4477.27
826.24	4719.75
826.42	4365.65
826.60	3571.25
826.78	3633.92
826.97	3381.20
827.15	3578.21
827.33	3019.93
827.51	3012.77
827.69	2874.12
827.87	2895.21
828.05	2609.32
828.23	2371.14
828.41	2672.39
828.60	2579.42
828.78	2078.89
828.96	2234.74
829.14	2156.72
829.32	2187.44
829.50	1981.82
829.68	1951.10
829.86	2056.78
830.04	2252.15
830.22	2073.57
830.41	1895.80
830.59	2095.69
830.77	2242.94
830.95	1910.14
831.13	1905.63
831.31	1986.32
831.49	2269.15
831.67	2075.82
831.85	2084.42
832.03	2054.32
832.21	2258.70
832.39	1846.65
832.57	1941.68
832.76	2291.47
832.94	2119.24
833.12	1829.25
833.30	1927.96
833.48	2342.26
833.66	2227.58
833.84	1905.43
834.02	1999.64
834.20	2290.24
834.38	2261.78
834.56	1814.09
834.74	1872.05
834.92	1934.31
835.10	2453.26
835.28	1994.31
835.46	2015.82
835.64	2108.18
835.82	1987.14
836.01	2221.64
836.19	2162.65
836.37	2031.38
836.55	1933.49
836.73	1886.18
836.91	1863.24
837.09	2236.18
837.27	2371.34
837.45	1853.62
837.63	1868.98
837.81	1970.97
837.99	2171.87
838.17	2087.90
838.35	2025.03
838.53	2671.17
838.71	2403.91
838.89	2091.39
839.07	2096.51
839.25	2318.71
839.43	2466.78
839.61	2535.18
839.79	3882.54
839.97	5407.87
840.15	6187.53
840.33	6680.06
840.51	7175.26
840.69	6998.73
840.87	5867.64
841.05	5214.13
841.23	5608.57
841.41	7120.99
841.59	9815.71
841.77	10863.25
841.95	11896.65
842.13	12808.41
842.31	12139.95
842.49	9809.57
842.67	8294.48
842.85	8277.07
843.03	7228.51
843.21	6744.58
843.39	6390.07
843.57	5892.83
843.75	5413.40
843.93	4564.31
844.11	4125.02
844.29	4002.75
844.47	3657.88
844.65	3475.61
844.83	3020.96
845.01	2850.16
845.19	2814.52
845.36	2363.77
845.54	2284.30
845.72	2303.76
845.90	2326.90
846.08	1973.42
846.26	2060.87
846.44	2214.26
846.62	2234.95
846.80	2087.29
846.98	1910.14
847.16	2041.21
847.34	2150.57
847.52	1877.17
847.70	1824.54
847.88	2086.27
848.06	2359.26
848.24	2067.63
848.41	1843.17
848.59	2283.69
848.77	2174.53
848.95	1932.87
849.13	1892.32
849.31	2208.73
849.49	2171.26
849.67	1890.89
849.85	1842.15
850.03	2155.90
850.21	2161.02
850.39	1835.80
850.57	2019.50
850.74	2355.98
850.92	2436.67
851.10	2524.53
851.28	2943.96
851.46	3491.58
851.64	4096.76
851.82	3666.89
852.00	3757.61
852.18	3766.21
852.36	3339.83
852.53	3007.24
852.71	2957.27
852.89	3044.72
853.07	2958.09
853.25	2615.46
853.43	2386.50
853.61	2591.09
853.79	2562.42
853.97	2213.85
854.14	2169.62
854.32	2526.37
854.50	2388.34
854.68	2092.61
854.86	1981.20
855.04	2043.05
855.22	2268.33
855.40	1829.25
855.57	1900.11
855.75	2254.61
855.93	2180.27
856.11	1795.04
856.29	1903.79
856.47	1976.29
856.65	2131.73
856.82	1853.82
857.00	1838.87
857.18	2094.25
857.36	1955.61
857.54	1999.23
857.72	2055.75
857.89	2224.71
858.07	2130.50
858.25	2109.82
858.43	1825.76
858.61	2054.32
858.79	2048.79
858.97	1851.77
859.14	1991.44
859.32	2050.43
859.50	2062.30
859.68	2028.10
859.86	1927.96
860.03	2199.31
860.21	2281.64
860.39	2017.86
860.57	2136.03
860.75	2248.67
860.93	2495.86
861.10	2193.37
861.28	1958.47
861.46	2244.78
861.64	2291.47
861.82	2006.39
861.99	2090.77
862.17	2353.94
862.35	2334.68
862.53	1961.54
862.71	1986.73
862.88	2182.32
863.06	2240.68
863.24	1916.28
863.42	1878.40
863.60	2066.81
863.77	2197.68
863.95	1776.41
864.13	1913.83
864.31	2052.27
864.49	2208.73
864.66	1826.79
864.84	1845.22
865.02	2120.88
865.20	2575.12
865.37	1988.58
865.55	1841.94
865.73	1953.15
865.91	2379.74
866.09	2265.67
866.26	2234.54
866.44	2532.11
866.62	2369.91
866.80	2120.06
866.97	2116.37
867.15	2263.21
867.33	2319.73
867.51	2171.46
867.68	2096.92
867.86	2126.41
868.04	2075.00
868.22	1821.26
868.39	1959.29
868.57	2207.10
868.75	2376.67
868.93	1825.15
869.10	1876.35
869.28	2435.85
869.46	2350.66
869.64	1941.47
869.81	1872.25
869.99	2119.44
870.17	2103.88
870.35	1838.26
870.52	1892.12
870.70	2244.57
870.88	1994.93
871.05	1848.29
871.23	1725.41
871.41	2095.89
871.59	2081.15
871.76	1903.79
871.94	1843.58
872.12	2058.82
872.29	1834.78
872.47	1880.44
872.65	1812.25
872.83	2135.21
873.00	2302.12
873.18	1931.44
873.36	1874.30
873.53	2234.54
873.71	1858.12
873.89	1821.67
874.06	1882.08
874.24	2164.09
874.42	2299.66
874.60	2053.29
874.77	1989.81
874.95	2003.32
875.13	2290.86
875.30	1950.08
875.48	1888.23
875.66	2420.08
875.83	2013.56
876.01	1928.37
876.19	2064.97
876.36	1912.80
876.54	2147.30
876.72	1872.25
876.89	2011.51
877.07	2224.71
877.25	1822.90
877.42	1943.73
877.60	1879.63
877.78	2424.59
877.95	2035.89
878.13	1844.40
878.31	2008.85
878.48	2251.54
878.66	2204.84
878.84	1912.60
879.01	1920.18
879.19	2159.99
879.37	2206.69
879.54	1929.60
879.72	1798.94
879.90	1801.60
880.07	2227.99
880.25	1665.82
880.42	2047.15
880.60	2097.53
880.78	2217.75
880.95	1898.06
881.13	1952.53
881.31	2081.15
881.48	1993.49
881.66	1847.06
881.83	1988.58
882.01	1956.42
882.19	1866.31
882.36	1924.89
882.54	1863.86
882.72	2170.03
882.89	2098.35
883.07	1829.04
883.24	1871.43
883.42	2234.13
883.60	2107.77
883.77	1809.99
883.95	1968.71
884.12	2325.47
884.30	2231.26
884.48	2163.06
884.65	2074.39
884.83	2280.62
885.00	2290.45
885.18	1881.26
885.36	1978.34
885.53	2252.36
885.71	2360.49
885.88	1843.79
886.06	1881.47
886.23	2209.76
886.41	2050.84
886.59	1901.13
886.76	1829.25
886.94	2187.85
887.11	2581.26
887.29	1908.50
887.47	1813.89
887.64	2285.33
887.82	2311.54
887.99	1729.71
888.17	1898.88
888.34	2042.23
888.52	1910.96
888.69	1833.75
888.87	1789.11
889.05	2014.79
889.22	2010.90
889.40	1858.12
889.57	2085.04
889.75	2330.79
889.92	2020.12
890.10	1770.47
890.27	1932.26
890.45	1956.63
890.62	1823.92
890.80	1795.25
890.98	1692.65
891.15	2343.08
891.33	2228.39
891.50	1825.15
891.68	1762.28
891.85	2198.70
892.03	2196.45
892.20	1831.91
892.38	1775.79
892.55	2200.54
892.73	2200.13
892.90	1732.99
893.08	1844.61
893.25	1957.86
893.43	1999.02
893.60	1939.84
893.78	1695.72
893.95	2133.98
894.13	2076.44
894.30	1846.86
894.48	1891.91
894.65	2200.54
894.83	2125.38
895.00	1730.53
895.18	1697.36
895.35	2239.25
895.53	2204.64
895.70	1795.66
895.88	2041.21
896.05	2228.39
896.23	1898.88
896.40	1875.53
896.58	1947.82
896.75	2202.80
896.93	2332.23
897.10	1892.53
897.28	1762.28
897.45	2120.88
897.63	2180.27
897.80	1978.13
897.98	1852.39
898.15	2166.96
898.33	1994.72
898.50	1924.07
898.67	1885.97
898.85	2047.35
899.02	2159.79
899.20	2121.49
899.37	1890.68
899.55	2094.25
899.72	2336.94
899.90	1842.35
900.07	1798.73
900.25	2144.02
900.42	2266.49
900.59	1863.86
900.77	1959.50
900.94	2164.91
901.12	2109.00
901.29	1860.78
901.47	2010.90
901.64	2207.30
901.82	2059.03
901.99	1673.19
902.16	1762.07
902.34	2269.35
902.51	2114.32
902.69	1823.10
902.86	1907.48
903.03	2681.20
903.21	2066.81
903.38	1850.13
903.56	1812.25
903.73	2267.72
903.91	2033.63
904.08	1794.23
904.25	1688.55
904.43	1951.71
904.60	2194.60
904.78	1862.01
904.95	1811.02
905.12	2039.16
905.30	2376.67
905.47	1970.97
905.65	2089.13
905.82	2134.80
905.99	2233.92
906.17	1952.12
906.34	1969.12
906.52	2084.01
906.69	2357.21
906.86	2095.48
907.04	2092.00
907.21	2384.04
907.38	2335.71
907.56	1931.44
907.73	1872.05
907.91	2408.62
908.08	2325.06
908.25	1928.98
908.43	1803.65
908.60	2204.64
908.77	2149.34
908.95	1898.88
909.12	1829.04
909.30	2220.82
909.47	1871.43
909.64	1911.98
909.82	2076.03
909.99	2052.88
910.16	2099.37
910.34	1831.50
910.51	1833.34
910.68	2143.81
910.86	2093.43
911.03	1837.03
911.20	2225.73
911.38	3464.75
911.55	4939.09
911.72	5361.58
911.90	5773.43
912.07	6443.32
912.24	6425.50
912.42	4931.71
912.59	3797.55
912.76	3900.77
912.94	3389.18
913.11	2947.64
913.28	2709.87
913.46	2698.20
913.63	2804.28
913.80	2800.39
913.98	2423.57
914.15	2753.70
914.32	2725.23
914.49	2417.83
914.67	2192.35
914.84	2505.28
915.01	2565.08
915.19	2285.33
915.36	2121.08
915.53	2469.65
915.71	2333.66
915.88	2066.81
916.05	1912.39
916.22	2325.06
916.40	2158.97
916.57	1783.58
916.74	2024.01
916.92	2347.59
917.09	1932.87
917.26	1825.56
917.43	1788.90
917.61	2048.99
917.78	1854.03
917.95	1823.31
918.13	1788.70
918.30	2470.67
918.47	2128.66
918.64	1879.42
918.82	1869.80
918.99	2167.37
919.16	2534.36
919.33	2080.53
919.51	2056.98
919.68	2210.78
919.85	2418.04
920.02	1878.19
920.20	1961.75
920.37	2397.56
920.54	2263.21
920.71	1855.46
920.89	1890.48
921.06	2440.56
921.23	1963.18
921.40	1925.50
921.58	2352.30
921.75	3257.70
921.92	2745.71
922.09	2792.00
922.27	2724.41
922.44	2832.75
922.61	2674.03
922.78	2181.09
922.96	2131.32
923.13	2271.40
923.30	2431.35
923.47	1917.72
923.64	1963.80
923.82	2278.37
923.99	2236.59
924.16	2072.75
924.33	1882.70
924.50	2186.00
924.68	2432.17
924.85	1892.53
925.02	1941.27
925.19	2325.06
925.36	2190.71
925.54	1954.99
925.71	1998.41
925.88	2654.58
926.05	2068.04
926.22	1827.40
926.40	1972.40
926.57	2109.82
926.74	2201.36
926.91	1845.02
927.08	2035.07
927.26	2271.20
927.43	2097.73
927.60	1838.05
927.77	1901.33
927.94	2370.93
928.11	2289.63
928.29	1744.87
928.46	1934.51
928.63	1985.71
928.80	2050.22
928.97	1974.24
929.14	1850.54
929.32	2440.56
929.49	2097.73
929.66	1839.90
929.83	1750.40
930.00	1997.59
930.17	2153.44
930.35	1771.70
930.52	1838.05
930.69	2335.30
930.86	1895.80
931.03	1916.49
931.20	1654.55
931.37	2273.86
931.55	2077.25
931.72	1920.99
931.89	1763.10
932.06	1900.72
932.23	2380.15
932.40	1954.38
932.57	1984.28
932.74	2292.09
932.92	2299.87
933.09	2019.71
933.26	1615.85
933.43	2012.33
933.60	2149.55
933.77	1905.23
933.94	1942.09
934.11	2041.21
934.29	2118.21
934.46	1792.18
934.63	1952.53
934.80	1904.41
934.97	2112.68
935.14	1919.56
935.31	1776.20
935.48	1994.52
935.65	2172.89
935.82	1932.05
936.00	1790.54
936.17	2357.42
936.34	2066.81
936.51	1982.02
936.68	1770.47
936.85	2143.40
937.02	2137.06
937.19	1970.56
937.36	1901.95
937.53	2154.87
937.70	2247.03
937.87	1838.05
938.05	1986.32
938.22	2110.02
938.39	1911.98
938.56	1884.13
938.73	1763.30
938.90	2052.27
939.07	1974.24
939.24	1952.33
939.41	1713.74
939.58	2154.67
939.75	2183.34
939.92	1882.90
940.09	2149.34
940.26	2036.30
940.43	2251.33
940.60	1900.72
940.77	1868.98
940.95	2133.98
941.12	2202.18
941.29	1842.35
941.46	1893.55
941.63	2314.00
941.80	2324.24
941.97	1758.18
942.14	1709.64
942.31	2186.41
942.48	2047.97
942.65	1985.92
942.82	1884.75
942.99	2182.93
943.16	2100.81
943.33	1760.43
943.50	1826.58
943.67	2208.94
943.84	2247.65
944.01	1837.85
944.18	1821.87
944.35	2322.40
944.52	1939.22
944.69	1919.97
944.86	1754.49
945.03	2207.71
945.20	2565.49
945.37	1720.70
945.54	1926.93
945.71	2358.65
945.88	2427.25
946.05	1827.61
946.22	1782.14
946.39	2332.84
946.56	2076.64
946.73	1722.34
946.90	1800.16
947.07	2037.32
947.24	2065.79
947.41	1733.40
947.58	1959.70
947.75	2204.84
947.92	2141.36
948.09	1666.84
948.26	1751.63
948.43	2116.58
948.60	2383.43
948.77	1800.16
948.94	1852.80
949.11	2207.30
949.27	2156.10
949.44	1832.11
949.61	1774.77
949.78	2148.73
949.95	2278.37
950.12	1750.81
950.29	1719.47
950.46	1984.48
950.63	2249.08
950.80	1785.01
950.97	1858.33
951.14	2227.58
951.31	2014.59
951.48	1802.62
951.65	1743.64
951.82	2402.06
951.99	2128.25
952.15	1734.22
952.32	1845.22
952.49	1966.05
952.66	2031.18
952.83	1789.31
953.00	1760.43
953.17	2034.04
953.34	2247.03
953.51	1870.82
953.68	1889.87
953.85	2256.86
954.02	2257.07
954.18	1886.38
954.35	1852.39
954.52	1945.78
954.69	2095.89
954.86	1731.35
955.03	1877.78
955.20	2180.68
955.37	2030.36
955.54	1832.52
955.71	1795.66
955.87	2118.01
956.04	2366.84
956.21	1830.88
956.38	1767.81
956.55	2084.83
956.72	2490.74
956.89	1876.14
957.06	1801.39
957.23	1970.97
957.39	2316.25
957.56	1847.68
957.73	1740.57
957.90	1717.43
958.07	2411.89
958.24	1862.83
958.41	1847.68
958.57	2213.04
958.74	2083.81
958.91	1746.51
959.08	1803.85
959.25	2196.65
959.42	2023.60
959.59	1841.74
959.75	1843.99
959.92	2293.93
960.09	2250.92
960.26	1776.20
960.43	1887.00
960.60	2124.97
960.76	2060.46
960.93	1723.16
961.10	1899.29
961.27	2223.07
961.44	2044.49
961.61	1743.44
961.77	1715.58
961.94	2102.04
962.11	2237.41
962.28	1812.66
962.45	1737.70
962.62	2066.61
962.78	2224.50
962.95	1698.59
963.12	1812.66
963.29	2162.65
963.46	2566.51
963.62	1908.91
963.79	1813.07
963.96	2489.92
964.13	2037.52
964.30	1923.04
964.46	1822.49
964.63	1934.51
964.80	2571.22
964.97	1791.36
965.14	2122.92
965.30	2393.67
965.47	2460.22
965.64	2237.00
965.81	2171.67
965.98	2524.94
966.14	2244.16
966.31	1936.15
966.48	1939.43
966.65	2383.02
966.81	2234.13
966.98	1916.49
967.15	1913.01
967.32	2136.44
967.49	2046.33
967.65	1746.92
967.82	1713.95
967.99	2099.58
968.16	1865.90
968.32	2020.32
968.49	1857.10
968.66	2069.47
968.83	2406.16
968.99	1954.79
969.16	1811.43
969.33	2327.31
969.50	2214.06
969.66	1983.05
969.83	2106.34
970.00	2224.30
970.17	2181.09
970.33	1845.22
970.50	1743.85
970.67	2347.59
970.84	2324.24
971.00	1781.94
971.17	1719.88
971.34	2198.29
971.50	2075.62
971.67	1909.12
971.84	1850.34
972.01	1871.02
972.17	1725.62
972.34	1733.81
972.51	1997.79
972.67	2274.88
972.84	2119.65
973.01	1758.39
973.18	1806.51
973.34	2216.31
973.51	1915.06
973.68	1863.45
973.84	1865.70
974.01	2031.38
974.18	2359.67
974.34	1898.26
974.51	1918.95
974.68	1965.64
974.85	2396.33
975.01	1919.36
975.18	1838.26
975.35	2090.57
975.51	1911.98
975.68	1696.13
975.85	1992.26
976.01	1956.01
976.18	2349.63
976.35	1814.30
976.51	1836.82
976.68	2359.87
976.85	2287.58
977.01	1836.82
977.18	1922.02
977.35	2181.29
977.51	1910.14
977.68	1662.13
977.85	1774.97
978.01	2289.83
978.18	2214.06
978.35	1929.80
978.51	1925.71
978.68	2280.21
978.85	2381.58
979.01	1878.40
979.18	1876.55
979.34	2053.09
979.51	2129.48
979.68	1806.72
979.84	1901.74
980.01	2543.17
980.18	2121.90
980.34	1802.83
980.51	1907.07
980.67	2198.49
980.84	2241.71
981.01	1835.18
981.17	1911.98
981.34	1810.40
981.51	2180.27
981.67	1789.72
981.84	1928.37
982.00	2178.42
982.17	2075.82
982.34	1663.97
982.50	1573.04
982.67	2347.38
982.83	1999.64
983.00	1722.34
983.17	1605.81
983.33	2270.99
983.50	1826.58
983.66	1721.93
983.83	1612.57
984.00	2005.17
984.16	2082.37
984.33	1607.45
984.49	1640.42
984.66	1941.88
984.83	2208.73
984.99	1659.06
985.16	1604.58
985.32	2157.74
985.49	2229.62
985.65	1743.23
985.82	1601.72
985.99	2341.65
986.15	2099.58
986.32	1741.39
986.48	1674.42
986.65	2009.67
986.81	2198.49
986.98	1624.04
987.14	1705.96
987.31	2096.92
987.48	1825.97
987.64	1547.65
987.81	1612.78
987.97	2469.24
988.14	1943.93
988.30	1652.10
988.47	1507.51
988.63	2156.72
988.80	1910.35
988.96	1704.11
989.13	1722.96
989.30	2017.45
989.46	2237.20
989.63	1592.91
989.79	1573.45
989.96	2039.78
990.12	2330.38
990.29	1658.65
990.45	1685.89
990.62	2060.67
990.78	2306.63
990.95	1739.34
991.11	1666.84
991.28	1991.44
991.44	2113.91
991.61	1529.42
991.77	1725.82
991.94	2102.24
992.10	2270.58
992.27	1709.44
992.43	1680.15
992.60	2146.48
992.76	2023.39
992.93	1868.57
993.09	1602.33
993.26	2251.13
993.42	2400.22
993.59	1663.16
993.75	1591.68
993.92	1970.97
994.08	1953.56
994.25	1726.23
994.41	1625.68
994.58	2184.77
994.74	2343.49
994.91	1589.84
995.07	1769.85
995.24	2052.47
995.40	2050.84
995.56	1782.76
995.73	1736.47
995.89	2345.54
996.06	2049.81
996.22	1620.56
996.39	1577.14
996.55	2057.18
996.72	2148.32
996.88	1581.44
997.05	1609.70
997.21	2419.47
997.37	2144.43
997.54	1728.49
997.70	1667.87
997.87	2126.00
998.03	2072.13
998.20	1556.25
998.36	1553.18
998.52	2202.18
998.69	2253.58
998.85	1573.45
999.02	1664.79
999.18	2230.03
999.35	2240.07
999.51	1700.84
999.67	1680.56
999.84	1891.50
1000.00	2197.27
1000.17	1748.56
1000.33	1619.12
1000.49	1993.49
1000.66	2051.25
1000.82	1624.04
1000.99	1690.19
1001.15	2256.45
1001.31	2020.12
1001.48	1660.49
1001.64	1754.49
1001.81	2051.04
1001.97	2430.94
1002.13	1678.52
1002.30	1697.56
1002.46	2294.34
1002.63	2032.81
1002.79	1746.71
1002.95	1626.29
1003.12	2228.19
1003.28	2130.30
1003.45	1646.16
1003.61	1623.63
1003.77	2096.92
1003.94	1867.75
1004.10	1657.83
1004.26	1735.45
1004.43	2160.20
1004.59	2374.41
1004.75	1651.69
1004.92	1641.24
1005.08	2024.01
1005.25	2100.19
1005.41	1660.08
1005.57	1752.45
1005.74	2277.55
1005.90	2009.47
1006.06	1808.56
1006.23	1676.88
1006.39	2211.60
1006.55	2554.02
1006.72	1789.92
1006.88	1611.75
1007.04	1952.12
1007.21	2054.52
1007.37	1704.52
1007.53	1651.48
1007.70	2314.20
1007.86	2207.30
1008.02	1746.92
1008.19	1639.40
1008.35	2101.01
1008.51	1928.16
1008.68	1676.88
1008.84	1601.72
1009.00	1921.40
1009.17	2257.27
1009.33	1827.61
1009.49	1731.56
1009.65	1951.30
1009.82	2121.90
1009.98	1725.62
1010.14	1570.18
1010.31	2220.00
1010.47	2171.05
1010.63	1740.98
1010.80	1719.27
1010.96	2165.93
1011.12	2033.22
1011.28	1676.88
1011.45	1621.17
1011.61	2525.76
1011.77	1925.30
1011.94	1612.98
1012.10	1614.62
1012.26	1915.87
1012.42	1968.51
1012.59	1709.64
1012.75	1678.11
1012.91	2050.84
1013.07	2235.77
1013.24	1629.77
1013.40	1632.85
1013.56	2090.36
1013.72	2029.74
1013.89	1718.86
1014.05	1767.81
1014.21	2432.58
1014.37	2482.34
1014.54	1707.39
1014.70	1578.78
1014.86	2027.28
1015.02	1893.55
1015.19	1662.95
1015.35	1607.04
1015.51	2050.22
1015.67	2004.96
1015.84	1678.72
1016.00	1666.84
1016.16	2235.77
1016.32	2196.65
1016.49	1663.57
1016.65	1578.78
1016.81	2059.85
1016.97	2174.33
1017.14	1787.47
1017.30	1702.68
1017.46	1988.58
1017.62	2134.19
1017.78	1733.40
1017.95	1638.17
1018.11	2192.15
1018.27	2490.74
1018.43	1823.31
1018.59	1723.98
1018.76	2169.62
1018.92	2525.35
1019.08	1640.83
1019.24	1685.89
1019.40	2306.42
1019.57	2100.60
1019.73	1768.22
1019.89	1662.54
1020.05	2089.34
1020.21	2432.58
1020.38	1645.95
1020.54	1828.22
1020.70	2177.81
1020.86	2179.86
1021.02	1658.85
1021.18	1642.68
1021.35	1997.79
1021.51	2132.55
1021.67	1828.63
1021.83	1692.85
1021.99	2063.94
1022.15	2119.65
1022.32	1729.30
1022.48	1702.07
1022.64	2314.41
1022.80	2331.41
1022.96	1738.52
1023.12	1591.07
1023.29	2264.44
1023.45	2174.94
1023.61	1641.86
1023.77	1862.22
1023.93	2116.99
1024.09	1936.15
1024.25	1651.89
1024.42	1613.80
1024.58	1991.44
1024.74	2097.32
1024.90	1668.28
1025.06	1742.62
1025.22	1983.87
1025.38	2339.60
1025.54	1613.18
1025.71	1766.37
1025.87	2170.44
1026.03	2168.80
1026.19	1639.40
1026.35	1834.37
1026.51	2186.00
1026.67	2046.94
1026.83	1718.45
1026.99	1805.49
1027.16	2142.79
1027.32	2069.47
1027.48	1685.89
1027.64	1627.11
1027.80	2175.56
1027.96	2091.80
1028.12	1663.36
1028.28	1654.14
1028.44	2136.65
1028.60	2353.73
1028.77	1802.83
1028.93	1709.44
1029.09	1991.24
1029.25	1894.58
1029.41	1695.72
1029.57	1762.89
1029.73	2131.32
1029.89	2317.89
1030.05	1773.34
1030.21	1726.23
1030.37	2488.49
1030.53	2189.48
1030.69	1702.07
1030.85	1601.10
1031.02	1927.14
1031.18	2074.39
1031.34	1651.28
1031.50	1790.54
1031.66	1949.67
1031.82	2332.64
1031.98	1721.32
1032.14	1633.87
1032.30	1901.95
1032.46	2210.78
1032.62	1798.12
1032.78	1592.50
1032.94	1975.27
1033.10	2007.62
1033.26	1733.61
1033.42	1828.43
1033.58	2463.09
1033.74	1989.40
1033.90	1657.83
1034.06	1865.29
1034.22	2452.24
1034.38	2272.63
1034.54	1723.16
1034.70	1747.53
1034.86	2420.08
>>>>>End Processed Spectral Data<<<<<
