SpectraSuite Data File
++++++++++++++++++++++++++++++++++++
Date: Thu Mar 30 14:16:28 PDT 2017
User: UCSD _CER
Dark Spectrum Present: No
Reference Spectrum Present: No
Number of Sampled Component Spectra: 1
Spectrometers: USB4C00073
Integration Time (usec): 380000 (USB4C00073)
Spectra Averaged: 10 (USB4C00073)
Boxcar Smoothing: 0 (USB4C00073)
Correct for Electrical Dark: No (USB4C00073)
Strobe/Lamp Enabled: No (USB4C00073)
Correct for Detector Non-linearity: No (USB4C00073)
Correct for Stray Light: No (USB4C00073)
Number of Pixels in Processed Spectrum: 3648
>>>>>Begin Processed Spectral Data<<<<<
345.37	1218.13
345.58	1218.13
345.80	1218.13
346.01	1240.66
346.22	1227.14
346.43	2034.25
346.65	1872.05
346.86	2408.82
347.07	2325.67
347.28	1821.26
347.50	1796.07
347.71	2102.24
347.92	1833.14
348.13	1792.38
348.35	1753.68
348.56	2095.48
348.77	1888.02
348.98	1792.59
349.20	1679.33
349.41	2092.61
349.62	2219.79
349.83	1908.91
350.05	1801.80
350.26	2151.19
350.47	2287.58
350.68	1830.68
350.90	1727.46
351.11	2341.85
351.32	2282.67
351.53	1845.63
351.75	1762.48
351.96	2138.90
352.17	2047.15
352.38	1879.63
352.60	1863.45
352.81	2113.30
353.02	2407.18
353.23	1784.19
353.44	1824.13
353.66	1992.06
353.87	2038.34
354.08	1867.13
354.29	1794.23
354.51	1979.77
354.72	2034.25
354.93	1756.54
355.14	1763.30
355.35	1808.97
355.57	2239.25
355.78	1813.68
355.99	1884.54
356.20	2104.90
356.42	2017.86
356.63	1877.37
356.84	1774.97
357.05	2216.31
357.26	2461.45
357.48	1920.79
357.69	1853.82
357.90	2144.84
358.11	2017.86
358.32	1820.64
358.54	1855.46
358.75	2016.43
358.96	2195.22
359.17	1787.67
359.38	1835.39
359.60	2208.94
359.81	2029.33
360.02	1822.08
360.23	1767.19
360.44	1941.27
360.66	2222.66
360.87	1767.60
361.08	1754.70
361.29	2139.72
361.50	2089.34
361.72	1772.93
361.93	1880.24
362.14	2120.06
362.35	1846.04
362.56	1949.87
362.77	1696.13
362.99	2183.95
363.20	2048.79
363.41	1885.97
363.62	1680.36
363.83	2174.12
364.05	2230.24
364.26	1766.78
364.47	1788.08
364.68	2262.80
364.89	1941.27
365.10	1730.33
365.32	1840.51
365.53	1923.66
365.74	1971.99
365.95	1826.17
366.16	1693.67
366.37	2034.04
366.59	2033.43
366.80	1816.34
367.01	1699.20
367.22	2420.29
367.43	2576.75
367.64	1876.14
367.86	1852.80
368.07	2153.23
368.28	2266.28
368.49	1707.60
368.70	1848.91
368.91	2002.91
369.12	2059.23
369.34	1741.59
369.55	1723.57
369.76	2080.12
369.97	1982.43
370.18	1729.71
370.39	1777.43
370.60	1855.05
370.82	1910.96
371.03	1852.18
371.24	1744.05
371.45	2196.86
371.66	2171.26
371.87	1805.08
372.08	1812.86
372.30	1945.16
372.51	2222.87
372.72	1931.03
372.93	1803.65
373.14	2354.75
373.35	1953.76
373.56	1728.90
373.78	1817.78
373.99	2223.68
374.20	2562.21
374.41	1789.72
374.62	1816.55
374.83	2346.77
375.04	2021.75
375.25	1846.65
375.47	1847.06
375.68	1994.93
375.89	2203.41
376.10	1838.87
376.31	1901.54
376.52	2165.32
376.73	2124.97
376.94	1872.87
377.15	1740.98
377.37	2099.99
377.58	2029.13
377.79	1713.74
378.00	1747.94
378.21	2124.15
378.42	2172.49
378.63	1870.61
378.84	1921.20
379.05	2239.86
379.27	2107.16
379.48	1893.76
379.69	1781.12
379.90	2292.91
380.11	1770.88
380.32	1811.02
380.53	1937.38
380.74	2312.77
380.95	2076.23
381.16	1875.73
381.37	1878.60
381.59	2301.30
381.80	2249.90
382.01	1791.77
382.22	1723.37
382.43	2167.37
382.64	2057.18
382.85	1751.01
383.06	1867.54
383.27	2177.40
383.48	2019.30
383.69	1829.25
383.91	1764.53
384.12	2197.06
384.33	2214.67
384.54	1884.95
384.75	1764.53
384.96	2670.76
385.17	2287.38
385.38	1816.34
385.59	1805.49
385.80	2207.10
386.01	2355.98
386.22	1907.27
386.43	1803.65
386.64	2453.67
386.86	2073.36
387.07	1930.01
387.28	1727.87
387.49	1986.94
387.70	2290.04
387.91	1936.35
388.12	1793.20
388.33	2169.41
388.54	1992.67
388.75	1765.96
388.96	1894.99
389.17	1977.31
389.38	2030.36
389.59	1910.14
389.80	1925.50
390.01	2063.94
390.22	1993.29
390.43	1910.14
390.64	1729.30
390.86	2168.39
391.07	2223.27
391.28	1843.17
391.49	1886.18
391.70	1887.20
391.91	1970.35
392.12	1840.51
392.33	1889.25
392.54	2122.92
392.75	2076.03
392.96	1943.52
393.17	1810.61
393.38	2475.58
393.59	2268.94
393.80	1739.34
394.01	1842.35
394.22	2061.89
394.43	2350.66
394.64	1724.59
394.85	1890.28
395.06	2086.68
395.27	2100.81
395.48	1829.04
395.69	1726.85
395.90	2041.82
396.11	2071.32
396.32	1803.65
396.53	1912.19
396.74	2030.15
396.95	2283.69
397.16	1787.88
397.37	1702.48
397.58	2233.92
397.79	2071.32
398.00	1876.96
398.21	1845.83
398.42	2123.74
398.63	2438.31
398.84	1802.01
399.05	1737.70
399.26	2290.65
399.47	2143.20
399.68	1682.20
399.89	1780.50
400.10	1903.38
400.31	2021.96
400.52	1892.73
400.73	1811.84
400.94	1862.01
401.15	2150.78
401.36	1842.56
401.57	1885.16
401.78	2271.20
401.99	2243.96
402.20	1766.17
402.41	1965.03
402.62	2341.24
402.83	2038.55
403.04	1793.00
403.25	1981.20
403.46	2114.53
403.67	2288.40
403.88	1821.67
404.09	1775.18
404.30	1929.19
404.51	1943.93
404.72	1756.95
404.93	1957.45
405.14	1950.49
405.35	2021.14
405.56	1850.95
405.77	1773.13
405.98	2133.16
406.19	2072.54
406.40	1758.59
406.61	1808.77
406.82	2014.18
407.03	2485.62
407.24	1757.77
407.45	1857.51
407.66	2151.80
407.87	2219.59
408.08	1901.54
408.29	1905.23
408.49	2184.16
408.70	2078.07
408.91	1794.02
409.12	1917.72
409.33	1903.59
409.54	2285.74
409.75	1770.47
409.96	1828.84
410.17	2224.91
410.38	2047.76
410.59	1786.44
410.80	1927.96
411.01	2066.81
411.22	2075.82
411.43	1885.36
411.64	1771.08
411.85	1943.11
412.06	1926.32
412.27	1642.88
412.47	1791.15
412.68	2055.96
412.89	2122.11
413.10	1791.15
413.31	1739.34
413.52	2395.92
413.73	2401.24
413.94	1775.79
414.15	1933.08
414.36	1983.25
414.57	1932.67
414.78	1731.35
414.99	1739.34
415.19	2141.77
415.40	2078.48
415.61	1967.28
415.82	1866.31
416.03	2157.74
416.24	2127.84
416.45	1819.62
416.66	1704.11
416.87	1851.57
417.08	2177.40
417.29	1741.18
417.50	1845.22
417.70	2155.90
417.91	2140.54
418.12	1862.01
418.33	1802.62
418.54	2130.09
418.75	2232.08
418.96	1948.85
419.17	1849.52
419.38	2265.87
419.59	2135.21
419.79	1895.40
420.00	1847.88
420.21	2533.75
420.42	2092.41
420.63	1775.38
420.84	1876.14
421.05	2064.15
421.26	2088.31
421.47	1753.88
421.67	2136.24
421.88	1934.10
422.09	1909.53
422.30	2057.59
422.51	1847.88
422.72	2403.09
422.93	2214.06
423.14	1860.99
423.35	1716.20
423.55	1834.57
423.76	1933.28
423.97	1831.91
424.18	1703.91
424.39	2028.10
424.60	2207.71
424.81	1821.67
425.02	1911.16
425.22	2017.45
425.43	2017.25
425.64	2003.12
425.85	1864.06
426.06	2420.70
426.27	2216.31
426.48	1950.69
426.68	1931.64
426.89	2222.87
427.10	2393.67
427.31	1877.99
427.52	1781.94
427.73	2185.80
427.94	2155.49
428.14	1998.00
428.35	1880.24
428.56	2317.48
428.77	2232.90
428.98	1893.96
429.19	1853.82
429.40	2016.02
429.60	2054.11
429.81	1962.57
430.02	1889.25
430.23	2051.04
430.44	2185.80
430.65	1777.02
430.85	1836.82
431.06	2138.69
431.27	1847.47
431.48	1830.88
431.69	1858.33
431.90	2074.39
432.10	2073.16
432.31	1926.73
432.52	1827.61
432.73	2509.38
432.94	2350.66
433.15	1986.53
433.35	1814.09
433.56	2288.81
433.77	2093.43
433.98	2063.94
434.19	1980.18
434.40	2289.42
434.60	2275.09
434.81	2088.52
435.02	2034.25
435.23	2143.61
435.44	2075.62
435.64	1759.00
435.85	1788.49
436.06	2037.32
436.27	2010.29
436.48	1771.49
436.68	1841.74
436.89	2411.48
437.10	2301.10
437.31	1969.74
437.52	2051.04
437.73	2172.08
437.93	2173.71
438.14	1953.15
438.35	1735.45
438.56	2026.06
438.77	2065.99
438.97	1995.34
439.18	1835.39
439.39	2284.71
439.60	1914.24
439.80	1813.07
440.01	1874.71
440.22	1987.55
440.43	2206.48
440.64	1789.11
440.84	1904.00
441.05	1901.33
441.26	2513.68
441.47	1934.51
441.68	1902.56
441.88	2196.04
442.09	2203.20
442.30	2206.69
442.51	2216.11
442.71	2239.66
442.92	2287.99
443.13	1932.26
443.34	1919.15
443.55	1951.92
443.75	2183.75
443.96	1825.76
444.17	1783.78
444.38	2244.16
444.58	1901.95
444.79	1934.72
445.00	1880.65
445.21	2030.97
445.41	2017.25
445.62	1674.62
445.83	1944.96
446.04	2087.49
446.24	1865.09
446.45	1654.35
446.66	1843.99
446.87	2137.87
447.07	1968.92
447.28	2052.47
447.49	1866.93
447.70	2232.08
447.90	2240.07
448.11	1901.54
448.32	1958.88
448.53	2314.82
448.73	2308.06
448.94	1834.78
449.15	1992.26
449.36	2100.60
449.56	2144.63
449.77	1858.94
449.98	1752.65
450.19	1992.26
450.39	2022.37
450.60	1930.21
450.81	1895.19
451.02	2050.02
451.22	2323.83
451.43	1806.72
451.64	1851.77
451.84	1998.41
452.05	2266.28
452.26	1860.78
452.47	1866.72
452.67	1989.40
452.88	2311.34
453.09	1782.14
453.30	1762.07
453.50	2206.89
453.71	2422.75
453.92	1974.24
454.12	2154.46
454.33	2112.89
454.54	2156.51
454.75	1902.36
454.95	1841.74
455.16	2146.68
455.37	2208.94
455.57	1975.27
455.78	1891.91
455.99	2090.98
456.19	2079.51
456.40	1811.63
456.61	1898.67
456.82	2077.87
457.02	2260.14
457.23	2044.49
457.44	2192.56
457.64	2137.67
457.85	2328.75
458.06	2035.27
458.26	2073.16
458.47	2107.97
458.68	2263.21
458.89	1854.44
459.09	2055.34
459.30	2431.76
459.51	2099.78
459.71	1739.95
459.92	1811.43
460.13	2201.57
460.33	2480.91
460.54	1930.01
460.75	1928.57
460.95	1912.80
461.16	2149.96
461.37	1867.95
461.57	1863.24
461.78	2080.74
461.99	1895.19
462.19	2129.07
462.40	1802.62
462.61	2698.81
462.81	2267.72
463.02	1797.30
463.23	1863.86
463.43	2166.75
463.64	1963.39
463.85	3084.65
464.05	1816.96
464.26	2580.85
464.47	2314.61
464.67	2016.43
464.88	2002.30
465.09	2071.32
465.29	2232.08
465.50	2152.01
465.71	2049.20
465.91	2096.71
466.12	2102.85
466.33	1956.01
466.53	1842.35
466.74	2336.53
466.94	2058.00
467.15	1925.50
467.36	2062.10
467.56	1914.44
467.77	2119.24
467.98	1891.09
468.18	1846.24
468.39	1977.52
468.60	2417.83
468.80	1870.21
469.01	1808.15
469.21	2161.02
469.42	2264.03
469.63	1889.05
469.83	1789.92
470.04	2177.81
470.25	2299.25
470.45	1987.35
470.66	1865.29
470.86	2106.95
471.07	1994.11
471.28	1976.49
471.48	1965.23
471.69	2131.32
471.90	2853.23
472.10	2083.40
472.31	2076.23
472.51	2204.43
472.72	2178.83
472.93	1966.87
473.13	2100.81
473.34	2247.85
473.54	2181.50
473.75	1990.22
473.96	2106.75
474.16	2085.04
474.37	2195.63
474.57	1991.85
474.78	1820.64
474.99	2134.19
475.19	2102.65
475.40	1870.41
475.60	1870.61
475.81	2530.67
476.02	2225.12
476.22	2197.47
476.43	2232.08
476.63	2190.10
476.84	2359.87
477.05	1775.59
477.25	1877.58
477.46	2614.85
477.66	2105.11
477.87	1812.66
478.08	1883.11
478.28	2231.06
478.49	2031.99
478.69	1844.20
478.90	1873.69
479.10	2171.05
479.31	2374.82
479.52	1949.87
479.72	2024.62
479.93	2214.47
480.13	2068.86
480.34	1891.09
480.54	2000.05
480.75	2024.21
480.96	2314.82
481.16	1835.39
481.37	1984.89
481.57	2222.25
481.78	2138.08
481.98	2077.87
482.19	1988.99
482.40	2378.92
482.60	2187.44
482.81	1980.18
483.01	1775.38
483.22	2208.94
483.42	2201.77
483.63	1965.44
483.83	1912.39
484.04	2023.80
484.24	2252.97
484.45	2034.86
484.66	1825.76
484.86	2199.72
485.07	1925.30
485.27	1969.33
485.48	1850.95
485.68	2308.47
485.89	1950.90
486.09	1990.01
486.30	1855.25
486.50	2104.49
486.71	2047.35
486.91	1953.97
487.12	2203.82
487.33	2786.88
487.53	2869.41
487.74	2563.65
487.94	2463.09
488.15	2420.29
488.35	2366.63
488.56	2075.21
488.76	1937.38
488.97	2146.68
489.17	2238.02
489.38	2008.65
489.58	1936.15
489.79	2194.60
489.99	2150.98
490.20	1942.70
490.40	2008.24
490.61	2155.08
490.81	1999.64
491.02	1912.60
491.22	1948.85
491.43	2206.69
491.63	2077.66
491.84	2035.48
492.04	1812.04
492.25	2188.46
492.45	2006.80
492.66	1870.61
492.86	1813.68
493.07	2044.49
493.27	2418.45
493.48	1770.26
493.68	1868.77
493.89	2035.27
494.09	2174.94
494.30	1892.53
494.50	2118.83
494.71	2150.78
494.91	1843.17
495.12	1883.11
495.32	1967.69
495.53	2105.72
495.73	1904.82
495.94	2096.92
496.14	1935.94
496.35	2573.48
496.55	2205.87
496.76	1951.30
496.96	2001.48
497.17	2093.23
497.37	2178.01
497.58	1901.33
497.78	1812.45
497.98	2048.17
498.19	2036.91
498.39	1886.59
498.60	1935.94
498.80	1795.66
499.01	2188.66
499.21	1805.08
499.42	1950.28
499.62	2020.73
499.83	2467.39
500.03	1799.55
500.24	2011.11
500.44	2335.09
500.64	2267.92
500.85	1878.40
501.05	1998.82
501.26	1849.11
501.46	2295.57
501.67	1849.93
501.87	1794.84
502.08	1953.97
502.28	2006.80
502.48	1973.42
502.69	2001.28
502.89	1821.67
503.10	1949.46
503.30	1961.95
503.51	1930.62
503.71	1853.00
503.92	2155.69
504.12	1931.23
504.32	1833.96
504.53	2188.05
504.73	2163.88
504.94	2014.79
505.14	2116.78
505.35	2184.16
505.55	2118.21
505.75	1954.79
505.96	2078.89
506.16	2432.17
506.37	1977.72
506.57	1861.19
506.78	1973.01
506.98	2236.38
507.18	1856.07
507.39	1828.22
507.59	1895.60
507.80	1949.46
508.00	2057.39
508.20	2099.78
508.41	1900.31
508.61	2284.30
508.82	2213.65
509.02	2055.75
509.22	1834.37
509.43	1907.89
509.63	1961.54
509.84	1922.63
510.04	1773.95
510.24	2309.70
510.45	2216.11
510.65	1812.25
510.86	1984.89
511.06	1877.78
511.26	2189.07
511.47	2076.44
511.67	1849.52
511.88	2128.04
512.08	2248.06
512.28	1818.60
512.49	1967.69
512.69	2086.88
512.90	2112.68
513.10	1895.80
513.30	1953.15
513.51	2137.26
513.71	2358.24
513.91	1978.34
514.12	1990.83
514.32	2197.47
514.53	1963.39
514.73	1993.49
514.93	1917.10
515.14	2072.95
515.34	2275.70
515.54	1847.47
515.75	1983.05
515.95	2151.19
516.15	2288.61
516.36	1906.86
516.56	1971.99
516.77	1702.68
516.97	2150.98
517.17	1881.06
517.38	2009.26
517.58	2330.18
517.78	2047.15
517.99	1960.32
518.19	1889.87
518.39	2264.44
518.60	1959.29
518.80	1817.57
519.00	1967.07
519.21	2033.63
519.41	2361.72
519.61	1841.53
519.82	2025.03
520.02	2079.51
520.22	2074.80
520.43	1884.75
520.63	1942.09
520.83	1968.51
521.04	1807.33
521.24	1989.40
521.44	1918.33
521.65	1941.06
521.85	2142.38
522.05	1864.06
522.26	1853.62
522.46	2364.58
522.66	2196.86
522.87	1927.96
523.07	2085.65
523.27	1987.14
523.48	2290.86
523.68	1949.87
523.88	1969.74
524.09	2237.41
524.29	2123.95
524.49	1771.70
524.70	1992.06
524.90	2281.03
525.10	2162.25
525.31	1795.86
525.51	1818.19
525.71	2174.33
525.91	2158.15
526.12	1906.86
526.32	1816.55
526.52	1987.14
526.73	1908.50
526.93	1991.44
527.13	1789.72
527.34	2044.69
527.54	2042.64
527.74	1911.57
527.94	1803.03
528.15	1897.85
528.35	2087.08
528.55	2006.80
528.76	1947.41
528.96	1804.26
529.16	2215.90
529.36	2030.15
529.57	1840.71
529.77	2266.28
529.97	1909.94
530.18	1995.34
530.38	1897.65
530.58	2157.54
530.78	2074.80
530.99	1902.97
531.19	1978.95
531.39	1959.09
531.60	2062.71
531.80	1951.51
532.00	2061.69
532.20	2095.28
532.41	1967.28
532.61	1850.34
532.81	1843.38
533.01	1996.36
533.22	2155.08
533.42	2054.11
533.62	1768.22
533.82	2297.41
534.03	2050.84
534.23	2004.35
534.43	1851.77
534.63	1991.44
534.84	2071.73
535.04	2009.47
535.24	1941.27
535.44	2498.11
535.65	1998.82
535.85	1876.14
536.05	1850.75
536.25	2069.06
536.46	1889.46
536.66	2094.25
536.86	1961.34
537.06	2153.03
537.27	2261.98
537.47	1960.93
537.67	1904.61
537.87	2292.91
538.08	2062.71
538.28	1823.51
538.48	1802.83
538.68	2006.60
538.88	2163.47
539.09	1779.89
539.29	1900.11
539.49	2226.96
539.69	2119.85
539.90	2000.66
540.10	1809.79
540.30	2286.76
540.50	1979.36
540.70	1807.74
540.91	1874.51
541.11	2198.70
541.31	2322.81
541.51	1977.93
541.72	1999.23
541.92	2089.34
542.12	1947.21
542.32	1967.28
542.52	1876.96
542.73	1969.94
542.93	2139.51
543.13	1889.46
543.33	2004.96
543.53	2170.64
543.74	2148.93
543.94	1877.58
544.14	1986.32
544.34	2234.33
544.54	2056.37
544.75	1995.34
544.95	2075.41
545.15	2160.81
545.35	2357.01
545.55	2061.89
545.75	1914.44
545.96	2432.17
546.16	1913.21
546.36	1914.24
546.56	1937.38
546.76	2265.87
546.97	2343.29
547.17	1962.36
547.37	2043.67
547.57	1989.60
547.77	2212.42
547.97	1981.61
548.18	1988.37
548.38	2072.34
548.58	2286.15
548.78	1847.68
548.98	1928.78
549.18	2190.51
549.39	2291.27
549.59	1974.04
549.79	1945.78
549.99	2311.95
550.19	2207.51
550.39	2086.06
550.60	1960.32
550.80	2119.03
551.00	2169.21
551.20	1902.97
551.40	1919.77
551.60	2157.33
551.80	2136.03
552.01	2006.39
552.21	1949.67
552.41	2108.38
552.61	2401.45
552.81	2018.48
553.01	1865.90
553.21	2138.28
553.42	1929.60
553.62	1923.04
553.82	1858.33
554.02	2356.60
554.22	2171.67
554.42	1847.06
554.62	2041.82
554.83	2320.35
555.03	2286.15
555.23	1953.15
555.43	2173.51
555.63	2062.10
555.83	2078.89
556.03	1994.11
556.23	1803.24
556.44	2099.37
556.64	2234.13
556.84	1659.06
557.04	1918.54
557.24	2067.01
557.44	2072.54
557.64	2000.05
557.84	1851.77
558.04	2015.61
558.25	2164.91
558.45	1886.38
558.65	1997.59
558.85	2071.52
559.05	1783.78
559.25	1947.62
559.45	2006.60
559.65	2413.53
559.85	2824.56
560.05	1944.75
560.26	1999.02
560.46	2002.71
560.66	1938.61
560.86	1895.60
561.06	1851.57
561.26	2319.53
561.46	2126.41
561.66	1907.48
561.86	2037.93
562.06	1933.90
562.26	2017.86
562.47	1961.95
562.67	1845.42
562.87	2156.31
563.07	1832.73
563.27	1975.27
563.47	1950.08
563.67	2000.46
563.87	2181.70
564.07	1843.38
564.27	1911.57
564.47	2076.85
564.67	2093.84
564.87	1867.34
565.08	1983.87
565.28	1956.01
565.48	2152.42
565.68	1995.34
565.88	2062.10
566.08	2396.94
566.28	2057.59
566.48	1799.35
566.68	1950.08
566.88	2018.07
567.08	2215.49
567.28	1959.91
567.48	1938.81
567.68	2154.05
567.88	1843.79
568.08	1954.79
568.28	2076.85
568.48	2017.45
568.68	2247.85
568.89	1995.95
569.09	1811.43
569.29	2196.45
569.49	2189.07
569.69	1856.69
569.89	1870.61
570.09	1769.24
570.29	1937.58
570.49	1833.96
570.69	1926.32
570.89	2177.20
571.09	2403.50
571.29	1827.40
571.49	2093.02
571.69	2166.75
571.89	2160.61
572.09	1937.79
572.29	1992.06
572.49	2179.04
572.69	2177.61
572.89	1992.88
573.09	1646.98
573.29	2083.81
573.49	2060.05
573.69	1918.95
573.89	1984.07
574.09	1966.46
574.29	2252.56
574.49	1950.90
574.69	1842.15
574.89	1897.65
575.09	1928.57
575.29	1806.10
575.49	1940.25
575.69	2101.63
575.89	1852.39
576.09	1958.06
576.29	1984.28
576.49	1898.47
576.69	2013.15
576.89	1890.68
577.09	1951.92
577.29	1810.81
577.49	2401.45
577.69	1896.21
577.89	2063.74
578.09	2086.27
578.29	1810.20
578.49	1954.58
578.69	1858.74
578.89	2237.61
579.09	2066.20
579.29	1846.24
579.49	2061.08
579.69	1982.64
579.89	2333.46
580.09	1733.61
580.29	1744.87
580.49	1980.18
580.69	1909.94
580.89	1908.91
581.09	1927.34
581.29	2007.83
581.49	2037.73
581.69	1832.73
581.89	1847.06
582.09	1929.19
582.28	1930.62
582.48	2025.24
582.68	2070.50
582.88	2265.26
583.08	2006.19
583.28	1942.29
583.48	1951.51
583.68	1931.03
583.88	2039.57
584.08	1953.35
584.28	1981.41
584.48	2389.37
584.68	2129.68
584.88	1922.43
585.08	2125.79
585.28	2200.13
585.48	2273.04
585.68	1986.32
585.87	2058.21
586.07	2135.83
586.27	2062.51
586.47	1991.24
586.67	1941.68
586.87	2078.69
587.07	1973.01
587.27	1844.40
587.47	2008.44
587.67	2308.27
587.87	2528.63
588.07	2002.91
588.27	1890.48
588.46	2178.83
588.66	2183.13
588.86	1896.42
589.06	1948.64
589.26	2211.81
589.46	2189.28
589.66	1853.82
589.86	1826.17
590.06	1999.84
590.26	2119.24
590.46	1905.63
590.66	1959.50
590.85	1901.33
591.05	2070.50
591.25	1812.45
591.45	1922.22
591.65	2130.09
591.85	2054.11
592.05	1863.86
592.25	1997.79
592.45	2192.76
592.64	1943.73
592.84	1934.72
593.04	1874.51
593.24	2498.73
593.44	1947.82
593.64	1970.97
593.84	2018.48
594.04	1994.52
594.24	2312.36
594.43	1902.36
594.63	1963.39
594.83	2241.30
595.03	2210.17
595.23	1873.28
595.43	1834.16
595.63	1946.59
595.83	2183.13
596.02	1719.68
596.22	1967.28
596.42	2122.31
596.62	2083.40
596.82	1888.23
597.02	1979.98
597.22	2256.66
597.41	2084.63
597.61	1894.37
597.81	2056.78
598.01	2170.23
598.21	2004.14
598.41	1827.61
598.61	1848.50
598.80	2069.88
599.00	2069.68
599.20	2076.03
599.40	1932.46
599.60	1996.77
599.80	2170.03
599.99	2048.38
600.19	1905.43
600.39	2068.86
600.59	2135.62
600.79	2018.48
600.99	1946.39
601.19	2346.36
601.38	2398.99
601.58	1981.82
601.78	1714.97
601.98	2124.36
602.18	2110.02
602.37	2151.60
602.57	1936.35
602.77	2145.66
602.97	2082.99
603.17	2114.12
603.37	2028.10
603.56	2238.84
603.76	2180.06
603.96	1944.55
604.16	1965.23
604.36	2317.28
604.56	2181.50
604.75	1851.98
604.95	1948.44
605.15	2263.21
605.35	2223.48
605.55	1877.58
605.74	1818.60
605.94	2229.01
606.14	2045.72
606.34	1961.54
606.54	2007.42
606.73	1982.23
606.93	2166.96
607.13	1921.40
607.33	2026.06
607.53	2328.13
607.72	2226.35
607.92	2030.36
608.12	2095.69
608.32	2044.08
608.51	2182.73
608.71	1840.92
608.91	2008.85
609.11	2161.02
609.31	2041.82
609.50	1946.18
609.70	2152.01
609.90	2198.08
610.10	2203.20
610.29	1910.35
610.49	1811.84
610.69	2157.54
610.89	2075.41
611.09	1942.50
611.28	2107.16
611.48	2241.09
611.68	2034.66
611.88	1897.85
612.07	1867.75
612.27	2184.36
612.47	1931.23
612.67	1961.75
612.86	2041.82
613.06	2091.39
613.26	1834.37
613.46	1893.76
613.65	2000.66
613.85	2529.65
614.05	2208.53
614.25	2027.28
614.44	1938.40
614.64	2034.66
614.84	1961.95
615.04	1881.47
615.23	1901.13
615.43	2161.22
615.63	2152.01
615.83	1835.59
616.02	1790.54
616.22	2179.04
616.42	1847.88
616.62	1795.66
616.81	1920.18
617.01	2102.44
617.21	2020.94
617.41	1805.90
617.60	1964.41
617.80	2138.69
618.00	2165.93
618.19	2002.09
618.39	1947.82
618.59	2166.75
618.79	2072.34
618.98	1789.31
619.18	1940.04
619.38	2448.55
619.57	2056.98
619.77	1930.42
619.97	1916.08
620.17	1950.28
620.36	1882.08
620.56	2111.05
620.76	1808.77
620.95	1857.30
621.15	1959.29
621.35	1864.47
621.54	1917.92
621.74	2042.44
621.94	1944.34
622.14	1812.86
622.33	1791.77
622.53	2021.55
622.73	2013.56
622.92	1791.97
623.12	1916.28
623.32	2373.39
623.51	2197.27
623.71	1820.85
623.91	2104.08
624.10	1905.63
624.30	2103.26
624.50	1832.93
624.69	1782.35
624.89	2705.57
625.09	2010.90
625.29	1718.45
625.48	1806.31
625.68	2112.07
625.88	2224.71
626.07	1971.58
626.27	1859.76
626.47	1951.92
626.66	1830.47
626.86	1923.86
627.06	1942.09
627.25	2064.35
627.45	2326.08
627.64	1935.54
627.84	2099.17
628.04	1939.22
628.23	2425.41
628.43	1806.92
628.63	1841.94
628.82	1991.65
629.02	2350.04
629.22	1986.53
629.41	2078.69
629.61	2045.72
629.81	2378.51
630.00	1854.23
630.20	1807.54
630.40	2045.10
630.59	2107.97
630.79	1905.43
630.98	1876.35
631.18	2024.83
631.38	2053.91
631.57	2037.52
631.77	1804.26
631.97	2085.45
632.16	2119.65
632.36	1950.49
632.56	1967.69
632.75	2108.59
632.95	2245.60
633.14	1824.54
633.34	2090.36
633.54	1803.24
633.73	2008.03
633.93	1926.11
634.12	1786.03
634.32	2544.40
634.52	2087.90
634.71	1782.14
634.91	1961.54
635.11	1874.92
635.30	1941.88
635.50	1959.09
635.69	1840.92
635.89	2363.56
636.09	2216.31
636.28	1839.08
636.48	1860.78
636.67	2137.26
636.87	2144.84
637.07	1968.51
637.26	1883.72
637.46	2093.02
637.65	2196.04
637.85	1978.54
638.04	1836.62
638.24	1984.69
638.44	2109.41
638.63	1931.64
638.83	1909.94
639.02	2115.14
639.22	2160.20
639.42	1878.60
639.61	1915.47
639.81	2059.85
640.00	2035.68
640.20	2044.28
640.39	1965.44
640.59	2394.08
640.79	2153.03
640.98	1945.78
641.18	1846.65
641.37	2016.23
641.57	1935.94
641.76	1947.21
641.96	1715.99
642.15	2077.05
642.35	1928.78
642.55	1951.51
642.74	1794.02
642.94	2159.99
643.13	2261.78
643.33	1872.25
643.52	1883.31
643.72	1987.96
643.91	2039.37
644.11	1845.63
644.31	1857.92
644.50	1936.35
644.70	2246.01
644.89	1970.56
645.09	1996.77
645.28	2065.99
645.48	2097.53
645.67	1838.87
645.87	1751.22
646.06	1969.74
646.26	2101.42
646.45	1719.68
646.65	1687.73
646.84	2348.20
647.04	1979.77
647.24	1788.90
647.43	1921.81
647.63	2091.59
647.82	2310.31
648.02	1855.25
648.21	1905.63
648.41	2297.62
648.60	2017.25
648.80	2060.05
648.99	1947.82
649.19	1960.11
649.38	1807.13
649.58	1939.02
649.77	2015.00
649.97	2243.55
650.16	2156.51
650.36	1698.38
650.55	2078.69
650.75	2100.81
650.94	2319.12
651.14	1934.92
651.33	2003.32
651.53	2317.69
651.72	1911.98
651.92	1919.77
652.11	1725.00
652.31	2154.05
652.50	2108.59
652.70	1933.28
652.89	1806.72
653.09	2307.45
653.28	1990.63
653.48	1720.29
653.67	1762.07
653.87	2552.38
654.06	2065.99
654.25	2144.63
654.45	1852.80
654.64	1998.61
654.84	2024.83
655.03	1739.75
655.23	2066.81
655.42	2211.60
655.62	2410.87
655.81	2080.12
656.01	1899.08
656.20	2241.71
656.40	2386.70
656.59	2014.18
656.79	2094.66
656.98	2151.60
657.17	2182.11
657.37	1961.75
657.56	1896.83
657.76	2135.01
657.95	2237.20
658.15	1604.17
658.34	1951.10
658.54	2018.27
658.73	1846.65
658.92	1919.77
659.12	1922.43
659.31	2143.20
659.51	1868.57
659.70	1964.41
659.90	1841.33
660.09	2181.29
660.29	2032.40
660.48	1831.70
660.67	2062.30
660.87	1951.30
661.06	2111.05
661.26	1990.22
661.45	2066.61
661.65	2101.63
661.84	1954.79
662.03	1838.67
662.23	1896.01
662.42	2390.39
662.62	1891.71
662.81	1814.30
663.00	1886.59
663.20	2098.55
663.39	2145.04
663.59	2033.63
663.78	1919.56
663.97	2025.24
664.17	2215.29
664.36	1802.01
664.56	1881.67
664.75	2179.04
664.94	2155.28
665.14	1993.29
665.33	1922.84
665.53	2040.60
665.72	2013.36
665.91	1992.47
666.11	1933.28
666.30	2089.95
666.50	2046.13
666.69	1934.31
666.88	1867.54
667.08	2077.87
667.27	2018.27
667.47	1898.67
667.66	1897.85
667.85	2202.18
668.05	2058.41
668.24	1858.74
668.43	2102.85
668.63	1985.10
668.82	2210.78
669.02	1986.94
669.21	1908.50
669.40	1848.70
669.60	2345.95
669.79	1760.43
669.98	2508.56
670.18	1921.40
670.37	1866.72
670.56	1900.72
670.76	1955.81
670.95	2009.26
671.15	2188.87
671.34	1958.68
671.53	1933.90
671.73	1963.80
671.92	1941.27
672.11	1788.70
672.31	1884.34
672.50	2092.41
672.69	1844.61
672.89	1687.94
673.08	1928.16
673.27	2144.22
673.47	2076.85
673.66	1943.73
673.85	1791.77
674.05	2073.57
674.24	2035.68
674.43	1785.62
674.63	1954.17
674.82	2416.81
675.01	1706.57
675.21	2002.50
675.40	1904.61
675.59	1965.85
675.79	2280.82
675.98	1877.37
676.17	2053.50
676.37	2075.21
676.56	1966.87
676.75	1880.24
676.95	1945.78
677.14	1993.90
677.33	2205.87
677.52	1797.50
677.72	1882.08
677.91	2091.80
678.10	1808.77
678.30	1815.11
678.49	1824.74
678.68	2390.80
678.88	1793.82
679.07	2050.43
679.26	1880.24
679.45	2358.03
679.65	2255.63
679.84	1726.23
680.03	1750.40
680.23	1997.38
680.42	2462.68
680.61	1803.85
680.81	1872.87
681.00	2050.22
681.19	2098.76
681.38	2024.21
681.58	1934.10
681.77	1969.74
681.96	2174.94
682.15	1841.74
682.35	1965.23
682.54	2116.78
682.73	1878.40
682.93	1828.22
683.12	1810.40
683.31	2184.57
683.50	2525.96
683.70	1814.91
683.89	1948.23
684.08	1889.05
684.27	2199.11
684.47	1770.67
684.66	1902.56
684.85	2398.58
685.04	2255.02
685.24	1835.39
685.43	1870.61
685.62	1759.00
685.81	2113.09
686.01	1991.04
686.20	1800.98
686.39	1813.07
686.58	2349.63
686.78	1936.76
686.97	1920.79
687.16	2188.66
687.35	2073.77
687.55	1862.63
687.74	1898.88
687.93	1853.82
688.12	1988.37
688.32	1927.34
688.51	1740.36
688.70	2075.00
688.89	1846.65
689.08	1763.30
689.28	1826.99
689.47	2064.56
689.66	2051.66
689.85	2012.74
690.05	1835.39
690.24	1905.02
690.43	2065.38
690.62	1951.10
690.81	1854.44
691.01	2044.69
691.20	1980.59
691.39	1759.41
691.58	1947.41
691.77	2363.77
691.97	2070.09
692.16	1966.87
692.35	1889.66
692.54	1922.22
692.73	2072.75
692.93	1920.99
693.12	1945.98
693.31	2098.35
693.50	2065.17
693.69	1990.83
693.89	1862.63
694.08	2247.65
694.27	2250.10
694.46	1870.00
694.65	1873.69
694.85	2090.98
695.04	2096.71
695.23	1838.05
695.42	2022.57
695.61	2140.33
695.80	2270.99
696.00	2228.80
696.19	2224.91
696.38	2050.63
696.57	2209.14
696.76	2101.83
696.95	1954.38
697.15	2340.21
697.34	2305.19
697.53	1921.81
697.72	1999.02
697.91	1969.53
698.10	2307.24
698.30	1890.48
698.49	1890.28
698.68	2082.37
698.87	1960.93
699.06	1840.10
699.25	1920.18
699.45	2210.78
699.64	2040.19
699.83	2077.66
700.02	1855.87
700.21	2125.18
700.40	1970.97
700.59	1893.96
700.79	1919.56
700.98	2139.31
701.17	1958.27
701.36	1840.92
701.55	1854.64
701.74	2220.61
701.93	1847.06
702.12	1851.36
702.32	1804.26
702.51	2158.15
702.70	2122.92
702.89	1918.74
703.08	1862.63
703.27	2209.35
703.46	2080.33
703.65	1826.58
703.85	1786.03
704.04	1929.39
704.23	2216.11
704.42	1805.49
704.61	1838.67
704.80	2292.50
704.99	1926.32
705.18	1956.01
705.37	1901.54
705.57	2129.89
705.76	2279.18
705.95	1910.96
706.14	2271.61
706.33	2420.49
706.52	2630.21
706.71	2102.04
706.90	1974.24
707.09	2173.71
707.28	2122.31
707.47	1876.55
707.67	2021.96
707.86	1924.68
708.05	2211.60
708.24	1906.25
708.43	1942.91
708.62	1976.49
708.81	1895.80
709.00	1812.25
709.19	1858.53
709.38	2175.56
709.57	1847.06
709.76	1937.17
709.96	1868.98
710.15	2255.84
710.34	2018.07
710.53	2014.38
710.72	1903.59
710.91	2227.78
711.10	2132.55
711.29	1993.70
711.48	1867.95
711.67	1873.69
711.86	2103.26
712.05	1773.34
712.24	1805.49
712.43	2159.38
712.62	2253.79
712.81	1899.08
713.00	2092.61
713.19	1861.40
713.39	2077.05
713.58	1803.03
713.77	1930.21
713.96	2099.58
714.15	1959.50
714.34	1879.42
714.53	1734.83
714.72	2368.48
714.91	1867.95
715.10	1930.42
715.29	1804.26
715.48	2495.45
715.67	2141.77
715.86	1909.73
716.05	1872.66
716.24	2003.73
716.43	1928.37
716.62	1783.17
716.81	1763.51
717.00	1998.00
717.19	2286.97
717.38	1895.40
717.57	1880.44
717.76	1817.78
717.95	2195.63
718.14	1894.78
718.33	1932.05
718.52	1792.38
718.71	1803.65
718.90	1821.87
719.09	1836.41
719.28	2031.18
719.47	2183.13
719.66	1954.38
719.85	1981.20
720.04	1975.68
720.23	2017.45
720.42	1819.21
720.61	1958.06
720.80	1809.79
720.99	2069.06
721.18	1876.55
721.37	1798.32
721.56	1967.07
721.75	2172.69
721.94	1822.28
722.13	1845.02
722.32	1956.63
722.51	2186.82
722.70	1918.54
722.89	1983.87
723.08	1996.16
723.27	2209.35
723.46	1954.58
723.65	1952.74
723.84	1950.90
724.03	2252.77
724.22	1802.01
724.41	1926.32
724.60	2002.30
724.79	2186.21
724.98	1951.92
725.16	1859.35
725.35	2126.20
725.54	1849.11
725.73	1883.93
725.92	1926.93
726.11	1987.35
726.30	2120.06
726.49	1820.85
726.68	1871.64
726.87	2069.68
727.06	2223.89
727.25	1864.68
727.44	1971.17
727.63	2017.86
727.82	1934.72
728.01	1924.68
728.20	1965.64
728.38	2249.69
728.57	1965.64
728.76	1877.78
728.95	2020.73
729.14	1824.74
729.33	1860.17
729.52	1670.94
729.71	1808.77
729.90	1898.47
730.09	1924.27
730.28	1847.06
730.47	1825.15
730.66	2201.98
730.84	2057.39
731.03	1882.08
731.22	1936.97
731.41	2018.89
731.60	2073.57
731.79	1720.70
731.98	1780.91
732.17	2118.01
732.36	2106.75
732.55	1838.05
732.73	1748.76
732.92	2197.68
733.11	2072.34
733.30	1818.19
733.49	1737.70
733.68	2104.90
733.87	2054.73
734.06	1743.23
734.25	1774.97
734.43	1905.43
734.62	2034.04
734.81	1849.52
735.00	1793.61
735.19	1949.87
735.38	2085.65
735.57	1743.23
735.76	1953.35
735.94	2028.72
736.13	2353.73
736.32	1941.68
736.51	1864.06
736.70	2320.76
736.89	2345.54
737.08	2056.78
737.27	2143.40
737.45	2476.40
737.64	2278.98
737.83	2308.47
738.02	2291.68
738.21	2459.00
738.40	2499.14
738.59	2037.11
738.77	2113.91
738.96	2019.91
739.15	2141.36
739.34	2080.12
739.53	2007.01
739.72	2252.15
739.90	2260.14
740.09	1854.44
740.28	1924.07
740.47	2141.36
740.66	2132.96
740.85	1820.85
741.03	1890.48
741.22	1870.61
741.41	1960.73
741.60	1737.91
741.79	1922.63
741.98	2213.85
742.16	2342.88
742.35	1903.18
742.54	1914.44
742.73	2339.60
742.92	1926.32
743.10	1730.33
743.29	1835.59
743.48	2411.69
743.67	1928.57
743.86	1742.21
744.05	1782.96
744.23	1845.22
744.42	1871.84
744.61	1912.60
744.80	1745.48
744.99	1915.67
745.17	1744.25
745.36	1735.86
745.55	1955.61
745.74	2017.45
745.93	1887.82
746.11	1806.31
746.30	1771.29
746.49	2181.70
746.68	1851.57
746.86	1876.35
747.05	1837.23
747.24	2111.66
747.43	2122.31
747.62	1768.01
747.80	1806.31
747.99	2216.72
748.18	2142.18
748.37	1908.71
748.56	1953.76
748.74	2162.65
748.93	2043.87
749.12	2059.44
749.31	2410.05
749.49	2676.29
749.68	2874.32
749.87	3011.54
750.06	2835.00
750.24	2940.88
750.43	2914.46
750.62	2734.86
750.81	2891.73
750.99	3029.15
751.18	3044.51
751.37	2653.96
751.56	2656.63
751.74	3052.91
751.93	3136.87
752.12	2194.19
752.31	2195.83
752.49	2237.82
752.68	2508.76
752.87	2064.76
753.06	2009.06
753.24	2080.53
753.43	2264.64
753.62	1865.49
753.81	1886.79
753.99	2327.31
754.18	2110.64
754.37	1819.21
754.55	1901.95
754.74	2330.79
754.93	1775.79
755.12	1850.34
755.30	1791.15
755.49	2203.61
755.68	2042.64
755.86	1970.76
756.05	1746.10
756.24	2284.71
756.43	1851.98
756.61	1796.27
756.80	1928.16
756.99	2247.24
757.17	2003.12
757.36	1806.92
757.55	1865.70
757.74	2110.84
757.92	2031.18
758.11	1809.99
758.30	1703.71
758.48	1995.13
758.67	1825.35
758.86	1900.92
759.04	1761.87
759.23	1942.29
759.42	1987.14
759.60	1824.54
759.79	1888.02
759.98	1957.65
760.16	1874.92
760.35	1830.88
760.54	1754.70
760.73	2060.67
760.91	1782.96
761.10	1860.78
761.29	1935.94
761.47	2003.73
761.66	2372.57
761.85	1923.86
762.03	2037.32
762.22	2243.14
762.41	2636.96
762.59	2882.93
762.78	3060.69
762.97	3711.94
763.15	3693.10
763.34	3367.88
763.52	2880.26
763.71	2983.69
763.90	3045.33
764.08	2644.54
764.27	2638.60
764.46	2836.85
764.64	2493.61
764.83	2373.60
765.02	2256.45
765.20	2359.26
765.39	2358.65
765.58	1958.06
765.76	1992.47
765.95	2136.44
766.13	2065.58
766.32	1882.49
766.51	1862.63
766.69	2781.55
766.88	2108.59
767.07	1757.77
767.25	1679.95
767.44	2189.07
767.62	2239.86
767.81	1803.65
768.00	1862.42
768.18	2045.72
768.37	1880.65
768.56	1695.51
768.74	1821.05
768.93	1798.12
769.11	2078.69
769.30	1944.96
769.49	1825.97
769.67	1974.45
769.86	1927.55
770.04	1867.95
770.23	1822.69
770.42	2243.55
770.60	2032.40
770.79	1784.80
770.97	1821.87
771.16	2206.69
771.35	2094.87
771.53	2043.67
771.72	2112.07
771.90	2367.04
772.09	2607.27
772.27	2354.14
772.46	2089.13
772.65	2459.41
772.83	2293.11
773.02	2200.34
773.20	1977.52
773.39	2254.61
773.58	2287.58
773.76	1886.79
773.95	1918.95
774.13	2146.89
774.32	2025.03
774.50	1836.62
774.69	1956.22
774.87	2000.25
775.06	2424.18
775.25	1866.93
775.43	1854.44
775.62	2112.27
775.80	2129.48
775.99	1949.87
776.17	1848.09
776.36	2064.76
776.54	2231.88
776.73	1892.53
776.92	1976.90
777.10	2222.66
777.29	2124.36
777.47	1857.92
777.66	1891.09
777.84	2054.11
778.03	2038.14
778.21	1822.90
778.40	1949.46
778.58	2129.27
778.77	2210.58
778.95	1780.50
779.14	1851.98
779.32	2355.57
779.51	2190.51
779.70	1850.54
779.88	1742.00
780.07	1982.23
780.25	2471.49
780.44	1900.31
780.62	2021.35
780.81	2135.21
780.99	2061.49
781.18	1835.18
781.36	1823.31
781.55	2014.59
781.73	2282.87
781.92	1770.26
782.10	1777.84
782.29	2104.49
782.47	2297.00
782.66	1839.49
782.84	1739.34
783.03	1923.86
783.21	2197.27
783.40	1806.51
783.58	1780.91
783.77	1915.47
783.95	1999.43
784.14	1812.04
784.32	1883.93
784.51	2225.73
784.69	1913.01
784.88	1764.53
785.06	1864.47
785.24	1773.54
785.43	2171.05
785.61	1939.43
785.80	1777.02
785.98	2121.49
786.17	2024.01
786.35	1758.39
786.54	1947.62
786.72	2140.74
786.91	2184.98
787.09	1880.65
787.28	1751.63
787.46	2029.54
787.65	2167.57
787.83	1711.49
788.01	1862.22
788.20	1811.02
788.38	1986.32
788.57	1837.03
788.75	1800.78
788.94	2340.83
789.12	2190.92
789.31	1905.43
789.49	1994.31
789.67	1941.06
789.86	2072.34
790.04	1792.59
790.23	1687.73
790.41	2401.45
790.60	1954.58
790.78	1808.77
790.96	1849.11
791.15	2101.63
791.33	1990.22
791.52	1889.46
791.70	1751.22
791.89	1988.58
792.07	2150.98
792.25	1872.87
792.44	1720.91
792.62	2207.92
792.81	1941.06
792.99	1865.09
793.17	1807.74
793.36	1883.52
793.54	2310.72
793.73	2055.55
793.91	1949.26
794.10	2370.52
794.28	2485.62
794.46	2142.58
794.65	2204.02
794.83	2104.49
795.01	2207.51
795.20	2212.63
795.38	2089.75
795.57	2216.11
795.75	2193.58
795.93	1969.12
796.12	1959.91
796.30	2189.07
796.49	2185.39
796.67	1812.04
796.85	1976.90
797.04	2062.30
797.22	2117.80
797.40	1773.95
797.59	1903.59
797.77	2028.72
797.96	1893.14
798.14	1770.88
798.32	1837.23
798.51	2153.23
798.69	2330.18
798.87	1880.44
799.06	1851.36
799.24	1754.90
799.42	2187.44
799.61	1971.58
799.79	1924.48
799.98	2461.25
800.16	2088.31
800.34	2177.40
800.53	2302.12
800.71	2407.39
800.89	2874.12
801.08	2520.23
801.26	2574.30
801.44	2425.00
801.63	2283.89
801.81	2232.70
801.99	2115.55
802.18	2215.29
802.36	2263.62
802.54	2141.77
802.73	1951.51
802.91	2147.09
803.09	2149.34
803.28	2071.93
803.46	2026.47
803.64	2367.25
803.83	1908.30
804.01	1829.25
804.19	1746.51
804.38	2169.82
804.56	2054.52
804.74	1881.67
804.92	1886.38
805.11	1855.25
805.29	2187.23
805.47	1829.25
805.66	1718.25
805.84	1814.09
806.02	2145.25
806.21	1802.62
806.39	2060.87
806.57	2163.47
806.76	2139.10
806.94	1919.15
807.12	1823.51
807.30	1871.23
807.49	2011.31
807.67	1899.70
807.85	2004.14
808.04	2133.78
808.22	2414.56
808.40	1761.66
808.58	1735.65
808.77	2067.01
808.95	2250.92
809.13	1879.63
809.31	2222.46
809.50	2440.77
809.68	2561.19
809.86	2305.81
810.05	2434.22
810.23	2900.54
810.41	3048.81
810.59	4237.86
810.78	4846.52
810.96	5524.40
811.14	5899.38
811.32	5360.35
811.51	4594.00
811.69	4273.29
811.87	4340.06
812.05	3813.93
812.24	3607.70
812.42	3742.25
812.60	3636.58
812.78	2987.58
812.97	2845.45
813.15	3115.98
813.33	2797.32
813.51	2622.83
813.70	2249.08
813.88	2213.44
814.06	2255.84
814.24	2067.22
814.42	1859.35
814.61	2122.92
814.79	2358.65
814.97	1791.36
815.15	1823.92
815.34	2062.51
815.52	2182.93
815.70	1794.84
815.88	1875.32
816.06	1877.37
816.25	1929.39
816.43	1816.75
816.61	1966.05
816.79	2246.83
816.98	1763.51
817.16	1785.42
817.34	1748.15
817.52	2047.35
817.70	2267.10
817.89	1881.26
818.07	1785.83
818.25	1987.55
818.43	2058.82
818.61	1845.02
818.80	1828.84
818.98	2346.36
819.16	2048.99
819.34	1777.84
819.52	2125.18
819.70	1893.76
819.89	2016.02
820.07	1763.10
820.25	1743.64
820.43	2076.23
820.61	2170.03
820.80	1899.70
820.98	1769.04
821.16	1797.30
821.34	1813.68
821.52	1842.15
821.70	1992.88
821.89	2056.57
822.07	1967.28
822.25	1923.04
822.43	1819.62
822.61	2281.03
822.79	2086.68
822.98	1883.11
823.16	1713.13
823.34	2070.09
823.52	2238.63
823.70	1923.66
823.88	1709.85
824.06	2096.10
824.25	1977.11
824.43	1947.82
824.61	1788.49
824.79	2009.06
824.97	2016.23
825.15	1969.53
825.33	2105.11
825.52	2269.76
825.70	2167.37
825.88	1994.11
826.06	2078.07
826.24	2209.96
826.42	2265.87
826.60	1991.65
826.78	2080.33
826.97	2073.16
827.15	2278.77
827.33	1891.50
827.51	1944.14
827.69	1946.18
827.87	2081.35
828.05	1993.49
828.23	1831.50
828.41	2200.95
828.60	2171.87
828.78	1764.73
828.96	1967.89
829.14	1925.50
829.32	1974.86
829.50	1856.89
829.68	1856.07
829.86	1956.63
830.04	2113.50
830.22	1964.00
830.41	1796.07
830.59	1989.19
830.77	2128.45
830.95	1819.83
831.13	1811.84
831.31	1906.04
831.49	2183.34
831.67	2025.24
831.85	2003.12
832.03	1974.45
832.21	2146.68
832.39	1745.28
832.57	1784.40
832.76	2177.40
832.94	2008.03
833.12	1699.81
833.30	1853.62
833.48	2206.48
833.66	2077.46
833.84	1832.32
834.02	1875.32
834.20	2173.71
834.38	2141.36
834.56	1709.85
834.74	1764.12
834.92	1814.50
835.10	2322.40
835.28	1898.06
835.46	1909.73
835.64	1988.78
835.82	1900.51
836.01	2149.75
836.19	2046.13
836.37	1934.92
836.55	1881.26
836.73	1808.56
836.91	1768.63
837.09	2106.95
837.27	2246.62
837.45	1695.72
837.63	1745.28
837.81	1811.43
837.99	2013.15
838.17	1887.00
838.35	1795.45
838.53	2363.15
838.71	2101.01
838.89	1798.12
839.07	1770.67
839.25	2015.61
839.43	2136.44
839.61	1859.76
839.79	2136.24
839.97	2359.26
840.15	2421.52
840.33	2241.91
840.51	2426.23
840.69	2359.46
840.87	2314.82
841.05	2237.82
841.23	2139.10
841.41	2362.74
841.59	2767.42
841.77	2633.28
841.95	2723.59
842.13	3192.99
842.31	2892.76
842.49	2521.66
842.67	2517.57
842.85	2705.16
843.03	2365.40
843.21	2228.39
843.39	2399.20
843.57	2403.70
843.75	2422.95
843.93	2100.60
844.11	2126.00
844.29	2263.42
844.47	2147.50
844.65	2167.57
844.83	1983.25
845.01	2084.01
845.19	2249.28
845.36	1975.88
845.54	1985.92
845.72	2094.05
845.90	2124.97
846.08	1838.05
846.26	1935.74
846.44	2115.55
846.62	2124.97
846.80	1962.36
846.98	1821.46
847.16	1971.37
847.34	2048.79
847.52	1824.54
847.70	1751.22
847.88	1998.82
848.06	2254.61
848.24	1978.54
848.41	1769.85
848.59	2195.63
848.77	2079.10
848.95	1852.39
849.13	1824.13
849.31	2170.44
849.49	2079.71
849.67	1820.23
849.85	1782.96
850.03	2112.07
850.21	2043.46
850.39	1769.24
850.57	2001.07
850.74	2246.01
850.92	2252.77
851.10	2012.33
851.28	1934.31
851.46	2205.87
851.64	2571.63
851.82	2036.30
852.00	2103.67
852.18	2393.87
852.36	2294.34
852.53	1977.52
852.71	2084.42
852.89	2211.19
853.07	2176.17
853.25	1893.14
853.43	1777.43
853.61	2090.16
853.79	2102.44
853.97	1849.73
854.14	1868.98
854.32	2223.48
854.50	2144.63
854.68	1869.80
854.86	1846.86
855.04	1897.85
855.22	2188.87
855.40	1719.68
855.57	1828.22
855.75	2154.87
855.93	2106.75
856.11	1718.04
856.29	1813.27
856.47	1924.27
856.65	2081.76
856.82	1799.35
857.00	1743.64
857.18	1998.41
857.36	1935.54
857.54	1946.80
857.72	1999.84
857.89	2141.77
858.07	2052.47
858.25	2076.85
858.43	1780.50
858.61	2001.89
858.79	2007.62
858.97	1804.26
859.14	1926.11
859.32	1989.19
859.50	1969.74
859.68	1941.27
859.86	1791.77
860.03	2027.69
860.21	2083.81
860.39	1809.99
860.57	2002.50
860.75	2085.86
860.93	2312.16
861.10	2042.85
861.28	1796.68
861.46	2047.56
861.64	2068.65
861.82	1855.05
861.99	1933.69
862.17	2182.52
862.35	2187.23
862.53	1857.92
862.71	1874.51
862.88	2075.82
863.06	2170.85
863.24	1857.51
863.42	1778.87
863.60	2007.62
863.77	2115.76
863.95	1703.91
864.13	1859.15
864.31	1984.89
864.49	2143.20
864.66	1776.82
864.84	1808.36
865.02	2062.51
865.20	2503.64
865.37	1946.80
865.55	1798.94
865.73	1837.03
865.91	2124.97
866.09	1981.00
866.26	1901.13
866.44	2151.60
866.62	1986.94
866.80	1761.46
866.97	1850.54
867.15	1987.35
867.33	2011.92
867.51	1906.45
867.68	1876.35
867.86	1924.27
868.04	1933.69
868.22	1663.97
868.39	1823.51
868.57	2084.63
868.75	2263.82
868.93	1725.82
869.10	1814.09
869.28	2346.56
869.46	2254.40
869.64	1865.70
869.81	1845.83
869.99	2082.58
870.17	2061.49
870.35	1783.17
870.52	1860.99
870.70	2194.81
870.88	1918.33
871.05	1783.37
871.23	1682.82
871.41	2011.31
871.59	2009.88
871.76	1851.57
871.94	1782.14
872.12	2043.46
872.29	1791.97
872.47	1834.78
872.65	1762.69
872.83	2108.18
873.00	2257.68
873.18	1861.81
873.36	1820.03
873.53	2150.37
873.71	1788.08
873.89	1759.21
874.06	1857.92
874.24	2087.90
874.42	2227.37
874.60	1969.33
874.77	1943.93
874.95	1948.85
875.13	2201.77
875.30	1825.97
875.48	1804.47
875.66	2276.11
875.83	1900.72
876.01	1809.18
876.19	1951.92
876.36	1799.96
876.54	2046.74
876.72	1787.88
876.89	1920.18
877.07	2161.84
877.25	1749.99
877.42	1870.61
877.60	1846.65
877.78	2333.46
877.95	1944.55
878.13	1798.12
878.31	1981.00
878.48	2187.44
878.66	2126.20
878.84	1836.62
879.01	1861.40
879.19	2070.91
879.37	2140.33
879.54	1852.59
879.72	1722.14
879.90	1734.22
880.07	2162.86
880.25	1604.38
880.42	2002.50
880.60	2063.53
880.78	2135.21
880.95	1837.85
881.13	1895.40
881.31	2021.55
881.48	1923.25
881.66	1797.50
881.83	1965.44
882.01	1904.61
882.19	1832.73
882.36	1878.81
882.54	1838.26
882.72	2136.24
882.89	2048.99
883.07	1802.83
883.24	1836.41
883.42	2155.28
883.60	2017.86
883.77	1752.04
883.95	1855.46
884.12	2173.51
884.30	2056.98
884.48	1976.49
884.65	1861.60
884.83	2060.26
885.00	2059.64
885.18	1721.73
885.36	1830.27
885.53	2095.69
885.71	2218.56
885.88	1739.75
886.06	1846.04
886.23	2121.90
886.41	1939.84
886.59	1827.61
886.76	1757.57
886.94	2095.48
887.11	2486.64
887.29	1855.87
887.47	1773.75
887.64	2228.39
887.82	2242.73
887.99	1698.59
888.17	1865.90
888.34	1960.52
888.52	1851.98
888.69	1836.82
888.87	1733.81
889.05	1979.57
889.22	1951.71
889.40	1812.04
889.57	2054.11
889.75	2255.43
889.92	1992.26
890.10	1758.59
890.27	1899.29
890.45	1939.63
890.62	1762.07
890.80	1774.16
890.98	1670.32
891.15	2286.56
891.33	2187.23
891.50	1784.40
891.68	1717.84
891.85	2133.16
892.03	2129.68
892.20	1781.53
892.38	1760.84
892.55	2133.98
892.73	2151.60
892.90	1731.56
893.08	1793.20
893.25	1960.52
893.43	1962.77
893.60	1915.67
893.78	1642.88
893.95	2080.33
894.13	2001.28
894.30	1790.54
894.48	1856.89
894.65	2184.57
894.83	2058.21
895.00	1672.17
895.18	1678.52
895.35	2160.20
895.53	2130.09
895.70	1759.41
895.88	1965.44
896.05	2093.23
896.23	1807.13
896.40	1798.53
896.58	1893.76
896.75	2135.21
896.93	2274.68
897.10	1830.68
897.28	1721.73
897.45	2032.81
897.63	2129.89
897.80	1934.72
897.98	1815.11
898.15	2085.65
898.33	1939.43
898.50	1868.57
898.67	1834.57
898.85	1961.13
899.02	2071.52
899.20	2048.79
899.37	1816.34
899.55	2040.19
899.72	2261.16
899.90	1807.95
900.07	1780.71
900.25	2098.76
900.42	2203.61
900.59	1796.68
900.77	1956.83
900.94	2122.11
901.12	2069.68
901.29	1838.05
901.47	1978.34
901.64	2118.42
901.82	2008.85
901.99	1647.59
902.16	1771.70
902.34	2216.31
902.51	2038.14
902.69	1781.12
902.86	1862.22
903.03	2643.93
903.21	2030.15
903.38	1820.23
903.56	1790.13
903.73	2202.18
903.91	1958.68
904.08	1751.83
904.25	1651.69
904.43	1905.63
904.60	2145.66
904.78	1838.26
904.95	1752.24
905.12	1946.39
905.30	2307.04
905.47	1915.67
905.65	1972.81
905.82	1992.06
905.99	2112.27
906.17	1812.45
906.34	1772.72
906.52	1878.40
906.69	2098.35
906.86	1894.37
907.04	1884.54
907.21	2173.71
907.38	2159.99
907.56	1770.47
907.73	1758.59
907.91	2257.27
908.08	2227.99
908.25	1821.26
908.43	1711.49
908.60	2138.28
908.77	2038.55
908.95	1832.11
909.12	1735.45
909.30	2138.08
909.47	1766.37
909.64	1851.98
909.82	2015.41
909.99	1966.25
910.16	2050.22
910.34	1796.68
910.51	1803.03
910.68	2058.82
910.86	2019.30
911.03	1676.67
911.20	1790.33
911.38	2212.63
911.55	2490.33
911.72	2392.85
911.90	2282.87
912.07	2618.12
912.24	2812.89
912.42	2267.10
912.59	2075.62
912.76	2388.75
912.94	2244.57
913.11	1940.45
913.28	1859.15
913.46	1920.59
913.63	2111.05
913.80	2185.18
913.98	1792.59
914.15	2190.71
914.32	2204.23
914.49	1922.84
914.67	1727.87
914.84	2033.63
915.01	2109.82
915.19	1901.54
915.36	1791.15
915.53	2164.50
915.71	2099.78
915.88	1901.74
916.05	1820.64
916.22	2195.42
916.40	2053.91
916.57	1728.28
916.74	1955.40
916.92	2281.44
917.09	1900.51
917.26	1771.49
917.43	1721.73
917.61	1935.33
917.78	1786.03
917.95	1737.91
918.13	1753.88
918.30	2394.08
918.47	2023.60
918.64	1781.32
918.82	1762.07
918.99	1981.41
919.16	2292.50
919.33	1846.45
919.51	1853.00
919.68	1986.12
919.85	2205.05
920.02	1695.10
920.20	1834.37
920.37	2314.00
920.54	2153.44
920.71	1761.46
920.89	1802.21
921.06	2318.30
921.23	1891.09
921.40	1714.76
921.58	1865.09
921.75	2534.98
921.92	1921.20
922.09	1915.67
922.27	1857.71
922.44	2011.11
922.61	2088.72
922.78	1782.55
922.96	1815.93
923.13	1952.94
923.30	2184.98
923.47	1689.78
923.64	1766.37
923.82	2090.16
923.99	2069.47
924.16	1898.06
924.33	1756.95
924.50	2019.71
924.68	2271.81
924.85	1774.16
925.02	1794.84
925.19	2168.80
925.36	2026.06
925.54	1844.81
925.71	1884.54
925.88	2521.25
926.05	1968.71
926.22	1780.50
926.40	1905.23
926.57	2077.25
926.74	2133.16
926.91	1799.55
927.08	1989.40
927.26	2214.26
927.43	2037.52
927.60	1787.47
927.77	1841.33
927.94	2287.99
928.11	2205.25
928.29	1702.89
928.46	1885.97
928.63	1894.58
928.80	1968.92
928.97	1889.25
929.14	1804.26
929.32	2377.49
929.49	2031.38
929.66	1787.67
929.83	1733.20
930.00	1945.16
930.17	2073.16
930.35	1761.05
930.52	1801.19
930.69	2295.36
930.86	1849.93
931.03	1844.20
931.20	1637.15
931.37	2230.44
931.55	1992.88
931.72	1877.99
931.89	1740.77
932.06	1858.94
932.23	2302.74
932.40	1917.31
932.57	1948.03
932.74	2224.30
932.92	2222.46
933.09	1968.30
933.26	1560.35
933.43	1937.58
933.60	2067.22
933.77	1870.41
933.94	1895.40
934.11	1981.20
934.29	2053.09
934.46	1756.95
934.63	1892.53
934.80	1801.19
934.97	1993.90
935.14	1828.63
935.31	1683.64
935.48	1888.02
935.65	2077.05
935.82	1851.57
936.00	1728.28
936.17	2287.38
936.34	1986.12
936.51	1920.38
936.68	1727.87
936.85	2055.34
937.02	2080.33
937.19	1912.39
937.36	1856.28
937.53	2078.07
937.70	2155.90
937.87	1797.91
938.05	1926.73
938.22	2049.40
938.39	1871.43
938.56	1825.35
938.73	1744.05
938.90	1987.35
939.07	1900.52
939.24	1874.10
939.41	1673.80
939.58	2075.62
939.75	2092.82
939.92	1785.62
940.09	2080.12
940.26	1956.22
940.43	2161.02
940.60	1843.38
940.77	1847.47
940.95	2085.45
941.12	2127.02
941.29	1835.59
941.46	1838.26
941.63	2228.60
941.80	2270.99
941.97	1721.11
942.14	1680.15
942.31	2120.88
942.48	2009.06
942.65	1934.31
942.82	1854.23
942.99	2118.83
943.16	2068.45
943.33	1732.17
943.50	1788.29
943.67	2161.22
943.84	2201.57
944.01	1803.03
944.18	1774.97
944.35	2266.08
944.52	1907.07
944.69	1897.24
944.86	1731.76
945.03	2144.02
945.20	2419.88
945.37	1655.37
945.54	1850.34
945.71	2250.92
945.88	2312.77
946.05	1783.58
946.22	1765.96
946.39	2246.83
946.56	2026.06
946.73	1694.49
946.90	1729.30
947.07	1937.17
947.24	2015.61
947.41	1642.47
947.58	1906.25
947.75	2125.18
947.92	2091.59
948.09	1626.09
948.26	1713.13
948.43	2074.80
948.60	2334.07
948.77	1766.37
948.94	1813.07
949.11	2147.30
949.27	2095.69
949.44	1785.62
949.61	1723.16
949.78	2086.06
949.95	2198.70
950.12	1712.51
950.29	1659.06
950.46	1948.85
950.63	2194.60
950.80	1754.90
950.97	1802.21
951.14	2187.03
951.31	1974.45
951.48	1751.42
951.65	1711.08
951.82	2353.12
951.99	2083.81
952.15	1722.14
952.32	1808.15
952.49	1922.02
952.66	1979.57
952.83	1766.58
953.00	1742.00
953.17	1999.64
953.34	2197.88
953.51	1836.00
953.68	1852.80
953.85	2226.96
954.02	2225.94
954.18	1838.26
954.35	1802.62
954.52	1916.49
954.69	2076.44
954.86	1683.43
955.03	1879.01
955.20	2156.51
955.37	2000.46
955.54	1813.27
955.71	1733.40
955.87	2095.89
956.04	2309.49
956.21	1793.41
956.38	1745.69
956.55	2050.02
956.72	2476.61
956.89	1853.00
957.06	1763.30
957.23	1919.15
957.39	2235.77
957.56	1820.23
957.73	1737.09
957.90	1697.36
958.07	2363.77
958.24	1838.05
958.41	1788.29
958.57	2149.34
958.74	2038.55
958.91	1734.63
959.08	1771.49
959.25	2132.35
959.42	1999.23
959.59	1842.35
959.75	1838.87
959.92	2222.87
960.09	2190.92
960.26	1778.66
960.43	1884.54
960.60	2061.28
960.76	1998.00
960.93	1693.67
961.10	1882.08
961.27	2193.78
961.44	1962.77
961.61	1725.41
961.77	1680.15
961.94	2055.34
962.11	2176.38
962.28	1781.73
962.45	1693.06
962.62	1997.38
962.78	2172.69
962.95	1696.54
963.12	1765.76
963.29	2153.85
963.46	2528.83
963.62	1858.33
963.79	1770.67
963.96	2449.17
964.13	1978.95
964.30	1891.50
964.46	1802.01
964.63	1877.37
964.80	2485.41
964.97	1628.75
965.14	1907.27
965.30	2050.84
965.47	2153.85
965.64	1948.03
965.81	1898.26
965.98	2254.81
966.14	2047.15
966.31	1778.05
966.48	1757.98
966.65	2228.60
966.81	2065.38
966.98	1794.02
967.15	1787.47
967.32	2000.46
967.49	1884.75
967.65	1648.41
967.82	1617.08
967.99	1975.68
968.16	1743.85
968.32	1922.02
968.49	1736.68
968.66	1992.67
968.83	2273.65
968.99	1890.07
969.16	1727.46
969.33	2245.80
969.50	2131.32
969.66	1909.94
969.83	2058.00
970.00	2156.10
970.17	2109.00
970.33	1835.80
970.50	1729.10
970.67	2285.74
970.84	2284.51
971.00	1745.48
971.17	1682.41
971.34	2151.19
971.50	2022.78
971.67	1889.87
971.84	1833.96
972.01	1847.27
972.17	1705.55
972.34	1713.33
972.51	1947.62
972.67	2218.77
972.84	2081.76
973.01	1747.74
973.18	1779.28
973.34	2181.91
973.51	1888.23
973.68	1838.46
973.84	1822.69
974.01	1966.05
974.18	2316.05
974.34	1881.67
974.51	1892.94
974.68	1909.94
974.85	2331.20
975.01	1912.39
975.18	1801.19
975.35	2048.17
975.51	1887.82
975.68	1682.00
975.85	1953.15
976.01	1931.03
976.18	2264.44
976.35	1807.13
976.51	1821.26
976.68	2301.51
976.85	2258.91
977.01	1835.18
977.18	1879.01
977.35	2112.68
977.51	1854.03
977.68	1646.16
977.85	1709.23
978.01	2178.83
978.18	2131.73
978.35	1842.35
978.51	1857.30
978.68	2201.98
978.85	2298.44
979.01	1818.19
979.18	1830.47
979.34	2026.87
979.51	2046.54
979.68	1748.76
979.84	1871.23
980.01	2454.29
980.18	2041.82
980.34	1782.76
980.51	1852.59
980.67	2161.02
980.84	2164.70
981.01	1792.79
981.17	1877.99
981.34	1752.45
981.51	2129.27
981.67	1741.59
981.84	1898.88
982.00	2134.39
982.17	2015.41
982.34	1644.52
982.50	1547.24
982.67	2298.64
982.83	1957.65
983.00	1706.57
983.17	1591.07
983.33	2220.82
983.50	1781.53
983.66	1673.80
983.83	1571.00
984.00	1969.53
984.16	2028.31
984.33	1607.25
984.49	1571.41
984.66	1895.60
984.83	2156.92
984.99	1647.39
985.16	1589.43
985.32	2146.68
985.49	2162.86
985.65	1748.35
985.82	1595.16
985.99	2271.81
986.15	2064.56
986.32	1750.60
986.48	1676.88
986.65	1979.16
986.81	2128.25
986.98	1588.61
987.14	1666.23
987.31	2041.62
987.48	1783.99
987.64	1534.34
987.81	1571.61
987.97	2383.43
988.14	1902.97
988.30	1638.38
988.47	1484.16
988.63	2069.68
988.80	1850.34
988.96	1680.97
989.13	1714.56
989.30	1998.00
989.46	2160.20
989.63	1575.50
989.79	1568.13
989.96	2043.67
990.12	2280.41
990.29	1614.21
990.45	1684.66
990.62	2013.36
990.78	2230.85
990.95	1721.32
991.11	1640.63
991.28	1924.48
991.44	2059.44
991.61	1511.40
991.77	1696.54
991.94	2055.34
992.10	2206.28
992.27	1706.57
992.43	1661.11
992.60	2132.96
992.76	1975.27
992.93	1812.66
993.09	1564.24
993.26	2179.04
993.42	2303.15
993.59	1619.94
993.75	1542.53
993.92	1908.50
994.08	1894.99
994.25	1696.13
994.41	1563.83
994.58	2130.50
994.74	2250.51
994.91	1583.28
995.07	1709.03
995.24	1993.90
995.40	1978.13
995.56	1771.90
995.73	1715.58
995.89	2305.81
996.06	1975.68
996.22	1618.71
996.39	1562.60
996.55	2001.48
996.72	2053.29
996.88	1566.49
997.05	1573.25
997.21	2354.34
997.37	2119.65
997.54	1704.11
997.70	1654.76
997.87	2092.82
998.03	2000.25
998.20	1530.45
998.36	1544.99
998.52	2148.93
998.69	2163.88
998.85	1557.89
999.02	1654.76
999.18	2184.77
999.35	2147.91
999.51	1695.51
999.67	1647.59
999.84	1860.58
1000.00	2135.83
1000.17	1729.71
1000.33	1614.62
1000.49	1940.66
1000.66	1999.84
1000.82	1615.03
1000.99	1686.91
1001.15	2207.51
1001.31	1981.41
1001.48	1641.04
1001.64	1691.42
1001.81	1964.82
1001.97	2395.71
1002.13	1647.80
1002.30	1663.16
1002.46	2250.92
1002.63	1963.39
1002.79	1718.45
1002.95	1628.95
1003.12	2179.24
1003.28	2062.92
1003.45	1633.46
1003.61	1593.73
1003.77	2037.73
1003.94	1829.86
1004.10	1630.59
1004.26	1729.10
1004.43	2132.55
1004.59	2323.42
1004.75	1608.47
1004.92	1589.43
1005.08	1936.76
1005.25	2067.01
1005.41	1606.02
1005.57	1701.45
1005.74	2210.78
1005.90	1929.80
1006.06	1779.68
1006.23	1620.97
1006.39	2121.70
1006.55	2479.27
1006.72	1759.21
1006.88	1564.65
1007.04	1867.13
1007.21	1997.18
1007.37	1651.28
1007.53	1600.08
1007.70	2282.05
1007.86	2113.91
1008.02	1702.68
1008.19	1565.47
1008.35	2032.20
1008.51	1868.57
1008.68	1654.14
1008.84	1579.39
1009.00	1887.41
1009.17	2182.32
1009.33	1818.39
1009.49	1731.76
1009.65	1875.73
1009.82	2099.99
1009.98	1724.18
1010.14	1536.39
1010.31	2133.57
1010.47	2104.49
1010.63	1706.37
1010.80	1670.73
1010.96	2131.12
1011.12	1999.64
1011.28	1660.49
1011.45	1565.88
1011.61	2486.44
1011.77	1871.84
1011.94	1603.97
1012.10	1583.08
1012.26	1839.28
1012.42	1927.96
1012.59	1707.39
1012.75	1663.36
1012.91	1986.53
1013.07	2171.67
1013.24	1580.21
1013.40	1617.69
1013.56	2061.69
1013.72	1998.20
1013.89	1698.59
1014.05	1738.52
1014.21	2353.32
1014.37	2456.13
1014.54	1657.42
1014.70	1603.97
1014.86	1988.99
1015.02	1835.18
1015.19	1649.02
1015.35	1606.43
1015.51	1999.02
1015.67	1966.05
1015.84	1655.78
1016.00	1631.62
1016.16	2221.23
1016.32	2157.94
1016.49	1620.76
1016.65	1589.02
1016.81	2003.53
1016.97	2110.43
1017.14	1753.47
1017.30	1620.56
1017.46	1946.18
1017.62	2074.59
1017.78	1697.15
1017.95	1617.69
1018.11	2157.33
1018.27	2438.93
1018.43	1788.49
1018.59	1713.33
1018.76	2152.21
1018.92	2465.34
1019.08	1607.45
1019.24	1639.81
1019.40	2279.59
1019.57	2051.86
1019.73	1734.02
1019.89	1656.19
1020.05	2060.87
1020.21	2359.67
1020.38	1619.33
1020.54	1789.52
1020.70	2118.83
1020.86	2141.77
1021.02	1637.15
1021.18	1645.75
1021.35	1957.86
1021.51	2111.87
1021.67	1788.70
1021.83	1689.78
1021.99	1997.59
1022.15	2078.48
1022.32	1673.19
1022.48	1686.71
1022.64	2213.65
1022.80	2281.64
1022.96	1722.96
1023.12	1593.11
1023.29	2195.01
1023.45	2106.95
1023.61	1612.37
1023.77	1852.59
1023.93	2053.09
1024.09	1893.35
1024.25	1629.98
1024.42	1583.90
1024.58	1956.63
1024.74	2083.19
1024.90	1668.48
1025.06	1721.11
1025.22	1932.67
1025.38	2275.91
1025.54	1581.03
1025.71	1726.64
1025.87	2127.84
1026.03	2121.49
1026.19	1588.61
1026.35	1825.15
1026.51	2132.75
1026.67	2029.74
1026.83	1685.68
1026.99	1791.15
1027.16	2087.08
1027.32	1995.95
1027.48	1656.40
1027.64	1641.45
1027.80	2131.32
1027.96	2050.43
1028.12	1649.02
1028.28	1608.88
1028.44	2079.10
1028.60	2255.63
1028.77	1783.78
1028.93	1694.90
1029.09	1944.55
1029.25	1873.69
1029.41	1686.30
1029.57	1742.82
1029.73	2093.64
1029.89	2266.90
1030.05	1764.33
1030.21	1739.34
1030.37	2424.18
1030.53	2150.37
1030.69	1657.22
1030.85	1568.74
1031.02	1866.72
1031.18	1990.63
1031.34	1639.19
1031.50	1728.08
1031.66	1892.12
1031.82	2268.53
1031.98	1688.55
1032.14	1584.31
1032.30	1895.80
1032.46	2166.75
1032.62	1766.78
1032.78	1580.01
1032.94	1915.47
1033.10	1960.93
1033.26	1734.02
1033.42	1785.62
1033.58	2394.08
1033.74	1940.25
1033.90	1644.72
1034.06	1828.84
1034.22	2407.80
1034.38	2193.78
1034.54	1710.67
1034.70	1705.55
1034.86	2358.85
>>>>>End Processed Spectral Data<<<<<
