SpectraSuite Data File
++++++++++++++++++++++++++++++++++++
Date: Thu Mar 30 14:38:29 PDT 2017
User: UCSD _CER
Dark Spectrum Present: No
Reference Spectrum Present: No
Number of Sampled Component Spectra: 1
Spectrometers: USB4C00073
Integration Time (usec): 380000 (USB4C00073)
Spectra Averaged: 10 (USB4C00073)
Boxcar Smoothing: 0 (USB4C00073)
Correct for Electrical Dark: No (USB4C00073)
Strobe/Lamp Enabled: No (USB4C00073)
Correct for Detector Non-linearity: No (USB4C00073)
Correct for Stray Light: No (USB4C00073)
Number of Pixels in Processed Spectrum: 3648
>>>>>Begin Processed Spectral Data<<<<<
345.37	1266.87
345.58	1266.87
345.80	1266.87
346.01	1259.09
346.22	1257.45
346.43	2063.33
346.65	1957.86
346.86	2488.08
347.07	2446.30
347.28	1870.41
347.50	1840.51
347.71	2207.71
347.92	1910.35
348.13	1832.11
348.35	1844.81
348.56	2192.76
348.77	1977.11
348.98	1850.95
349.20	1711.90
349.41	2190.10
349.62	2365.20
349.83	1973.42
350.05	1845.63
350.26	2223.48
350.47	2440.97
350.68	1882.70
350.90	1755.93
351.11	2441.79
351.32	2431.35
351.53	1919.36
351.75	1831.50
351.96	2258.30
352.17	2192.76
352.38	1968.30
352.60	1940.45
352.81	2217.95
353.02	2530.06
353.23	1832.32
353.44	1892.32
353.66	2112.27
353.87	2161.63
354.08	1966.05
354.29	1876.76
354.51	2085.04
354.72	2146.89
354.93	1863.24
355.14	1855.05
355.35	1945.98
355.57	2370.11
355.78	1935.54
355.99	1964.41
356.20	2199.93
356.42	2155.49
356.63	1995.34
356.84	1895.19
357.05	2370.73
357.26	2610.75
357.48	2003.73
357.69	1936.76
357.90	2298.44
358.11	2129.48
358.32	1903.79
358.54	1965.44
358.75	2159.38
358.96	2318.10
359.17	1873.28
359.38	1919.97
359.60	2318.51
359.81	2167.98
360.02	1883.52
360.23	1840.30
360.44	2059.03
360.66	2359.67
360.87	1863.04
361.08	1849.93
361.29	2261.37
361.50	2178.01
361.72	1831.50
361.93	1954.58
362.14	2179.65
362.35	1911.57
362.56	2014.59
362.77	1759.00
362.99	2310.52
363.20	2181.50
363.41	1956.22
363.62	1744.87
363.83	2285.33
364.05	2340.62
364.26	1830.68
364.47	1855.05
364.68	2395.92
364.89	2025.03
365.10	1790.33
365.32	1884.54
365.53	2035.27
365.74	2076.64
365.95	1863.65
366.16	1750.81
366.37	2136.03
366.59	2156.51
366.80	1892.12
367.01	1758.18
367.22	2552.79
367.43	2694.92
367.64	1961.13
367.86	1896.42
368.07	2278.57
368.28	2389.37
368.49	1760.02
368.70	1906.66
368.91	2096.92
369.12	2146.89
369.34	1800.98
369.55	1750.19
369.76	2138.90
369.97	2099.37
370.18	1771.08
370.39	1839.49
370.60	1950.69
370.82	1985.71
371.03	1912.39
371.24	1830.88
371.45	2326.08
371.66	2310.31
371.87	1875.94
372.08	1898.26
372.30	2052.27
372.51	2395.10
372.72	2014.18
372.93	1881.06
373.14	2513.47
373.35	2075.62
373.56	1799.75
373.78	1876.14
373.99	2336.94
374.20	2682.22
374.41	1835.59
374.62	1863.65
374.83	2462.27
375.04	2134.19
375.25	1919.36
375.47	1901.95
375.68	2110.23
375.89	2337.55
376.10	1934.92
376.31	1974.04
376.52	2268.74
376.73	2245.60
376.94	1937.79
377.15	1851.98
377.37	2200.95
377.58	2151.80
377.79	1804.47
378.00	1828.84
378.21	2268.53
378.42	2307.86
378.63	1973.42
378.84	1986.73
379.05	2366.63
379.27	2206.69
379.48	1991.04
379.69	1856.07
379.90	2400.01
380.11	1883.11
380.32	1904.61
380.53	2017.04
380.74	2470.67
380.95	2213.85
381.16	1953.76
381.37	1936.97
381.59	2433.40
381.80	2375.03
382.01	1877.37
382.22	1806.72
382.43	2282.46
382.64	2209.96
382.85	1844.81
383.06	1989.40
383.27	2322.40
383.48	2154.46
383.69	1932.05
383.91	1855.05
384.12	2335.71
384.33	2337.96
384.54	2014.18
384.75	1899.49
384.96	2824.76
385.17	2452.03
385.38	1956.83
385.59	1941.06
385.80	2377.90
386.01	2511.42
386.22	2044.69
386.43	1959.29
386.64	2644.54
386.86	2220.20
387.07	2045.10
387.28	1864.47
387.49	2133.16
387.70	2459.00
387.91	2075.82
388.12	1949.87
388.33	2342.88
388.54	2165.11
388.75	1871.02
388.96	1995.54
389.17	2098.14
389.38	2161.84
389.59	1988.37
389.80	1993.08
390.01	2180.06
390.22	2106.13
390.43	2024.42
390.64	1790.95
390.86	2294.95
391.07	2390.18
391.28	1888.02
391.49	1955.61
391.70	1974.24
391.91	2086.27
392.12	1905.63
392.33	1997.38
392.54	2240.07
392.75	2201.98
392.96	2015.00
393.17	1858.33
393.38	2611.98
393.59	2397.97
393.80	1833.55
394.01	1966.87
394.22	2253.79
394.43	2582.90
394.64	1874.51
394.85	2035.89
395.06	2218.56
395.27	2244.37
395.48	1891.50
395.69	1804.67
395.90	2147.91
396.11	2182.32
396.32	1906.66
396.53	1979.57
396.74	2180.47
396.95	2378.31
397.16	1862.42
397.37	1786.03
397.58	2355.16
397.79	2196.65
398.00	1937.58
398.21	1931.64
398.42	2241.71
398.63	2578.39
398.84	1882.90
399.05	1876.14
399.26	2410.87
399.47	2244.98
399.68	1775.18
399.89	1808.15
400.10	1980.80
400.31	2134.39
400.52	1994.31
400.73	1925.71
400.94	2014.59
401.15	2339.39
401.36	1952.53
401.57	1988.78
401.78	2430.53
401.99	2376.05
402.20	1846.86
402.41	2021.35
402.62	2479.48
402.83	2160.61
403.04	1856.48
403.25	2125.59
403.46	2305.40
403.67	2529.24
403.88	2030.97
404.09	1984.89
404.30	2208.94
404.51	2166.96
404.72	1885.36
404.93	2060.67
405.14	2103.26
405.35	2171.46
405.56	1937.38
405.77	1857.30
405.98	2231.88
406.19	2188.66
406.40	1881.26
406.61	1940.86
406.82	2165.32
407.03	2694.51
407.24	1927.14
407.45	2007.21
407.66	2330.18
407.87	2398.38
408.08	2004.14
408.29	2014.38
408.49	2338.99
408.70	2187.03
408.91	1874.71
409.12	2036.50
409.33	2026.06
409.54	2470.46
409.75	1858.33
409.96	1972.19
410.17	2377.69
410.38	2184.57
410.59	1882.70
410.80	2010.70
411.01	2185.39
411.22	2127.43
411.43	1969.94
411.64	1858.33
411.85	2059.64
412.06	2033.84
412.27	1702.89
412.47	1864.88
412.68	2184.16
412.89	2318.10
413.10	1923.45
413.31	1790.95
413.52	2552.79
413.73	2530.88
413.94	1873.07
414.15	2035.48
414.36	2108.59
414.57	2015.82
414.78	1883.11
414.99	2097.94
415.19	2696.15
415.40	2723.59
415.61	2659.08
415.82	2529.24
416.03	2752.06
416.24	2590.07
416.45	2125.18
416.66	1939.63
416.87	2009.67
417.08	2359.67
417.29	1909.32
417.50	2011.11
417.70	2395.71
417.91	2359.67
418.12	2127.84
418.33	2118.62
418.54	2543.17
418.75	2668.91
418.96	2503.85
419.17	2736.70
419.38	3392.26
419.59	3301.74
419.79	3045.53
420.00	2852.41
420.21	3307.47
420.42	2607.27
420.63	2160.40
420.84	2092.61
421.05	2272.84
421.26	2205.25
421.47	1826.58
421.67	2297.41
421.88	2083.81
422.09	2066.20
422.30	2210.58
422.51	1993.49
422.72	2614.23
422.93	2416.19
423.14	2007.42
423.35	1849.73
423.55	1957.45
423.76	2075.00
423.97	1922.63
424.18	1803.03
424.39	2168.80
424.60	2384.45
424.81	1995.95
425.02	2179.45
425.22	2478.25
425.43	2521.46
425.64	2592.11
425.85	2537.43
426.06	3117.42
426.27	2850.57
426.48	2593.55
426.68	2504.26
426.89	2808.79
427.10	2905.25
427.31	2255.22
427.52	2069.06
427.73	2490.33
427.94	2382.20
428.14	2123.33
428.35	2020.32
428.56	2500.57
428.77	2362.74
428.98	1969.33
429.19	2081.97
429.40	2316.25
429.60	2389.16
429.81	2271.40
430.02	2178.22
430.23	2328.95
430.44	2421.72
430.65	1944.14
430.85	1967.69
431.06	2307.65
431.27	1939.84
431.48	1916.69
431.69	1987.14
431.90	2182.73
432.10	2235.77
432.31	2087.08
432.52	2182.52
432.73	3042.67
432.94	2949.48
433.15	2511.63
433.35	2307.24
433.56	2728.51
433.77	2581.67
433.98	3016.45
434.19	3257.70
434.40	3763.14
434.60	3745.12
434.81	3452.47
435.02	2926.96
435.23	2788.92
435.44	2598.26
435.64	2153.85
435.85	1991.65
436.06	2241.30
436.27	2230.85
436.48	1994.31
436.68	2077.05
436.89	2735.47
437.10	2578.19
437.31	2228.19
437.52	2315.84
437.73	2512.45
437.93	2418.24
438.14	2121.90
438.35	1894.17
438.56	2198.90
438.77	2184.98
438.97	2134.19
439.18	2077.87
439.39	2721.75
439.60	2407.39
439.80	2300.07
440.01	2333.66
440.22	2421.31
440.43	2512.24
440.64	2015.00
440.84	2091.18
441.05	2069.06
441.26	2699.84
441.47	2027.90
441.68	2127.84
441.88	2648.02
442.09	2848.52
442.30	2928.80
442.51	2999.05
442.71	2973.45
442.92	2825.79
443.13	2406.36
443.34	2245.19
443.55	2241.91
443.75	2436.26
443.96	1982.43
444.17	1858.74
444.38	2371.96
444.58	2018.27
444.79	2010.70
445.00	1978.75
445.21	2198.29
445.41	2126.20
445.62	1766.17
445.83	2042.03
446.04	2233.31
446.24	1964.41
446.45	1751.01
446.66	1938.40
446.87	2269.35
447.07	2090.98
447.28	2172.89
447.49	1997.79
447.70	2418.24
447.90	2436.47
448.11	2070.50
448.32	2102.85
448.53	2489.72
448.73	2469.24
448.94	1910.75
449.15	2054.52
449.36	2216.31
449.56	2246.62
449.77	1943.32
449.98	1856.89
450.19	2173.51
450.39	2251.54
450.60	2198.49
450.81	2212.42
451.02	2376.87
451.22	2608.29
451.43	1996.36
451.64	2009.26
451.84	2214.88
452.05	2481.32
452.26	2029.13
452.47	1982.02
452.67	2142.58
452.88	2475.18
453.09	1888.64
453.30	1862.83
453.50	2343.70
453.71	2607.88
453.92	2099.37
454.12	2317.48
454.33	2314.20
454.54	2344.31
454.75	2009.26
454.95	2005.37
455.16	2332.84
455.37	2362.74
455.57	2051.86
455.78	1992.26
455.99	2199.52
456.19	2213.24
456.40	1899.08
456.61	1973.63
456.82	2210.78
457.02	2395.51
457.23	2166.55
457.44	2320.14
457.64	2366.22
457.85	2517.36
458.06	2156.51
458.26	2307.86
458.47	2362.95
458.68	2590.07
458.89	2180.88
459.09	2292.09
459.30	2677.72
459.51	2342.67
459.71	1913.01
459.92	2012.33
460.13	2561.60
460.33	2913.65
460.54	2311.95
460.75	2329.77
460.95	2383.43
461.16	2456.74
461.37	2069.27
461.57	2037.73
461.78	2303.76
461.99	2055.55
462.19	2265.05
462.40	1952.33
462.61	2895.01
462.81	2414.76
463.02	1927.96
463.23	1975.06
463.43	2326.90
463.64	2152.21
463.85	3273.88
464.05	1928.98
464.26	2788.51
464.47	2435.65
464.67	2126.41
464.88	2144.63
465.09	2247.85
465.29	2437.49
465.50	2312.16
465.71	2219.38
465.91	2302.94
466.12	2272.43
466.33	2068.24
466.53	1978.54
466.74	2486.85
466.94	2198.29
467.15	2044.69
467.36	2153.23
467.56	2046.13
467.77	2225.73
467.98	1986.12
468.18	1942.50
468.39	2140.13
468.60	2519.62
468.80	1970.76
469.01	1891.50
469.21	2278.16
469.42	2483.37
469.63	2053.50
469.83	1968.10
470.04	2385.68
470.25	2515.32
470.45	2120.06
470.66	1975.47
470.86	2296.80
471.07	2141.56
471.28	2082.17
471.48	2062.92
471.69	2160.20
471.90	3048.81
472.10	2242.73
472.31	2242.12
472.51	2412.71
472.72	2555.66
472.93	2400.83
473.13	2595.60
473.34	2785.44
473.54	2713.15
473.75	2332.84
473.96	2347.18
474.16	2279.18
474.37	2413.12
474.57	2174.53
474.78	2009.47
474.99	2317.07
475.19	2292.29
475.40	2000.46
475.60	2036.70
475.81	2708.23
476.02	2476.20
476.22	2352.30
476.43	2427.87
476.63	2372.37
476.84	2527.81
477.05	1896.83
477.25	1980.59
477.46	2814.52
477.66	2272.43
477.87	1927.75
478.08	1951.71
478.28	2396.94
478.49	2168.59
478.69	1955.61
478.90	1938.81
479.10	2289.63
479.31	2549.93
479.52	2055.14
479.72	2519.41
479.93	3191.55
480.13	3227.60
480.34	3082.81
480.54	3191.14
480.75	2798.96
480.96	2804.90
481.16	2191.33
481.37	2304.37
481.57	2570.20
481.78	2459.41
481.98	2348.41
482.19	2224.30
482.40	2651.10
482.60	2363.36
482.81	2117.60
483.01	1890.28
483.22	2335.50
483.42	2348.20
483.63	2065.38
483.83	2065.79
484.04	2344.11
484.24	2624.27
484.45	2402.06
484.66	2241.50
484.86	2534.57
485.07	2203.00
485.27	2118.21
485.48	2000.46
485.68	2487.87
485.89	2153.03
486.09	2151.60
486.30	2015.20
486.50	2292.70
486.71	2232.29
486.91	2145.86
487.12	2640.04
487.33	3545.65
487.53	3724.03
487.74	3396.15
487.94	3310.34
488.15	3061.51
488.35	2797.53
488.56	2336.53
488.76	2218.15
488.97	2412.51
489.17	2517.98
489.38	2248.26
489.58	2148.11
489.79	2434.01
489.99	2353.73
490.20	2070.09
490.40	2130.09
490.61	2319.94
490.81	2134.60
491.02	2091.80
491.22	2035.27
491.43	2337.14
491.63	2215.08
491.84	2145.04
492.04	1895.40
492.25	2320.55
492.45	2217.54
492.66	2077.46
492.86	2032.81
493.07	2296.80
493.27	2708.85
493.48	1950.90
493.68	1968.10
493.89	2190.71
494.09	2371.34
494.30	2013.15
494.50	2220.41
494.71	2305.81
494.91	1960.93
495.12	2003.94
495.32	2054.52
495.53	2217.34
495.73	2064.56
495.94	2263.01
496.14	2118.83
496.35	2801.83
496.55	2376.05
496.76	2119.44
496.96	2140.13
497.17	2268.33
497.37	2335.30
497.58	1998.00
497.78	1948.85
497.98	2173.30
498.19	2178.01
498.39	2007.42
498.60	2051.45
498.80	1911.37
499.01	2334.27
499.21	1901.54
499.42	2071.93
499.62	2160.61
499.83	2610.75
500.03	1965.23
500.24	2292.70
500.44	2681.41
500.64	2666.05
500.85	2301.51
501.05	2356.60
501.26	2118.21
501.46	2570.82
501.67	2086.47
501.87	1987.35
502.08	2136.85
502.28	2199.31
502.48	2116.17
502.69	2137.46
502.89	1997.38
503.10	2082.99
503.30	2068.45
503.51	2047.15
503.71	2024.42
503.92	2342.06
504.12	2068.86
504.32	1973.83
504.53	2340.62
504.73	2350.25
504.94	2144.84
505.14	2310.11
505.35	2441.38
505.55	2481.11
505.75	2258.09
505.96	2457.97
506.16	2838.08
506.37	2298.64
506.57	2054.52
506.78	2174.94
506.98	2469.65
507.18	2038.14
507.39	1960.11
507.59	2037.93
507.80	2098.14
508.00	2254.61
508.20	2229.21
508.41	2011.11
508.61	2435.03
508.82	2412.10
509.02	2175.35
509.22	1987.35
509.43	2057.80
509.63	2126.20
509.84	2033.02
510.04	1854.23
510.24	2462.48
510.45	2353.12
510.65	1906.25
510.86	2049.61
511.06	2012.95
511.26	2334.27
511.47	2200.54
511.67	1970.97
511.88	2307.65
512.08	2370.73
512.28	1928.16
512.49	2083.60
512.69	2232.08
512.90	2252.77
513.10	2001.28
513.30	2112.07
513.51	2344.31
513.71	2610.14
513.91	2218.56
514.12	2219.38
514.32	2523.51
514.53	2248.87
514.73	2182.32
514.93	2064.15
515.14	2284.10
515.34	2497.09
515.54	2025.44
515.75	2151.60
515.95	2388.75
516.15	2538.25
516.36	2084.01
516.56	2128.45
516.77	1880.65
516.97	2326.49
517.17	2046.74
517.38	2136.44
517.58	2458.18
517.78	2139.31
517.99	2156.72
518.19	2087.49
518.39	2485.01
518.60	2191.53
518.80	1971.17
519.00	2119.03
519.21	2193.37
519.41	2504.05
519.61	1961.95
519.82	2130.30
520.02	2227.99
520.22	2206.48
520.43	2007.42
520.63	2029.74
520.83	2078.48
521.04	1916.90
521.24	2094.87
521.44	2023.39
521.65	2061.28
521.85	2298.44
522.05	1963.18
522.26	1968.71
522.46	2548.08
522.66	2321.58
522.87	2004.96
523.07	2214.26
523.27	2094.87
523.48	2438.31
523.68	2037.11
523.88	2105.93
524.09	2403.50
524.29	2232.90
524.49	1900.51
524.70	2098.96
524.90	2405.95
525.10	2305.60
525.31	1918.33
525.51	1922.43
525.71	2339.60
525.91	2298.84
526.12	2010.70
526.32	1915.47
526.52	2122.51
526.73	2082.78
526.93	2078.89
527.13	1880.85
527.34	2187.23
527.54	2177.61
527.74	2032.61
527.94	1924.27
528.15	2014.59
528.35	2196.86
528.55	2138.90
528.76	2043.05
528.96	1912.19
529.16	2343.70
529.36	2114.73
529.57	1928.78
529.77	2408.21
529.97	2029.33
530.18	2069.27
530.38	1972.60
530.58	2317.07
530.78	2208.73
530.99	1984.89
531.19	2075.41
531.39	2089.54
531.60	2216.11
531.80	2073.57
532.00	2182.32
532.20	2241.30
532.41	2103.88
532.61	1983.87
532.81	1984.07
533.01	2163.47
533.22	2277.34
533.42	2165.32
533.62	1897.03
533.82	2444.46
534.03	2182.11
534.23	2162.04
534.43	1976.49
534.63	2141.77
534.84	2258.50
535.04	2144.43
535.24	2074.80
535.44	2677.72
535.65	2163.88
535.85	2032.20
536.05	1928.98
536.25	2219.18
536.46	2064.56
536.66	2191.94
536.86	2081.35
537.06	2346.15
537.27	2474.97
537.47	2051.25
537.67	2024.83
537.87	2444.87
538.08	2192.76
538.28	1948.44
538.48	1930.42
538.68	2176.17
538.88	2298.23
539.09	1893.35
539.29	2031.99
539.49	2361.72
539.69	2276.32
539.90	2119.03
540.10	1937.99
540.30	2443.43
540.50	2113.09
540.70	1909.32
540.91	1976.29
541.11	2360.90
541.31	2516.13
541.51	2096.51
541.72	2131.94
541.92	2289.83
542.12	2094.87
542.32	2105.11
542.52	2019.30
542.73	2065.99
542.93	2302.74
543.13	2036.70
543.33	2174.53
543.53	2367.86
543.74	2352.91
543.94	2003.73
544.14	2112.07
544.34	2487.87
544.54	2245.60
544.75	2176.99
544.95	2289.63
545.15	2421.93
545.35	2557.09
545.55	2230.44
545.75	2084.22
545.96	2687.34
546.16	2122.31
546.36	2054.73
546.56	2110.84
546.76	2440.56
546.97	2551.56
547.17	2106.34
547.37	2133.16
547.57	2139.92
547.77	2361.51
547.97	2131.94
548.18	2151.39
548.38	2201.77
548.58	2490.33
548.78	2060.26
548.98	2144.63
549.18	2436.47
549.39	2585.56
549.59	2221.64
549.79	2156.72
549.99	2539.07
550.19	2385.27
550.39	2257.27
550.60	2086.68
550.80	2302.33
551.00	2349.63
551.20	2050.02
551.40	2032.81
551.60	2318.71
551.80	2251.33
552.01	2126.82
552.21	2068.04
552.41	2253.18
552.61	2526.58
552.81	2138.69
553.01	1977.31
553.21	2321.58
553.42	2065.38
553.62	2043.87
553.82	1956.63
554.02	2499.75
554.22	2360.49
554.42	1925.09
554.62	2193.99
554.83	2525.15
555.03	2537.84
555.23	2188.25
555.43	2453.67
555.63	2434.22
555.83	2357.42
556.03	2244.16
556.23	2053.09
556.44	2316.25
556.64	2491.15
556.84	1862.83
557.04	2107.97
557.24	2283.49
557.44	2281.64
557.64	2137.26
557.84	1993.29
558.04	2176.79
558.25	2329.97
558.45	1973.63
558.65	2069.27
558.85	2199.72
559.05	1938.61
559.25	2026.47
559.45	2128.25
559.65	2610.75
559.85	3145.68
560.05	2208.32
560.26	2345.13
560.46	2359.87
560.66	2273.04
560.86	2129.48
561.06	2067.01
561.26	2531.70
561.46	2350.45
561.66	2036.70
561.86	2178.63
562.06	2101.42
562.26	2192.76
562.47	2094.05
562.67	1951.71
562.87	2331.82
563.07	1948.85
563.27	2053.91
563.47	2076.44
563.67	2133.16
563.87	2325.26
564.07	2003.12
564.27	2089.54
564.47	2265.05
564.67	2322.19
564.87	2089.95
565.08	2163.47
565.28	2136.65
565.48	2323.83
565.68	2129.07
565.88	2225.53
566.08	2582.69
566.28	2224.71
566.48	1971.17
566.68	2079.10
566.88	2159.38
567.08	2369.09
567.28	2113.50
567.48	2086.88
567.68	2286.35
567.88	2008.85
568.08	2084.83
568.28	2195.83
568.48	2180.88
568.68	2430.12
568.89	2107.56
569.09	1937.99
569.29	2347.18
569.49	2358.85
569.69	1981.61
569.89	1993.49
570.09	1891.71
570.29	2071.73
570.49	1950.08
570.69	2026.47
570.89	2339.60
571.09	2589.45
571.29	1925.71
571.49	2228.19
571.69	2290.86
571.89	2295.98
572.09	2078.48
572.29	2124.56
572.49	2355.57
572.69	2322.60
572.89	2086.06
573.09	1808.97
573.29	2228.60
573.49	2270.99
573.69	2055.75
573.89	2137.46
574.09	2142.79
574.29	2445.27
574.49	2090.98
574.69	1979.57
574.89	2046.33
575.09	2063.12
575.29	1946.80
575.49	2059.03
575.69	2276.93
575.89	2011.72
576.09	2071.52
576.29	2070.91
576.49	2028.72
576.69	2201.98
576.89	2051.66
577.09	2094.66
577.29	1977.72
577.49	2527.60
577.69	2034.25
577.89	2196.45
578.09	2260.55
578.29	1969.12
578.49	2092.00
578.69	1985.10
578.89	2409.64
579.09	2247.65
579.29	1983.25
579.49	2174.74
579.69	2152.21
579.89	2530.67
580.09	1853.82
580.29	1908.30
580.49	2111.46
580.69	2028.51
580.89	1984.48
581.09	2013.36
581.29	2100.40
581.49	2194.60
581.69	1960.93
581.89	1963.59
582.09	2072.75
582.28	2068.04
582.48	2151.19
582.68	2226.96
582.88	2495.65
583.08	2202.18
583.28	2095.48
583.48	2094.46
583.68	2080.53
583.88	2231.26
584.08	2079.92
584.28	2100.40
584.48	2589.86
584.68	2270.79
584.88	2054.11
585.08	2283.49
585.28	2398.79
585.48	2456.13
585.68	2144.22
585.87	2234.33
586.07	2304.78
586.27	2220.00
586.47	2148.93
586.67	2031.38
586.87	2223.68
587.07	2164.91
587.27	2002.30
587.47	2157.74
587.67	2570.82
587.87	2800.39
588.07	2266.08
588.27	2174.33
588.46	2523.30
588.66	2505.69
588.86	2181.09
589.06	2199.11
589.26	2465.55
589.46	2403.09
589.66	2047.97
589.86	1980.80
590.06	2205.46
590.26	2384.04
590.46	2137.67
590.66	2276.11
590.85	2253.79
591.05	2426.02
591.25	2094.66
591.45	2142.79
591.65	2398.38
591.85	2320.96
592.05	2089.54
592.25	2193.37
592.45	2455.72
592.64	2228.19
592.84	2132.14
593.04	2031.79
593.24	2698.20
593.44	2170.44
593.64	2116.99
593.84	2171.46
594.04	2181.09
594.24	2505.48
594.43	2055.34
594.63	2097.32
594.83	2397.15
595.03	2363.15
595.23	1991.85
595.43	1958.68
595.63	2090.16
595.83	2370.32
596.02	1836.41
596.22	2062.51
596.42	2241.91
596.62	2209.35
596.82	2044.08
597.02	2100.19
597.22	2478.45
597.41	2252.15
597.61	2030.36
597.81	2177.81
598.01	2339.80
598.21	2153.85
598.41	2002.91
598.61	2010.29
598.80	2246.21
599.00	2287.99
599.20	2257.07
599.40	2086.88
599.60	2200.13
599.80	2373.19
599.99	2209.35
600.19	2049.61
600.39	2278.98
600.59	2355.37
600.79	2177.81
600.99	2086.68
601.19	2560.98
601.38	2606.04
601.58	2199.11
601.78	1873.69
601.98	2400.42
602.18	2488.90
602.37	2613.62
602.57	2530.88
602.77	2808.17
602.97	2752.06
603.17	2693.28
603.37	2576.14
603.56	2799.37
603.76	2715.20
603.96	2464.53
604.16	2444.46
604.36	2714.17
604.56	2585.15
604.75	2193.17
604.95	2279.80
605.15	2627.34
605.35	2554.02
605.55	2165.52
605.74	2133.16
605.94	2511.22
606.14	2288.20
606.34	2132.96
606.54	2199.11
606.73	2156.72
606.93	2356.80
607.13	2027.90
607.33	2150.78
607.53	2487.46
607.72	2413.12
607.92	2122.11
608.12	2215.29
608.32	2171.05
608.51	2332.02
608.71	1943.32
608.91	2161.63
609.11	2343.08
609.31	2198.70
609.50	2100.81
609.70	2344.92
609.90	2433.81
610.10	2454.90
610.29	2081.35
610.49	2016.84
610.69	2405.34
610.89	2319.73
611.09	2140.33
611.28	2326.49
611.48	2485.82
611.68	2243.55
611.88	2074.80
612.07	2007.83
612.27	2374.01
612.47	2104.70
612.67	2121.90
612.86	2163.47
613.06	2219.59
613.26	1929.19
613.46	2006.39
613.65	2108.18
613.85	2772.34
614.05	2346.97
614.25	2209.55
614.44	2112.27
614.64	2203.00
614.84	2135.01
615.04	2042.03
615.23	2034.45
615.43	2341.65
615.63	2325.26
615.83	2002.91
616.02	1906.04
616.22	2373.39
616.42	2075.21
616.62	2036.91
616.81	2177.81
617.01	2337.14
617.21	2245.19
617.41	1981.61
617.60	2106.75
617.80	2316.46
618.00	2350.86
618.19	2147.70
618.39	2078.07
618.59	2319.94
618.79	2218.36
618.98	1892.53
619.18	2042.03
619.38	2594.78
619.57	2148.52
619.77	2022.98
619.97	1988.17
620.17	2116.99
620.36	1990.01
620.56	2250.72
620.76	1957.24
620.95	2035.27
621.15	2142.58
621.35	1987.96
621.54	2080.12
621.74	2229.42
621.94	2092.20
622.14	1928.98
622.33	1904.20
622.53	2160.40
622.73	2151.19
622.92	1896.42
623.12	2030.77
623.32	2565.70
623.51	2350.45
623.71	1947.62
623.91	2215.29
624.10	2042.44
624.30	2238.43
624.50	1927.34
624.69	1876.35
624.89	2926.75
625.09	2140.74
625.29	1809.38
625.48	1926.32
625.68	2214.88
625.88	2391.21
626.07	2076.85
626.27	1970.76
626.47	2118.21
626.66	1923.45
626.86	2064.35
627.06	2045.10
627.25	2189.48
627.45	2478.86
627.64	2029.54
627.84	2214.26
628.04	2038.96
628.23	2569.59
628.43	1910.96
628.63	1969.74
628.82	2111.87
629.02	2577.78
629.22	2120.26
629.41	2246.21
629.61	2254.20
629.81	2579.01
630.00	2050.84
630.20	1999.02
630.40	2308.06
630.59	2318.71
630.79	2073.16
630.98	2022.37
631.18	2178.63
631.38	2215.70
631.57	2160.20
631.77	1899.70
631.97	2230.65
632.16	2243.75
632.36	2059.23
632.56	2074.59
632.75	2227.78
632.95	2375.03
633.14	1922.43
633.34	2186.62
633.54	1917.31
633.73	2105.31
633.93	2047.56
634.12	1873.07
634.32	2688.16
634.52	2201.36
634.71	1867.34
634.91	2085.24
635.11	2000.66
635.30	2068.24
635.50	2076.44
635.69	1949.26
635.89	2552.38
636.09	2373.60
636.28	1957.86
636.48	1985.10
636.67	2313.39
636.87	2318.10
637.07	2135.42
637.26	2058.62
637.46	2303.56
637.65	2460.22
637.85	2196.24
638.04	2062.10
638.24	2194.81
638.44	2311.54
638.63	2139.10
638.83	2072.34
639.02	2326.29
639.22	2319.53
639.42	2051.04
639.61	2055.14
639.81	2231.06
640.00	2221.43
640.20	2179.24
640.39	2099.37
640.59	2701.89
640.79	2555.05
640.98	2387.32
641.18	2296.80
641.37	2448.14
641.57	2343.08
641.76	2289.83
641.96	2005.58
642.15	2367.86
642.35	2240.68
642.55	2208.53
642.74	2012.95
642.94	2409.84
643.13	2546.44
643.33	2057.80
643.52	2035.07
643.72	2166.75
643.91	2232.29
644.11	1943.73
644.31	2018.27
644.50	2112.89
644.70	2409.03
644.89	2079.92
645.09	2150.37
645.28	2243.55
645.48	2306.42
645.67	1987.14
645.87	1908.71
646.06	2170.85
646.26	2270.99
646.45	1839.08
646.65	1836.62
646.84	2535.79
647.04	2154.26
647.24	1919.56
647.43	2035.07
647.63	2259.11
647.82	2507.94
648.02	1994.93
648.21	2037.73
648.41	2445.27
648.60	2200.95
648.80	2208.73
648.99	2058.21
649.19	2132.75
649.38	1960.11
649.58	2060.67
649.77	2127.43
649.97	2407.39
650.16	2316.46
650.36	1852.59
650.55	2225.53
650.75	2294.34
650.94	2503.23
651.14	2095.28
651.33	2146.68
651.53	2533.95
651.72	2118.83
651.92	2017.25
652.11	1904.82
652.31	2317.48
652.50	2286.76
652.70	2106.13
652.89	1974.04
653.09	2523.71
653.28	2198.08
653.48	1863.45
653.67	1878.19
653.87	2786.88
654.06	2261.37
654.25	2281.64
654.45	1993.70
654.64	2162.25
654.84	2173.30
655.03	1846.45
655.23	2170.85
655.42	2343.90
655.62	2534.77
655.81	2167.37
656.01	2002.71
656.20	2350.45
656.40	2517.57
656.59	2097.32
656.79	2188.87
656.98	2273.04
657.17	2385.88
657.37	2041.62
657.56	2041.82
657.76	2276.32
657.95	2430.94
658.15	1722.96
658.34	2095.28
658.54	2230.24
658.73	2023.80
658.92	2046.74
659.12	2066.61
659.31	2325.47
659.51	2071.93
659.70	2134.39
659.90	2007.42
660.09	2426.02
660.29	2234.54
660.48	2004.55
660.67	2234.54
660.87	2143.20
661.06	2304.58
661.26	2134.39
661.45	2197.68
661.65	2307.24
661.84	2138.49
662.03	1972.40
662.23	2024.62
662.42	2570.61
662.62	2011.51
662.81	1939.43
663.00	2046.13
663.20	2289.01
663.39	2463.30
663.59	2295.98
663.78	2165.32
663.97	2336.32
664.17	2557.71
664.36	2067.42
664.56	2116.58
664.75	2444.05
664.94	2415.58
665.14	2186.00
665.33	2113.30
665.53	2289.01
665.72	2266.28
665.91	2205.66
666.11	2134.39
666.30	2269.56
666.50	2209.35
666.69	2219.18
666.88	2138.49
667.08	2398.58
667.27	2377.49
667.47	2270.38
667.66	2188.46
667.85	2539.48
668.05	2354.34
668.24	2123.95
668.43	2388.96
668.63	2254.40
668.82	2520.03
669.02	2219.38
669.21	2082.78
669.40	2048.38
669.60	2570.20
669.79	1940.04
669.98	2695.33
670.18	2060.87
670.37	1999.02
670.56	2050.63
670.76	2106.13
670.95	2194.60
671.15	2350.25
671.34	2052.88
671.53	2057.39
671.73	2102.24
671.92	2093.84
672.11	1975.68
672.31	2007.62
672.50	2267.10
672.69	1978.34
672.89	1787.47
673.08	2002.71
673.27	2301.30
673.47	2243.75
673.66	2065.79
673.85	1927.96
674.05	2285.74
674.24	2482.75
674.43	2342.06
674.63	2640.04
674.82	3225.76
675.01	2454.70
675.21	2603.17
675.40	2415.37
675.59	2514.50
675.79	2796.50
675.98	2295.77
676.17	2449.58
676.37	2485.82
676.56	2320.96
676.75	2166.75
676.95	2186.41
677.14	2224.09
677.33	2437.08
677.52	1923.25
677.72	1991.24
677.91	2264.44
678.10	1950.69
678.30	1962.77
678.49	1960.73
678.68	2541.53
678.88	1902.15
679.07	2224.30
679.26	1998.61
679.45	2504.26
679.65	2430.73
679.84	1849.52
680.03	1873.89
680.23	2101.01
680.42	2618.74
680.61	1943.32
680.81	1984.89
681.00	2194.60
681.19	2219.38
681.38	2143.20
681.58	2088.72
681.77	2119.85
681.96	2335.71
682.15	1926.93
682.35	2117.80
682.54	2289.42
682.73	1989.19
682.93	1923.25
683.12	1922.63
683.31	2322.81
683.50	2689.19
683.70	1936.35
683.89	2086.06
684.08	2030.77
684.27	2367.86
684.47	1889.66
684.66	2025.65
684.85	2565.70
685.04	2425.00
685.24	1961.54
685.43	2012.54
685.62	1945.78
685.81	2308.06
686.01	2287.17
686.20	2252.77
686.39	2343.70
686.58	2998.43
686.78	2557.30
686.97	2468.42
687.16	2701.27
687.35	2533.34
687.55	2293.72
687.74	2369.50
687.93	2233.11
688.12	2362.95
688.32	2269.15
688.51	2036.09
688.70	2368.27
688.89	2081.97
689.08	1935.13
689.28	1997.79
689.47	2247.44
689.66	2231.47
689.85	2116.17
690.05	1979.98
690.24	2079.92
690.43	2238.23
690.62	2036.50
690.81	1974.45
691.01	2186.62
691.20	2130.71
691.39	1879.42
691.58	2093.02
691.77	2502.62
691.97	2234.74
692.16	2111.87
692.35	2039.57
692.54	2094.46
692.73	2374.82
692.93	2178.63
693.12	2278.77
693.31	2449.17
693.50	2378.51
693.69	2265.87
693.89	2089.75
694.08	2533.95
694.27	2538.46
694.46	2118.21
694.65	2130.09
694.85	2385.68
695.04	2415.37
695.23	2425.61
695.42	4019.96
695.61	5505.76
695.80	6445.37
696.00	7187.55
696.19	7652.64
696.38	6787.17
696.57	5629.25
696.76	5337.62
696.95	4892.60
697.15	4952.60
697.34	4600.15
697.53	3873.73
697.72	3723.41
697.91	3372.19
698.10	3377.31
698.30	2647.41
698.49	2403.91
698.68	2458.38
698.87	2250.92
699.06	2048.17
699.25	2113.91
699.45	2391.00
699.64	2249.08
699.83	2232.08
700.02	2005.17
700.21	2271.61
700.40	2100.40
700.59	1969.53
700.79	2038.14
700.98	2289.01
701.17	2082.99
701.36	1985.30
701.55	1977.93
701.74	2442.41
701.93	2150.78
702.12	2251.54
702.32	2272.43
702.51	2761.69
702.70	2739.16
702.89	2404.32
703.08	2285.94
703.27	2632.66
703.46	2469.03
703.65	2124.97
703.85	2061.28
704.04	2216.11
704.23	2504.67
704.42	2012.33
704.61	2021.55
704.80	2477.22
704.99	2104.49
705.18	2104.49
705.37	2254.20
705.57	3455.54
705.76	4920.86
705.95	5256.93
706.14	6363.86
706.33	7017.36
706.52	6917.63
706.71	5243.41
706.90	4772.79
707.09	4728.56
707.28	4408.66
707.47	3877.42
707.67	3763.35
707.86	3501.82
708.05	3594.19
708.24	2919.58
708.43	2714.38
708.62	2551.56
708.81	2291.88
709.00	2060.26
709.19	2031.58
709.38	2420.49
709.57	2067.42
709.76	2086.27
709.96	2003.32
710.15	2456.74
710.34	2257.48
710.53	2169.41
710.72	2013.56
710.91	2443.02
711.10	2287.17
711.29	2135.83
711.48	2017.25
711.67	2041.42
711.86	2278.77
712.05	1887.82
712.24	1925.09
712.43	2316.87
712.62	2459.82
712.81	2032.61
713.00	2211.19
713.19	2002.71
713.39	2314.82
713.58	2059.64
713.77	2351.27
713.96	2641.67
714.15	2571.43
714.34	2522.48
714.53	2284.71
714.72	2839.10
714.91	2327.72
715.10	2367.45
715.29	2179.24
715.48	2929.21
715.67	2459.00
715.86	2205.25
716.05	2156.31
716.24	2240.48
716.43	2156.92
716.62	1975.68
716.81	1928.78
717.00	2110.23
717.19	2466.78
717.38	1994.31
717.57	1994.93
717.76	1959.09
717.95	2358.85
718.14	2019.50
718.33	2029.13
718.52	1926.11
718.71	1943.93
718.90	1916.08
719.09	1919.15
719.28	2194.40
719.47	2340.83
719.66	2133.78
719.85	2185.18
720.04	2236.38
720.23	2291.68
720.42	2041.82
720.61	2192.56
720.80	2011.51
720.99	2292.91
721.18	2045.72
721.37	1969.74
721.56	2156.51
721.75	2345.54
721.94	1958.06
722.13	2010.90
722.32	2143.81
722.51	2343.90
722.70	2075.21
722.89	2110.64
723.08	2197.68
723.27	2348.20
723.46	2086.68
723.65	2042.64
723.84	2091.59
724.03	2415.37
724.22	1926.32
724.41	2028.72
724.60	2137.26
724.79	2343.29
724.98	2066.20
725.16	2012.95
725.35	2329.77
725.54	2025.24
725.73	2052.47
725.92	2143.81
726.11	2451.01
726.30	3020.96
726.49	2830.29
726.68	3097.96
726.87	3509.81
727.06	3567.56
727.25	2842.79
727.44	2847.09
727.63	2835.82
727.82	2752.06
728.01	2609.73
728.20	2599.49
728.38	2854.25
728.57	2514.29
728.76	2299.05
728.95	2373.19
729.14	2136.85
729.33	2112.07
729.52	1856.07
729.71	1990.83
729.90	2094.05
730.09	2176.38
730.28	2053.09
730.47	2114.73
730.66	2512.86
730.84	2366.63
731.03	2162.45
731.22	2157.94
731.41	2311.54
731.60	2360.69
731.79	1920.38
731.98	2018.27
732.17	2353.32
732.36	2329.77
732.55	2041.82
732.73	1942.70
732.92	2468.21
733.11	2308.47
733.30	2002.71
733.49	1940.45
733.68	2351.89
733.87	2282.26
734.06	1985.10
734.25	2064.56
734.43	2245.60
734.62	2447.53
734.81	2245.60
735.00	2197.47
735.19	2358.85
735.38	2423.16
735.57	2037.93
735.76	2260.75
735.94	2485.62
736.13	2907.09
736.32	2586.99
736.51	2592.93
736.70	3190.33
736.89	3276.55
737.08	3317.50
737.27	5187.91
737.45	7785.76
737.64	8697.52
737.83	10040.17
738.02	10787.06
738.21	10178.00
738.40	8109.34
738.59	7188.37
738.77	6615.76
738.96	6280.92
739.15	5964.50
739.34	5392.51
739.53	4944.82
739.72	4811.50
739.90	4347.63
740.09	3480.93
740.28	3144.66
740.47	3088.95
740.66	2765.99
740.85	2227.99
741.03	2229.01
741.22	2145.04
741.41	2277.14
741.60	1970.97
741.79	2189.28
741.98	2518.39
742.16	2638.81
742.35	2178.42
742.54	2208.94
742.73	2726.87
742.92	2370.11
743.10	2124.56
743.29	2222.87
743.48	2836.44
743.67	2279.18
743.86	2031.58
744.05	2082.58
744.23	2179.65
744.42	2162.45
744.61	2214.67
744.80	2014.38
744.99	2229.83
745.17	1989.40
745.36	1983.25
745.55	2229.62
745.74	2341.44
745.93	2207.92
746.11	2064.97
746.30	2062.51
746.49	2498.11
746.68	2171.26
746.86	2162.25
747.05	2104.29
747.24	2432.99
747.43	2454.70
747.62	2077.87
747.80	2121.08
747.99	2578.80
748.18	2486.23
748.37	2214.26
748.56	2278.16
748.74	2574.71
748.93	2680.38
749.12	4245.03
749.31	9398.54
749.49	13989.26
749.68	17005.92
749.87	19634.29
750.06	20741.62
750.24	19620.77
750.43	18452.20
750.62	19958.07
750.81	20435.86
750.99	21263.65
751.18	20673.43
751.37	17218.50
751.56	14397.63
751.74	13969.60
751.93	12417.24
752.12	10097.10
752.31	8675.40
752.49	7563.56
752.68	6813.59
752.87	5496.13
753.06	4763.98
753.24	4207.96
753.43	3840.97
753.62	2944.77
753.81	2602.97
753.99	2903.20
754.18	2546.24
754.37	2166.34
754.55	2198.70
754.74	2659.29
754.93	2027.28
755.12	2071.32
755.30	1996.16
755.49	2451.62
755.68	2303.76
755.86	2196.24
756.05	1965.64
756.24	2528.22
756.43	2045.51
756.61	2020.94
756.80	2142.18
756.99	2495.04
757.17	2265.46
757.36	2046.33
757.55	2077.46
757.74	2344.11
757.92	2275.91
758.11	2002.09
758.30	1903.18
758.48	2232.08
758.67	2114.12
758.86	2179.86
759.04	2095.69
759.23	2264.03
759.42	2352.50
759.60	2101.83
759.79	2152.21
759.98	2240.07
760.16	2148.11
760.35	2065.58
760.54	1996.16
760.73	2328.95
760.91	2051.04
761.10	2124.56
761.29	2180.06
761.47	2264.03
761.66	2710.69
761.85	2221.02
762.03	2769.06
762.22	5432.85
762.41	13977.39
762.59	23592.19
762.78	28405.94
762.97	34321.70
763.15	36576.93
763.34	33002.40
763.52	23990.73
763.71	22303.81
763.90	20216.93
764.08	18886.98
764.27	17156.24
764.46	15812.57
764.64	13844.47
764.83	12231.49
765.02	10544.58
765.20	9111.00
765.39	7379.04
765.58	5373.67
765.76	4293.57
765.95	3671.80
766.13	3103.29
766.32	2554.84
766.51	2403.29
766.69	3252.17
766.88	2466.78
767.07	2070.50
767.25	1920.79
767.44	2438.31
767.62	2524.12
767.81	2011.72
768.00	2073.16
768.18	2251.95
768.37	2125.38
768.56	1900.72
768.74	1994.52
768.93	2004.55
769.11	2287.38
769.30	2103.67
769.49	2026.06
769.67	2173.51
769.86	2120.47
770.04	2033.43
770.23	1968.30
770.42	2448.14
770.60	2252.56
770.79	1984.69
770.97	2199.93
771.16	3395.12
771.35	5417.29
771.53	7256.57
771.72	8500.09
771.90	9980.57
772.09	10726.03
772.27	9251.90
772.46	7037.64
772.65	7145.57
772.83	6519.30
773.02	6115.44
773.20	5522.76
773.39	5468.08
773.58	5008.31
773.76	4262.44
773.95	3908.96
774.13	3865.95
774.32	3363.58
774.50	2752.67
774.69	2598.46
774.87	2474.56
775.06	2808.38
775.25	2079.71
775.43	2106.34
775.62	2354.55
775.80	2325.67
775.99	2119.85
776.17	2028.72
776.36	2235.97
776.54	2427.25
776.73	2043.87
776.92	2135.83
777.10	2408.41
777.29	2263.21
777.47	2011.31
777.66	2025.03
777.84	2204.64
778.03	2183.13
778.21	1969.53
778.40	2082.17
778.58	2280.62
778.77	2396.33
778.95	1943.73
779.14	1974.86
779.32	2516.75
779.51	2366.84
779.70	1978.34
779.88	1870.00
780.07	2141.15
780.25	2666.46
780.44	2023.80
780.62	2107.36
780.81	2292.91
780.99	2250.72
781.18	1972.60
781.36	1962.57
781.55	2166.75
781.73	2454.29
781.92	1877.58
782.10	1927.55
782.29	2289.42
782.47	2481.11
782.66	1988.78
782.84	1883.31
783.03	2079.71
783.21	2415.99
783.40	1956.22
783.58	1962.57
783.77	2091.59
783.95	2165.52
784.14	1961.54
784.32	2073.16
784.51	2408.41
784.69	2078.89
784.88	1882.08
785.06	1996.97
785.24	1971.17
785.43	2342.88
785.61	2081.56
785.80	1956.42
785.98	2305.60
786.17	2214.88
786.35	1941.06
786.54	2108.59
786.72	2385.27
786.91	2382.61
787.09	2043.05
787.28	1927.96
787.46	2229.62
787.65	2388.75
787.83	1883.93
788.01	2045.72
788.20	2056.78
788.38	2285.74
788.57	2069.68
788.75	2022.16
788.94	2573.07
789.12	2355.37
789.31	2109.41
789.49	2201.98
789.67	2159.38
789.86	2293.11
790.04	2009.67
790.23	1920.38
790.41	2647.41
790.60	2197.47
790.78	2039.16
790.96	2069.88
791.15	2357.42
791.33	2199.93
791.52	2058.82
791.70	1934.31
791.89	2222.46
792.07	2392.03
792.25	2055.75
792.44	1948.64
792.62	2455.72
792.81	2177.20
792.99	2088.31
793.17	2063.53
793.36	2272.43
793.54	3208.96
793.73	4541.78
793.91	6483.66
794.10	7898.20
794.28	9277.09
794.46	9455.06
794.65	9060.21
794.83	7159.90
795.01	6598.56
795.20	6266.17
795.38	5892.83
795.57	5680.45
795.75	5358.92
795.93	4790.20
796.12	4392.07
796.30	4301.55
796.49	4064.19
796.67	3393.28
796.85	3232.31
797.04	3052.70
797.22	2942.32
797.40	2373.39
797.59	2425.00
797.77	2494.84
797.96	2316.05
798.14	2155.28
798.32	2194.19
798.51	2521.46
798.69	2702.70
798.87	2164.91
799.06	2139.51
799.24	2241.50
799.42	3107.59
799.61	4088.36
799.79	5030.02
799.98	6187.94
800.16	6759.32
800.34	8424.52
800.53	10534.14
800.71	11392.03
800.89	13044.54
801.08	13265.10
801.26	13134.03
801.44	11049.41
801.63	9058.98
801.81	8729.88
801.99	7864.20
802.18	7466.48
802.36	7073.27
802.54	6278.25
802.73	5453.13
802.91	5185.25
803.09	4668.96
803.28	4104.54
803.46	3715.63
803.64	3671.19
803.83	2875.96
804.01	2532.93
804.19	2337.14
804.38	2642.49
804.56	2565.90
804.74	2247.44
804.92	2229.83
805.11	2194.60
805.29	2541.12
805.47	2101.22
805.66	2042.44
805.84	2089.34
806.02	2505.28
806.21	2085.65
806.39	2357.21
806.57	2498.11
806.76	2435.44
806.94	2192.56
807.12	2179.45
807.30	2301.10
807.49	2500.16
807.67	2366.63
807.85	2429.30
808.04	2553.00
808.22	2756.36
808.40	2087.29
808.58	1996.77
808.77	2447.94
808.95	2772.13
809.13	3243.37
809.31	6254.50
809.50	9574.25
809.68	11404.52
809.86	12845.06
810.05	14087.57
810.23	16508.88
810.41	25439.87
810.59	44123.90
810.78	54923.45
810.96	63741.39
811.14	65535.00
811.32	65535.00
811.51	56625.93
811.69	44719.24
811.87	43358.78
812.05	37601.73
812.24	35120.62
812.42	32346.44
812.60	28629.17
812.78	24270.27
812.97	20558.94
813.15	18113.87
813.33	15341.54
813.51	12752.70
813.70	10005.35
813.88	7897.17
814.06	6072.02
814.24	4576.80
814.42	3509.19
814.61	3272.86
814.79	3259.75
814.97	2410.25
815.15	2392.64
815.34	2589.86
815.52	2639.63
815.70	2124.15
815.88	2213.44
816.06	2146.27
816.25	2254.20
816.43	2095.07
816.61	2191.94
816.79	2520.64
816.98	1976.49
817.16	1974.86
817.34	1966.87
817.52	2280.82
817.70	2492.38
817.89	2042.23
818.07	1974.65
818.25	2155.49
818.43	2223.48
818.61	2021.55
818.80	1970.76
818.98	2478.04
819.16	2208.12
819.34	1889.87
819.52	2257.68
819.70	2045.31
819.89	2161.63
820.07	1864.47
820.25	1837.23
820.43	2227.78
820.61	2360.69
820.80	1990.01
820.98	1881.06
821.16	1953.35
821.34	1975.06
821.52	1984.07
821.70	2089.95
821.89	2173.92
822.07	2104.70
822.25	2034.66
822.43	1920.38
822.61	2423.36
822.79	2237.41
822.98	2008.24
823.16	1827.40
823.34	2233.92
823.52	2401.45
823.70	2065.99
823.88	1862.63
824.06	2263.62
824.25	2161.63
824.43	2093.84
824.61	1881.47
824.79	2181.09
824.97	2248.67
825.15	2290.86
825.33	3139.13
825.52	4635.17
825.70	5266.15
825.88	5744.96
826.06	6292.38
826.24	6607.36
826.42	5875.01
826.60	4652.58
826.78	4756.41
826.97	4350.70
827.15	4464.57
827.33	3845.27
827.51	3778.71
827.69	3532.13
827.87	3461.27
828.05	3048.20
828.23	2772.13
828.41	3060.69
828.60	2898.90
828.78	2323.83
828.96	2393.87
829.14	2283.69
829.32	2245.19
829.50	2070.50
829.68	2043.46
829.86	2156.72
830.04	2349.22
830.22	2120.67
830.41	1933.28
830.59	2168.39
830.77	2298.64
830.95	1925.50
831.13	1933.69
831.31	2027.28
831.49	2345.95
831.67	2117.19
831.85	2107.77
832.03	2126.41
832.21	2280.62
832.39	1879.42
832.57	1905.23
832.76	2342.06
832.94	2127.23
833.12	1814.09
833.30	1946.80
833.48	2379.13
833.66	2248.87
833.84	1959.91
834.02	1992.47
834.20	2329.77
834.38	2338.17
834.56	1804.47
834.74	1901.33
834.92	1928.57
835.10	2501.59
835.28	1992.67
835.46	2049.61
835.64	2159.99
835.82	2046.94
836.01	2282.46
836.19	2197.06
836.37	2097.53
836.55	1994.31
836.73	1923.66
836.91	1889.66
837.09	2306.22
837.27	2466.37
837.45	1880.44
837.63	1885.77
837.81	1987.14
837.99	2190.51
838.17	2054.93
838.35	1998.41
838.53	2617.92
838.71	2317.69
838.89	1966.66
839.07	2008.65
839.25	2220.61
839.43	2481.11
839.61	2705.16
839.79	4731.83
839.97	7204.14
840.15	8484.73
840.33	9565.45
840.51	10236.98
840.69	9925.07
840.87	8087.43
841.05	7069.18
841.23	7749.92
841.41	10338.56
841.59	14874.19
841.77	16771.43
841.95	18418.00
842.13	19742.62
842.31	18926.30
842.49	14972.29
842.67	12392.46
842.85	12294.98
843.03	10567.52
843.21	9895.38
843.39	9051.20
843.57	8211.13
843.75	7359.99
843.93	6080.83
844.11	5382.27
844.29	5058.89
844.47	4599.12
844.65	4236.22
844.83	3660.13
845.01	3361.33
845.19	3175.79
845.36	2596.82
845.54	2437.70
845.72	2416.81
845.90	2438.72
846.08	2019.09
846.26	2148.32
846.44	2281.64
846.62	2317.48
846.80	2112.68
846.98	1958.47
847.16	2158.56
847.34	2172.28
847.52	1941.27
847.70	1827.61
847.88	2158.76
848.06	2426.84
848.24	2100.19
848.41	1898.26
848.59	2366.02
848.77	2231.47
848.95	1954.17
849.13	1938.40
849.31	2280.21
849.49	2210.99
849.67	1932.05
849.85	1896.62
850.03	2249.08
850.21	2228.39
850.39	1872.05
850.57	2094.66
850.74	2466.98
850.92	2627.13
851.10	2998.84
851.28	3891.55
851.46	4813.75
851.64	5598.94
851.82	5322.47
852.00	5378.99
852.18	5076.71
852.36	4345.58
852.53	3957.90
852.71	3790.99
852.89	3879.67
853.07	3708.87
853.25	3215.11
853.43	3005.80
853.61	3125.41
853.79	2969.15
853.97	2526.17
854.14	2445.07
854.32	2818.00
854.50	2637.37
854.68	2258.50
854.86	2141.56
855.04	2175.35
855.22	2393.87
855.40	1845.83
855.57	1935.33
855.75	2313.39
855.93	2245.39
856.11	1819.21
856.29	1933.69
856.47	2012.95
856.65	2194.40
856.82	1867.54
857.00	1863.24
857.18	2107.97
857.36	2047.76
857.54	2026.67
857.72	2097.53
857.89	2259.11
858.07	2169.00
858.25	2167.98
858.43	1855.25
858.61	2117.39
858.79	2141.77
858.97	1876.55
859.14	2041.82
859.32	2119.03
859.50	2058.41
859.68	2045.31
859.86	1899.08
860.03	2176.58
860.21	2237.20
860.39	1961.34
860.57	2114.32
860.75	2239.45
860.93	2490.13
861.10	2166.96
861.28	1914.44
861.46	2238.84
861.64	2267.72
861.82	1969.94
861.99	2078.28
862.17	2337.55
862.35	2320.76
862.53	1960.11
862.71	1973.63
862.88	2223.48
863.06	2286.15
863.24	1936.35
863.42	1906.86
863.60	2121.49
863.77	2249.69
863.95	1806.72
864.13	1969.74
864.31	2094.66
864.49	2299.46
864.66	1881.26
864.84	1892.53
865.02	2168.59
865.20	2651.71
865.37	2041.01
865.55	1911.78
865.73	2063.53
865.91	2532.72
866.09	2455.10
866.26	2453.47
866.44	2788.72
866.62	2662.77
866.80	2342.88
866.97	2289.01
867.15	2460.84
867.33	2488.90
867.51	2302.94
867.68	2218.15
867.86	2295.98
868.04	2187.64
868.22	1906.45
868.39	2050.22
868.57	2310.72
868.75	2471.49
868.93	1908.91
869.10	1997.38
869.28	2508.15
869.46	2440.97
869.64	1991.85
869.81	1935.13
869.99	2180.47
870.17	2161.84
870.35	1874.51
870.52	1955.40
870.70	2329.56
870.88	2050.02
871.05	1857.92
871.23	1736.06
871.41	2147.91
871.59	2134.19
871.76	1922.84
871.94	1834.57
872.12	2136.24
872.29	1909.53
872.47	1906.66
872.65	1837.23
872.83	2182.93
873.00	2371.75
873.18	1920.38
873.36	1885.97
873.53	2241.50
873.71	1877.17
873.89	1819.01
874.06	1927.14
874.24	2202.39
874.42	2360.90
874.60	2066.40
874.77	2026.06
874.95	2022.98
875.13	2280.21
875.30	1901.95
875.48	1877.17
875.66	2421.93
875.83	2039.57
876.01	1924.89
876.19	2027.69
876.36	1933.90
876.54	2127.43
876.72	1880.44
876.89	1999.23
877.07	2246.21
877.25	1853.41
877.42	1976.09
877.60	1910.35
877.78	2450.80
877.95	2087.29
878.13	1833.55
878.31	2043.87
878.48	2274.68
878.66	2268.33
878.84	1898.88
879.01	1924.07
879.19	2202.39
879.37	2243.14
879.54	1940.45
879.72	1796.07
879.90	1824.54
880.07	2272.02
880.25	1685.89
880.42	2063.74
880.60	2196.65
880.78	2267.31
880.95	1929.39
881.13	1988.58
881.31	2127.43
881.48	2016.43
881.66	1894.17
881.83	2025.03
882.01	2010.90
882.19	1930.82
882.36	1957.24
882.54	1910.55
882.72	2264.03
882.89	2139.72
883.07	1876.14
883.24	1905.63
883.42	2265.26
883.60	2158.56
883.77	1858.94
883.95	1948.23
884.12	2290.86
884.30	2197.88
884.48	2091.39
884.65	1949.26
884.83	2204.23
885.00	2178.22
885.18	1809.99
885.36	1914.85
885.53	2255.43
885.71	2345.54
885.88	1838.87
886.06	1883.72
886.23	2252.36
886.41	2079.71
886.59	1886.79
886.76	1829.66
886.94	2236.18
887.11	2584.13
887.29	1933.49
887.47	1830.68
887.64	2328.75
887.82	2363.77
887.99	1765.14
888.17	1941.47
888.34	2062.71
888.52	1947.21
888.69	1897.44
888.87	1825.35
889.05	2082.17
889.22	2071.52
889.40	1897.85
889.57	2153.23
889.75	2343.90
889.92	2058.41
890.10	1827.40
890.27	1976.49
890.45	2013.97
890.62	1836.41
890.80	1838.46
890.98	1730.74
891.15	2400.01
891.33	2300.89
891.50	1877.37
891.68	1776.82
891.85	2267.31
892.03	2221.64
892.20	1852.59
892.38	1813.68
892.55	2244.37
892.73	2285.53
892.90	1748.76
893.08	1854.85
893.25	1999.02
893.43	2030.77
893.60	1980.39
893.78	1733.81
893.95	2188.87
894.13	2116.99
894.30	1865.90
894.48	1919.77
894.65	2296.18
894.83	2130.71
895.00	1745.07
895.18	1750.19
895.35	2293.52
895.53	2233.51
895.70	1809.18
895.88	2000.66
896.05	2222.05
896.23	1888.02
896.40	1906.25
896.58	1956.83
896.75	2249.49
896.93	2367.04
897.10	1916.49
897.28	1768.22
897.45	2193.17
897.63	2231.26
897.80	1990.83
897.98	1844.61
898.15	2208.73
898.33	2033.63
898.50	1947.62
898.67	1896.01
898.85	2135.42
899.02	2217.13
899.20	2136.44
899.37	1909.53
899.55	2141.97
899.72	2403.91
899.90	1858.74
900.07	1867.54
900.25	2243.96
900.42	2342.06
900.59	1862.83
900.77	1975.06
900.94	2247.44
901.12	2180.27
901.29	1937.79
901.47	2042.03
901.64	2244.78
901.82	2152.42
901.99	1703.91
902.16	1881.06
902.34	2330.38
902.51	2201.57
902.69	1890.07
902.86	1925.71
903.03	2774.59
903.21	2131.73
903.38	1911.57
903.56	1853.21
903.73	2295.77
903.91	2059.64
904.08	1847.88
904.25	1746.92
904.43	2005.99
904.60	2257.68
904.78	1909.53
904.95	1798.53
905.12	2068.45
905.30	2439.75
905.47	1994.11
905.65	2071.52
905.82	2139.92
905.99	2233.92
906.17	1883.52
906.34	1881.06
906.52	1981.41
906.69	2229.42
906.86	2016.23
907.04	2006.80
907.21	2295.57
907.38	2302.33
907.56	1856.89
907.73	1851.36
907.91	2418.86
908.08	2325.47
908.25	1918.74
908.43	1803.44
908.60	2241.09
908.77	2189.69
908.95	1953.15
909.12	1854.23
909.30	2254.61
909.47	1911.78
909.64	1964.21
909.82	2127.23
909.99	2093.02
910.16	2175.56
910.34	1877.58
910.51	1886.79
910.68	2201.98
910.86	2174.12
911.03	2027.49
911.20	2846.47
911.38	5437.56
911.55	8743.19
911.72	10237.80
911.90	11528.63
912.07	12645.59
912.24	12256.89
912.42	9211.76
912.59	6582.99
912.76	6214.97
912.94	5241.57
913.11	4523.76
913.28	3989.65
913.46	3891.14
913.63	3859.19
913.80	3754.54
913.98	3268.35
914.15	3540.32
914.32	3504.89
914.49	3094.28
914.67	2843.60
914.84	3141.17
915.01	3200.16
915.19	2873.30
915.36	2611.57
915.53	2865.52
915.71	2635.12
915.88	2286.35
916.05	2096.51
916.22	2436.88
916.40	2274.68
916.57	1869.80
916.74	2075.41
916.92	2443.23
917.09	1991.04
917.26	1874.10
917.43	1822.69
917.61	2094.66
917.78	1876.14
917.95	1824.94
918.13	1823.92
918.30	2521.46
918.47	2179.65
918.64	1875.53
918.82	1871.23
918.99	2160.61
919.16	2486.85
919.33	2008.24
919.51	1954.58
919.68	2153.23
919.85	2357.01
920.02	1826.38
920.20	1911.57
920.37	2418.65
920.54	2279.18
920.71	1885.77
920.89	1880.24
921.06	2485.82
921.23	2019.50
921.40	2041.01
921.58	2710.69
921.75	3871.48
921.92	3451.65
922.09	3589.68
922.27	3548.31
922.44	3595.82
922.61	3178.24
922.78	2519.41
922.96	2455.10
923.13	2512.45
923.30	2676.70
923.47	2142.79
923.64	2141.36
923.82	2485.82
923.99	2410.46
924.16	2194.40
924.33	2020.53
924.50	2335.30
924.68	2590.07
924.85	2015.61
925.02	2055.55
925.19	2431.35
925.36	2312.16
925.54	2028.51
925.71	2058.00
925.88	2761.48
926.05	2128.86
926.22	1885.77
926.40	2032.81
926.57	2192.56
926.74	2241.09
926.91	1860.99
927.08	2031.59
927.26	2300.07
927.43	2137.06
927.60	1859.97
927.77	1906.86
927.94	2429.30
928.11	2368.89
928.29	1769.85
928.46	1940.86
928.63	2019.91
928.80	2104.29
928.97	1991.04
929.14	1894.37
929.32	2486.44
929.49	2149.55
929.66	1830.88
929.83	1796.48
930.00	2056.57
930.17	2201.36
930.35	1823.10
930.52	1859.76
930.69	2407.59
930.86	1920.59
931.03	1951.30
931.20	1704.73
931.37	2317.69
931.55	2110.02
931.72	1933.69
931.89	1797.30
932.06	1939.02
932.23	2416.81
932.40	2004.76
932.57	1999.02
932.74	2367.04
932.92	2333.05
933.09	2049.81
933.26	1605.20
933.43	2025.44
933.60	2181.91
933.77	1944.75
933.94	1987.35
934.11	2084.22
934.29	2147.70
934.46	1845.63
934.63	2016.43
934.80	1957.04
934.97	2190.30
935.14	1966.25
935.31	1814.71
935.48	2061.28
935.65	2197.27
935.82	1967.89
936.00	1814.50
936.17	2382.40
936.34	2066.40
936.51	1968.92
936.68	1779.07
936.85	2183.54
937.02	2164.50
937.19	1970.56
937.36	1901.33
937.53	2198.90
937.70	2296.80
937.87	1855.46
938.05	2015.41
938.22	2183.95
938.39	1966.05
938.56	1904.41
938.73	1804.87
938.90	2087.90
939.07	2019.91
939.24	1986.12
939.41	1746.71
939.58	2200.95
939.75	2208.32
939.92	1856.28
940.09	2119.44
940.26	2064.76
940.43	2253.38
940.60	1936.15
940.77	1877.99
940.95	2201.98
941.12	2246.83
941.29	1897.24
941.46	1902.15
941.63	2336.32
941.80	2393.87
941.97	1774.77
942.14	1720.70
942.31	2231.88
942.48	2088.93
942.65	1987.55
942.82	1924.68
942.99	2222.66
943.16	2105.93
943.33	1797.50
943.50	1890.68
943.67	2244.78
943.84	2338.58
944.01	1872.66
944.18	1823.51
944.35	2355.78
944.52	2000.46
944.69	1931.44
944.86	1792.79
945.03	2255.02
945.20	2543.99
945.37	1689.78
945.54	1910.96
945.71	2349.02
945.88	2418.04
946.05	1822.90
946.22	1784.80
946.39	2355.37
946.56	2110.84
946.73	1741.80
946.90	1812.04
947.07	2030.15
947.24	2083.60
947.41	1725.62
947.58	1974.65
947.75	2242.32
947.92	2170.44
948.09	1674.21
948.26	1732.79
948.43	2145.86
948.60	2450.80
948.77	1808.56
948.94	1874.10
949.11	2253.99
949.27	2199.11
949.44	1835.59
949.61	1760.43
949.78	2168.39
949.95	2343.49
950.12	1752.04
950.29	1759.00
950.46	2056.16
950.63	2301.10
950.80	1826.38
950.97	1883.52
951.14	2294.95
951.31	2058.21
951.48	1794.64
951.65	1751.83
951.82	2471.08
951.99	2147.09
952.15	1754.90
952.32	1873.48
952.49	2035.48
952.66	2010.70
952.83	1839.69
953.00	1777.43
953.17	2131.73
953.34	2297.41
953.51	1906.45
953.68	1891.50
953.85	2321.17
954.02	2345.74
954.18	1916.08
954.35	1870.61
954.52	1971.17
954.69	2147.91
954.86	1743.44
955.03	1926.32
955.20	2245.19
955.37	2091.80
955.54	1841.33
955.71	1810.40
955.87	2207.30
956.04	2445.68
956.21	1853.82
956.38	1800.37
956.55	2154.05
956.72	2594.37
956.89	1921.20
957.06	1792.79
957.23	2015.41
957.39	2339.39
957.56	1872.87
957.73	1776.20
957.90	1782.96
958.07	2462.48
958.24	1911.16
958.41	1868.16
958.57	2272.43
958.74	2133.16
958.91	1806.92
959.08	1810.20
959.25	2240.07
959.42	2102.44
959.59	1892.94
959.75	1879.42
959.92	2322.40
960.09	2326.90
960.26	1820.03
960.43	1902.36
960.60	2177.20
960.76	2092.20
960.93	1760.84
961.10	1939.63
961.27	2311.34
961.44	2084.42
961.61	1768.01
961.77	1739.95
961.94	2178.01
962.11	2281.44
962.28	1864.27
962.45	1777.02
962.62	2069.68
962.78	2278.77
962.95	1717.63
963.12	1822.08
963.29	2257.07
963.46	2645.36
963.62	1949.87
963.79	1857.92
963.96	2589.25
964.13	2093.64
964.30	1970.97
964.46	1836.21
964.63	1998.00
964.80	2740.18
964.97	1987.14
965.14	2457.36
965.30	2770.70
965.47	2915.08
965.64	2681.20
965.81	2583.51
965.98	2913.03
966.14	2512.86
966.31	2128.86
966.48	2115.55
966.65	2599.49
966.81	2400.63
966.98	2069.68
967.15	2050.43
967.32	2287.79
967.49	2148.11
967.65	1884.34
967.82	1825.76
967.99	2223.89
968.16	1999.23
968.32	2126.82
968.49	1935.54
968.66	2169.62
968.83	2499.34
968.99	2090.16
969.16	1904.41
969.33	2433.81
969.50	2285.12
969.66	2035.68
969.83	2165.32
970.00	2268.94
970.17	2249.08
970.33	1898.47
970.50	1766.99
970.67	2400.22
970.84	2387.32
971.00	1802.83
971.17	1746.30
971.34	2225.94
971.50	2116.58
971.67	1931.23
971.84	1875.32
972.01	1943.73
972.17	1761.46
972.34	1759.21
972.51	2024.42
972.67	2345.33
972.84	2160.40
973.01	1808.36
973.18	1836.82
973.34	2302.94
973.51	1958.88
973.68	1865.70
973.84	1906.45
974.01	2059.64
974.18	2391.82
974.34	1900.31
974.51	1945.16
974.68	2016.23
974.85	2472.51
975.01	1960.73
975.18	1845.63
975.35	2154.87
975.51	2042.85
975.68	1745.69
975.85	2040.39
976.01	1998.00
976.18	2357.01
976.35	1842.35
976.51	1886.79
976.68	2405.54
976.85	2341.03
977.01	1884.54
977.18	1959.91
977.35	2242.12
977.51	1934.72
977.68	1735.24
977.85	1803.44
978.01	2357.01
978.18	2270.38
978.35	1969.12
978.51	1998.20
978.68	2374.62
978.85	2434.63
979.01	1940.86
979.18	1911.16
979.34	2108.79
979.51	2181.29
979.68	1838.05
979.84	1946.80
980.01	2592.11
980.18	2159.79
980.34	1838.05
980.51	1928.78
980.67	2299.66
980.84	2256.45
981.01	1854.64
981.17	1925.71
981.34	1867.13
981.51	2271.81
981.67	1800.16
981.84	1974.04
982.00	2229.83
982.17	2111.87
982.34	1718.66
982.50	1610.32
982.67	2431.96
982.83	2008.44
983.00	1757.77
983.17	1648.82
983.33	2300.48
983.50	1872.25
983.66	1750.19
983.83	1648.61
984.00	2050.22
984.16	2120.47
984.33	1642.68
984.49	1618.30
984.66	1930.21
984.83	2266.08
984.99	1682.20
985.16	1621.58
985.32	2220.61
985.49	2250.51
985.65	1771.29
985.82	1660.90
985.99	2406.36
986.15	2144.43
986.32	1770.26
986.48	1691.21
986.65	2055.34
986.81	2260.34
986.98	1632.03
987.14	1704.52
987.31	2138.69
987.48	1860.99
987.64	1568.74
987.81	1627.32
987.97	2523.51
988.14	1964.62
988.30	1652.51
988.47	1516.93
988.63	2170.85
988.80	1913.01
988.96	1731.15
989.13	1770.67
989.30	2060.67
989.46	2268.74
989.63	1602.95
989.79	1607.04
989.96	2112.48
990.12	2376.46
990.29	1663.16
990.45	1747.12
990.62	2120.47
990.78	2335.50
990.95	1785.83
991.11	1669.91
991.28	2026.67
991.44	2188.87
991.61	1569.56
991.77	1749.17
991.94	2146.27
992.10	2337.96
992.27	1722.14
992.43	1722.34
992.60	2222.25
992.76	2044.90
992.93	1871.84
993.09	1608.27
993.26	2312.77
993.42	2433.40
993.59	1672.99
993.75	1595.57
993.92	2004.14
994.08	1998.00
994.25	1750.19
994.41	1625.47
994.58	2238.43
994.74	2363.15
994.91	1629.98
995.07	1742.21
995.24	2116.78
995.40	2099.37
995.56	1834.98
995.73	1776.00
995.89	2419.06
996.06	2086.47
996.22	1657.63
996.39	1608.88
996.55	2122.11
996.72	2183.95
996.88	1585.54
997.05	1641.86
997.21	2440.97
997.37	2208.32
997.54	1765.55
997.70	1700.84
997.87	2167.98
998.03	2085.04
998.20	1570.38
998.36	1566.70
998.52	2230.65
998.69	2263.21
998.85	1629.36
999.02	1689.57
999.18	2285.33
999.35	2270.17
999.51	1746.30
999.67	1683.02
999.84	1942.29
1000.00	2231.26
1000.17	1753.88
1000.33	1664.59
1000.49	2029.74
1000.66	2085.24
1000.82	1676.26
1000.99	1720.70
1001.15	2327.52
1001.31	2067.83
1001.48	1678.92
1001.64	1751.01
1001.81	2074.18
1001.97	2482.75
1002.13	1704.93
1002.30	1709.44
1002.46	2345.33
1002.63	2052.27
1002.79	1764.73
1002.95	1677.90
1003.12	2309.70
1003.28	2196.24
1003.45	1653.33
1003.61	1638.99
1003.77	2124.15
1003.94	1866.52
1004.10	1698.79
1004.26	1763.71
1004.43	2229.21
1004.59	2457.15
1004.75	1647.18
1004.92	1641.86
1005.08	2057.59
1005.25	2165.93
1005.41	1681.79
1005.57	1765.96
1005.74	2315.23
1005.90	2031.79
1006.06	1814.71
1006.23	1664.18
1006.39	2200.13
1006.55	2595.80
1006.72	1797.30
1006.88	1616.26
1007.04	1957.24
1007.21	2075.00
1007.37	1711.69
1007.53	1651.07
1007.70	2380.15
1007.86	2273.65
1008.02	1757.57
1008.19	1630.80
1008.35	2162.45
1008.51	1980.39
1008.68	1676.26
1008.84	1622.40
1009.00	1935.13
1009.17	2295.98
1009.33	1866.52
1009.49	1788.90
1009.65	1987.96
1009.82	2165.52
1009.98	1741.18
1010.14	1600.69
1010.31	2264.23
1010.47	2212.63
1010.63	1774.77
1010.80	1737.70
1010.96	2186.00
1011.12	2089.75
1011.28	1718.04
1011.45	1652.92
1011.61	2605.63
1011.77	1932.46
1011.94	1661.31
1012.10	1624.04
1012.26	1948.85
1012.42	2015.82
1012.59	1751.63
1012.75	1727.05
1012.91	2093.23
1013.07	2301.92
1013.24	1638.58
1013.40	1659.26
1013.56	2142.18
1013.72	2086.68
1013.89	1756.34
1014.05	1798.32
1014.21	2435.85
1014.37	2574.91
1014.54	1719.47
1014.70	1635.10
1014.86	2054.73
1015.02	1943.11
1015.19	1707.80
1015.35	1638.78
1015.51	2090.16
1015.67	2040.60
1015.84	1683.84
1016.00	1723.37
1016.16	2294.95
1016.32	2238.02
1016.49	1664.59
1016.65	1607.04
1016.81	2088.72
1016.97	2199.72
1017.14	1801.39
1017.30	1697.15
1017.46	2021.75
1017.62	2166.96
1017.78	1772.52
1017.95	1639.19
1018.11	2240.07
1018.27	2538.05
1018.43	1845.02
1018.59	1780.91
1018.76	2256.86
1018.92	2596.41
1019.08	1656.81
1019.24	1700.22
1019.40	2364.79
1019.57	2185.59
1019.73	1776.61
1019.89	1696.74
1020.05	2157.94
1020.21	2492.58
1020.38	1642.27
1020.54	1849.32
1020.70	2222.66
1020.86	2234.95
1021.02	1676.88
1021.18	1679.54
1021.35	2038.34
1021.51	2214.26
1021.67	1840.71
1021.83	1736.06
1021.99	2093.64
1022.15	2202.18
1022.32	1745.89
1022.48	1736.68
1022.64	2350.04
1022.80	2393.05
1022.96	1777.84
1023.12	1612.98
1023.29	2300.07
1023.45	2206.07
1023.61	1671.35
1023.77	1920.38
1023.93	2184.57
1024.09	1978.13
1024.25	1684.45
1024.42	1625.47
1024.58	2042.03
1024.74	2151.19
1024.90	1686.30
1025.06	1762.07
1025.22	2008.03
1025.38	2408.62
1025.54	1633.87
1025.71	1804.06
1025.87	2198.08
1026.03	2225.32
1026.19	1640.42
1026.35	1883.72
1026.51	2214.47
1026.67	2120.67
1026.83	1745.28
1026.99	1837.23
1027.16	2208.53
1027.32	2108.59
1027.48	1701.04
1027.64	1649.23
1027.80	2199.11
1027.96	2158.56
1028.12	1711.08
1028.28	1649.02
1028.44	2175.56
1028.60	2404.52
1028.77	1837.44
1028.93	1730.53
1029.09	2046.74
1029.25	1947.82
1029.41	1745.07
1029.57	1800.16
1029.73	2167.98
1029.89	2404.32
1030.05	1810.81
1030.21	1791.56
1030.37	2524.33
1030.53	2241.91
1030.69	1736.88
1030.85	1615.64
1031.02	1954.38
1031.18	2139.31
1031.34	1680.36
1031.50	1802.83
1031.66	1999.23
1031.82	2394.89
1031.98	1732.58
1032.14	1634.48
1032.30	1974.04
1032.46	2241.91
1032.62	1819.42
1032.78	1603.35
1032.94	1999.23
1033.10	2046.74
1033.26	1785.83
1033.42	1845.22
1033.58	2518.18
1033.74	2022.16
1033.90	1670.53
1034.06	1874.51
1034.22	2509.79
1034.38	2334.48
1034.54	1760.43
1034.70	1754.49
1034.86	2458.59
>>>>>End Processed Spectral Data<<<<<
