SpectraSuite Data File
++++++++++++++++++++++++++++++++++++
Date: Thu Mar 30 16:24:40 PDT 2017
User: UCSD _CER
Dark Spectrum Present: No
Reference Spectrum Present: No
Number of Sampled Component Spectra: 1
Spectrometers: USB4C00073
Integration Time (usec): 250000 (USB4C00073)
Spectra Averaged: 10 (USB4C00073)
Boxcar Smoothing: 0 (USB4C00073)
Correct for Electrical Dark: No (USB4C00073)
Strobe/Lamp Enabled: No (USB4C00073)
Correct for Detector Non-linearity: No (USB4C00073)
Correct for Stray Light: No (USB4C00073)
Number of Pixels in Processed Spectrum: 3648
>>>>>Begin Processed Spectral Data<<<<<
345.37	1269.33
345.58	1269.33
345.80	1269.33
346.01	1250.49
346.22	1267.69
346.43	2004.76
346.65	1773.34
346.86	2117.39
347.07	2082.37
347.28	1792.79
347.50	1794.64
347.71	1923.25
347.92	1732.17
348.13	1803.24
348.35	1707.60
348.56	1894.78
348.77	1772.11
348.98	1814.09
349.20	1682.00
349.41	1921.40
349.62	1991.44
349.83	1877.17
350.05	1728.49
350.26	1939.43
350.47	2063.33
350.68	1764.94
350.90	1725.82
351.11	2077.46
351.32	2084.42
351.53	1814.71
351.75	1747.12
351.96	1953.35
352.17	1908.71
352.38	1843.38
352.60	1880.24
352.81	1941.27
353.02	2119.03
353.23	1770.06
353.44	1797.71
353.66	1838.67
353.87	1883.52
354.08	1905.23
354.29	1802.01
354.51	1871.02
354.72	1880.24
354.93	1812.86
355.14	1730.12
355.35	1782.35
355.57	2051.45
355.78	1815.11
355.99	1889.25
356.20	1951.51
356.42	1913.62
356.63	1921.61
356.84	1832.11
357.05	2040.19
357.26	2182.73
357.48	1864.68
357.69	1839.28
357.90	1948.85
358.11	1862.63
358.32	1817.57
358.54	1839.49
358.75	1867.54
358.96	1998.00
359.17	1793.61
359.38	1797.50
359.60	2014.38
359.81	1918.74
360.02	1814.91
360.23	1767.60
360.44	1838.05
360.66	2066.40
360.87	1736.88
361.08	1747.53
361.29	1958.47
361.50	1919.56
361.72	1767.19
361.93	1845.83
362.14	1926.11
362.35	1734.42
362.56	1907.68
362.77	1720.50
362.99	2019.09
363.20	1946.80
363.41	1906.66
363.62	1725.62
363.83	1988.58
364.05	2031.38
364.26	1705.14
364.47	1761.66
364.68	2055.55
364.89	1827.81
365.10	1744.66
365.32	1816.75
365.53	1815.93
365.74	1837.03
365.95	1801.60
366.16	1688.35
366.37	1904.41
366.59	1873.28
366.80	1804.67
367.01	1678.11
367.22	2163.88
367.43	2286.56
367.64	1822.28
367.86	1791.15
368.07	1975.47
368.28	2072.95
368.49	1738.93
368.70	1835.39
368.91	1861.19
369.12	1885.56
369.34	1693.87
369.55	1734.22
369.76	1910.35
369.97	1846.04
370.18	1747.33
370.39	1745.69
370.60	1747.74
370.82	1782.96
371.03	1790.54
371.24	1748.15
371.45	1993.49
371.66	1965.85
371.87	1804.47
372.08	1740.98
372.30	1746.51
372.51	1980.39
372.72	1869.39
372.93	1767.81
373.14	2076.85
373.35	1823.10
373.56	1759.00
373.78	1805.69
373.99	2013.97
374.20	2287.17
374.41	1800.16
374.62	1816.96
374.83	2106.13
375.04	1865.70
375.25	1828.22
375.47	1781.12
375.68	1847.47
375.89	2012.13
376.10	1817.78
376.31	1907.89
376.52	1974.86
376.73	1972.19
376.94	1815.11
377.15	1779.48
377.37	1905.63
377.58	1887.82
377.79	1698.79
378.00	1733.40
378.21	1949.26
378.42	1986.73
378.63	1804.87
378.84	1860.78
379.05	2034.86
379.27	1918.33
379.48	1930.01
379.69	1751.83
379.90	2068.24
380.11	1690.19
380.32	1806.51
380.53	1914.65
380.74	2051.25
380.95	1904.41
381.16	1799.14
381.37	1791.36
381.59	2084.63
381.80	2010.70
382.01	1745.89
382.22	1713.54
382.43	1991.04
382.64	1945.78
382.85	1762.89
383.06	1866.31
383.27	2005.58
383.48	1922.22
383.69	1848.09
383.91	1758.18
384.12	2001.68
384.33	1972.40
384.54	1801.19
384.75	1694.28
384.96	2259.11
385.17	2017.66
385.38	1758.18
385.59	1779.89
385.80	2010.49
386.01	2081.76
386.22	1888.43
386.43	1778.25
386.64	2193.58
386.86	1894.99
387.07	1904.61
387.28	1710.26
387.49	1856.89
387.70	2044.08
387.91	1864.68
388.12	1730.33
388.33	1945.57
388.54	1826.79
388.75	1799.55
388.96	1865.09
389.17	1847.88
389.38	1913.62
389.59	1879.22
389.80	1822.49
390.01	1915.06
390.22	1847.47
390.43	1899.08
390.64	1674.62
390.86	1977.52
391.07	2038.75
391.28	1816.34
391.49	1834.37
391.70	1737.50
391.91	1815.32
392.12	1807.95
392.33	1816.75
392.54	1908.71
392.75	1861.40
392.96	1850.34
393.17	1754.49
393.38	2187.85
393.59	2056.37
393.80	1739.54
394.01	1895.40
394.22	1985.30
394.43	2280.41
394.64	1871.84
394.85	2022.37
395.06	2028.72
395.27	1990.42
395.48	1846.24
395.69	1743.85
395.90	1894.58
396.11	1888.23
396.32	1796.68
396.53	1897.44
396.74	1900.51
396.95	2040.60
397.16	1770.47
397.37	1686.71
397.58	2024.42
397.79	1899.08
398.00	1846.65
398.21	1777.64
398.42	1927.96
398.63	2194.81
398.84	1810.61
399.05	1771.49
399.26	2068.24
399.47	1951.92
399.68	1648.00
399.89	1744.87
400.10	1792.18
400.31	1868.98
400.52	1821.67
400.73	1769.85
400.94	1724.80
401.15	1935.74
401.36	1779.28
401.57	1872.05
401.78	2053.91
401.99	2024.42
402.20	1721.93
402.41	1922.22
402.62	2099.99
402.83	1857.92
403.04	1770.67
403.25	1954.17
403.46	2001.68
403.67	2206.89
403.88	1966.87
404.09	1989.60
404.30	2035.89
404.51	1968.30
404.72	1840.51
404.93	1954.58
405.14	1861.19
405.35	1931.64
405.56	1828.63
405.77	1783.58
405.98	1941.27
406.19	1876.96
406.40	1740.57
406.61	1784.80
406.82	1816.34
407.03	2194.81
407.24	1701.25
407.45	1837.85
407.66	1943.32
407.87	2025.85
408.08	1831.29
408.29	1859.76
408.49	1969.33
408.70	1884.34
408.91	1810.81
409.12	1893.14
409.33	1790.54
409.54	2046.33
409.75	1803.24
409.96	1797.09
410.17	2016.63
410.38	1901.95
410.59	1776.61
410.80	1873.28
411.01	1892.94
411.22	1891.91
411.43	1867.34
411.64	1770.26
411.85	1793.20
412.06	1818.39
412.27	1636.74
412.47	1789.72
412.68	1901.95
412.89	1950.28
413.10	1802.42
413.31	1711.49
413.52	2153.23
413.73	2173.30
413.94	1766.37
414.15	1930.01
414.36	1873.89
414.57	1805.69
414.78	1819.42
414.99	2290.45
415.19	2844.63
415.40	2980.41
415.61	3189.51
415.82	3015.63
416.03	2867.57
416.24	2586.58
416.45	2269.56
416.66	2010.29
416.87	1859.97
417.08	2051.04
417.29	1879.83
417.50	1999.84
417.70	2152.21
417.91	2173.51
418.12	2149.14
418.33	2250.10
418.54	2470.67
418.75	2642.70
418.96	2682.63
419.17	2992.08
419.38	3613.23
419.59	3655.83
419.79	3506.74
420.00	3325.90
420.21	3306.24
420.42	2611.57
420.63	2285.94
420.84	2078.07
421.05	1963.18
421.26	1938.40
421.47	1732.79
421.67	2047.97
421.88	1794.64
422.09	1755.93
422.30	1952.74
422.51	1796.07
422.72	2141.15
422.93	1990.83
423.14	1825.35
423.35	1694.90
423.55	1713.54
423.76	1854.85
423.97	1846.04
424.18	1739.95
424.39	1944.14
424.60	2092.00
424.81	1923.04
425.02	2122.72
425.22	2242.32
425.43	2260.34
425.64	2434.83
425.85	2462.48
426.06	2735.88
426.27	2652.32
426.48	2669.73
426.68	2627.95
426.89	2678.54
427.10	2741.62
427.31	2290.45
427.52	2005.99
427.73	2165.52
427.94	2051.45
428.14	1940.86
428.35	1836.00
428.56	2097.32
428.77	2013.56
428.98	1927.55
429.19	2066.40
429.40	2223.68
429.60	2291.88
429.81	2346.77
430.02	2253.99
430.23	2160.40
430.44	2161.02
430.65	1893.55
430.85	1931.23
431.06	1989.40
431.27	1723.57
431.48	1810.20
431.69	1851.36
431.90	1936.15
432.10	1917.10
432.31	1889.25
432.52	1971.37
432.73	2605.63
432.94	2631.84
433.15	2475.38
433.35	2342.06
433.56	2493.61
433.77	2229.01
433.98	2241.09
434.19	2032.20
434.40	2084.01
434.60	1998.41
434.81	1906.86
435.02	1905.02
435.23	1910.55
435.44	1881.47
435.64	1714.76
435.85	1782.14
436.06	1919.97
436.27	1838.26
436.48	1728.08
436.68	1791.77
436.89	2116.99
437.10	1972.81
437.31	1814.09
437.52	1900.31
437.73	1928.37
437.93	1905.43
438.14	1872.66
438.35	1686.91
438.56	1859.97
438.77	1885.16
438.97	1930.21
439.18	1773.34
439.39	2037.93
439.60	1754.49
439.80	1688.14
440.01	1819.42
440.22	1843.99
440.43	1980.39
440.64	1712.31
440.84	1833.75
441.05	1778.46
441.26	2270.38
441.47	1870.41
441.68	1770.26
441.88	1900.11
442.09	1881.47
442.30	1935.94
442.51	1850.75
442.71	1866.93
442.92	1933.49
443.13	1753.27
443.34	1753.88
443.55	1774.77
443.75	1992.26
443.96	1745.48
444.17	1733.40
444.38	2046.33
444.58	1801.60
444.79	1893.76
445.00	1846.04
445.21	1900.51
445.41	1867.13
445.62	1634.28
445.83	1881.06
446.04	1924.68
446.24	1762.48
446.45	1648.00
446.66	1800.78
446.87	1943.93
447.07	1853.62
447.28	2015.41
447.49	1819.21
447.70	2038.55
447.90	2017.66
448.11	1822.28
448.32	1884.13
448.53	2068.86
448.73	2059.44
448.94	1831.91
449.15	1934.51
449.36	1932.26
449.56	1971.37
449.77	1794.64
449.98	1734.22
450.19	1944.75
450.39	2048.58
450.60	2038.55
450.81	2066.40
451.02	2138.90
451.22	2232.29
451.43	1890.07
451.64	1906.45
451.84	1969.74
452.05	2180.47
452.26	1952.74
452.47	1860.37
452.67	1889.25
452.88	2119.65
453.09	1777.64
453.30	1757.16
453.50	2031.79
453.71	2121.70
453.92	1810.61
454.12	1901.13
454.33	1837.03
454.54	1848.29
454.75	1746.71
454.95	1756.54
455.16	1944.96
455.37	2003.12
455.57	1813.89
455.78	1815.32
455.99	1907.07
456.19	1921.81
456.40	1761.46
456.61	1843.38
456.82	1925.09
457.02	1988.99
457.23	1866.11
457.44	2004.14
457.64	1842.56
457.85	1984.69
458.06	1832.73
458.26	1871.02
458.47	1953.35
458.68	2073.98
458.89	1795.04
459.09	2015.82
459.30	2253.99
459.51	2026.67
459.71	1776.61
459.92	1830.68
460.13	1991.04
460.33	2191.12
460.54	1851.16
460.75	1830.06
460.95	1769.65
461.16	1955.81
461.37	1800.37
461.57	1839.08
461.78	1901.95
461.99	1805.49
462.19	2066.61
462.40	1848.29
462.61	2248.26
462.81	2108.38
463.02	1807.54
463.23	1833.34
463.43	2030.77
463.64	1895.80
463.85	2754.11
464.05	1816.96
464.26	2380.76
464.47	2139.72
464.67	2004.35
464.88	1911.16
465.09	1826.17
465.29	1932.87
465.50	1928.78
465.71	1844.81
465.91	1863.65
466.12	1909.12
466.33	1882.49
466.53	1826.38
466.74	2077.05
466.94	1878.81
467.15	1839.28
467.36	2027.49
467.56	1813.89
467.77	1981.00
467.98	1864.88
468.18	1777.02
468.39	1860.78
468.60	2156.72
468.80	1855.46
469.01	1793.82
469.21	1994.11
469.42	2088.11
469.63	1926.52
469.83	1863.86
470.04	2122.11
470.25	2250.31
470.45	1956.22
470.66	1856.69
470.86	1981.20
471.07	1933.28
471.28	1947.82
471.48	1992.88
471.69	1953.76
471.90	2389.16
472.10	1813.68
472.31	1835.80
472.51	1831.91
472.72	1849.52
472.93	1764.94
473.13	1925.09
473.34	1911.16
473.54	1898.26
473.75	1848.91
473.96	1991.44
474.16	1920.79
474.37	2001.28
474.57	1957.04
474.78	1865.70
474.99	2044.69
475.19	2038.96
475.40	1860.17
475.60	1765.55
475.81	2119.85
476.02	1950.08
476.22	1981.00
476.43	2081.97
476.63	2013.97
476.84	2180.88
477.05	1788.08
477.25	1824.74
477.46	2318.71
477.66	1939.43
477.87	1746.30
478.08	1830.88
478.28	2052.27
478.49	1918.54
478.69	1802.83
478.90	1842.76
479.10	2019.30
479.31	2130.71
479.52	1932.67
479.72	1997.59
479.93	2034.86
480.13	1864.88
480.34	1809.79
480.54	1904.20
480.75	1808.77
480.96	2053.09
481.16	1799.55
481.37	1942.70
481.57	2026.87
481.78	1960.11
481.98	2011.92
482.19	1898.88
482.40	2180.47
482.60	2049.81
482.81	1988.17
483.01	1889.46
483.22	2109.20
483.42	2098.76
483.63	1990.63
483.83	1946.18
484.04	1876.96
484.24	2014.38
484.45	1911.78
484.66	1745.89
484.86	1966.87
485.07	1857.10
485.27	1899.08
485.48	1819.42
485.68	2121.08
485.89	1836.21
486.09	1945.57
486.30	1830.68
486.50	1947.00
486.71	2007.83
486.91	2039.16
487.12	2070.91
487.33	2319.94
487.53	2327.31
487.74	2075.41
487.94	2077.66
488.15	2207.71
488.35	2290.86
488.56	2154.87
488.76	2147.30
488.97	2127.23
489.17	2150.78
489.38	1974.86
489.58	1944.34
489.79	2037.93
489.99	2002.30
490.20	1913.42
490.40	1948.85
490.61	2024.62
490.81	1901.13
491.02	1887.41
491.22	1951.30
491.43	2050.84
491.63	1956.01
491.84	2028.10
492.04	1781.94
492.25	2029.54
492.45	1919.56
492.66	1819.83
492.86	1757.36
493.07	1895.19
493.27	2219.38
493.48	1762.48
493.68	1880.65
493.89	1913.83
494.09	2028.92
494.30	1839.90
494.50	2106.54
494.71	2059.44
494.91	1869.59
495.12	1949.87
495.32	2062.71
495.53	2044.08
495.73	1833.75
495.94	1879.63
496.14	1728.49
496.35	2193.17
496.55	1912.39
496.76	1849.93
496.96	1945.98
497.17	1959.70
497.37	2028.92
497.58	1851.16
497.78	1789.92
497.98	1922.84
498.19	1925.09
498.39	1930.42
498.60	1974.24
498.80	1800.16
499.01	2094.25
499.21	1819.42
499.42	1902.15
499.62	1922.84
499.83	2223.89
500.03	1734.22
500.24	1930.42
500.44	2115.76
500.64	2074.59
500.85	1850.34
501.05	1987.96
501.26	1749.99
501.46	2095.28
501.67	1808.97
501.87	1748.35
502.08	1821.46
502.28	1924.07
502.48	1954.99
502.69	2027.90
502.89	1809.38
503.10	1927.75
503.30	1958.06
503.51	1945.16
503.71	1828.84
503.92	2058.21
504.12	2015.20
504.32	1995.13
504.53	2173.71
504.73	2210.58
504.94	2160.81
505.14	2286.56
505.35	2354.96
505.55	2289.01
505.75	2229.62
505.96	2312.16
506.16	2384.86
506.37	2073.36
506.57	1953.76
506.78	2044.49
506.98	2172.49
507.18	1884.34
507.39	1856.48
507.59	1952.74
507.80	1944.96
508.00	2037.11
508.20	2118.83
508.41	1989.81
508.61	2173.51
508.82	2113.71
509.02	1995.75
509.22	1829.45
509.43	1847.47
509.63	1850.54
509.84	1900.31
510.04	1773.34
510.24	2124.97
510.45	2040.60
510.65	1788.49
510.86	1916.28
511.06	1839.90
511.26	2082.99
511.47	2052.88
511.67	1885.56
511.88	2059.23
512.08	2097.73
512.28	1809.79
512.49	1974.65
512.69	1963.39
512.90	1961.13
513.10	1853.00
513.30	1910.55
513.51	2016.43
513.71	2121.90
513.91	1938.81
514.12	1973.22
514.32	2131.53
514.53	2019.50
514.73	2120.67
514.93	2095.69
515.14	2198.90
515.34	2474.77
515.54	2358.85
515.75	2473.74
515.95	2585.36
516.15	2624.88
516.36	2305.60
516.56	2189.69
516.77	1871.23
516.97	2175.35
517.17	2013.36
517.38	2122.72
517.58	2278.37
517.78	2176.99
517.99	2384.86
518.19	2498.73
518.39	2742.64
518.60	2598.87
518.80	2375.64
519.00	2341.03
519.21	2151.80
519.41	2336.53
519.61	1951.71
519.82	2054.32
520.02	2033.22
520.22	2040.80
520.43	2014.79
520.63	2046.74
520.83	1983.46
521.04	1927.55
521.24	2317.69
521.44	2356.19
521.65	2440.36
521.85	2667.48
522.05	2388.14
522.26	2269.35
522.46	2454.70
522.66	2215.49
522.87	1987.35
523.07	2171.05
523.27	2004.96
523.48	2208.32
523.68	2079.10
523.88	2082.17
524.09	2205.46
524.29	2138.90
524.49	2000.66
524.70	2317.07
524.90	2475.79
525.10	2403.91
525.31	2097.73
525.51	2068.65
525.71	2165.32
525.91	2088.31
526.12	1902.56
526.32	1807.74
526.52	1901.13
526.73	1863.24
526.93	1952.53
527.13	1799.75
527.34	1926.52
527.54	1990.63
527.74	1930.21
527.94	1888.84
528.15	1889.05
528.35	2025.85
528.55	2012.54
528.76	1978.54
528.96	1782.55
529.16	2069.47
529.36	2026.06
529.57	1779.89
529.77	2085.45
529.97	1840.92
530.18	1967.28
530.38	1884.54
530.58	2014.18
530.78	1975.68
530.99	1863.04
531.19	2024.01
531.39	1905.23
531.60	1989.60
531.80	1895.80
532.00	2028.31
532.20	2003.12
532.41	1872.25
532.61	1850.13
532.81	1873.48
533.01	1902.36
533.22	1968.71
533.42	1997.18
533.62	1732.38
533.82	2076.85
534.03	1918.95
534.23	1949.67
534.43	1842.15
534.63	1885.97
534.84	1967.69
535.04	1935.94
535.24	1893.76
535.44	2295.36
535.65	1866.72
535.85	1846.24
536.05	1826.38
536.25	1906.25
536.46	1886.59
536.66	2118.21
536.86	2008.44
537.06	2122.31
537.27	2190.92
537.47	2016.63
537.67	1910.75
537.87	2158.35
538.08	1950.69
538.28	1840.92
538.48	1881.06
538.68	1983.25
538.88	2098.35
539.09	1819.62
539.29	1930.42
539.49	2081.15
539.69	1999.84
539.90	1977.11
540.10	1876.96
540.30	2174.94
540.50	1946.59
540.70	1885.97
540.91	2012.13
541.11	2205.05
541.31	2366.84
541.51	2214.47
541.72	2263.42
541.92	2288.61
542.12	2114.53
542.32	2049.40
542.52	1989.40
542.73	1966.25
542.93	2089.34
543.13	1964.82
543.33	2131.53
543.53	2234.74
543.74	2260.14
543.94	2122.51
544.14	2324.03
544.34	2506.92
544.54	2385.06
544.75	2520.44
544.95	2657.24
545.15	2575.32
545.35	2563.44
545.55	2320.35
545.75	2134.19
545.96	2427.25
546.16	2021.75
546.36	2019.50
546.56	2061.28
546.76	2191.12
546.97	2260.14
547.17	1982.43
547.37	2021.35
547.57	1899.08
547.77	2081.97
547.97	1974.65
548.18	1956.01
548.38	2065.17
548.58	2625.09
548.78	2716.22
548.98	3163.09
549.18	3537.66
549.39	3710.92
549.59	3284.94
549.79	2965.66
549.99	3015.63
550.19	2776.23
550.39	2648.23
550.60	2373.39
550.80	2333.25
551.00	2312.36
551.20	2120.67
551.40	2006.19
551.60	2150.78
551.80	2089.34
552.01	2130.91
552.21	2044.49
552.41	2106.54
552.61	2298.23
552.81	2052.88
553.01	1883.72
553.21	2069.68
553.42	1862.01
553.62	1897.44
553.82	1882.90
554.02	2161.84
554.22	2073.36
554.42	1851.36
554.62	1995.13
554.83	2413.53
555.03	2725.64
555.23	2743.46
555.43	3183.77
555.63	3213.26
555.83	2976.31
556.03	2668.09
556.23	2451.83
556.44	2595.60
556.64	2642.29
556.84	2275.09
557.04	2460.02
557.24	2485.82
557.44	2327.93
557.64	2198.29
557.84	2025.44
558.04	2042.23
558.25	2176.58
558.45	1964.62
558.65	2056.37
558.85	2102.65
559.05	1936.76
559.25	2082.58
559.45	2221.43
559.65	2722.77
559.85	3252.38
560.05	2730.15
560.26	2876.99
560.46	2894.80
560.66	2663.59
560.86	2429.71
561.06	2255.84
561.26	2508.56
561.46	2317.48
561.66	2144.43
561.86	2227.17
562.06	2022.78
562.26	2072.34
562.47	2023.80
562.67	1888.84
562.87	2100.19
563.07	1865.49
563.27	2045.10
563.47	2049.81
563.67	1976.49
563.87	2167.57
564.07	2089.13
564.27	2241.50
564.47	2315.64
564.67	2452.65
564.87	2324.24
565.08	2384.25
565.28	2229.42
565.48	2267.92
565.68	2205.46
565.88	2165.11
566.08	2306.42
566.28	2045.31
566.48	1859.76
566.68	1905.23
566.88	1921.81
567.08	2074.59
567.28	1980.39
567.48	1972.19
567.68	2117.39
567.88	1942.09
568.08	2173.92
568.28	2258.91
568.48	2132.14
568.68	2280.62
568.89	2084.22
569.09	1862.83
569.29	2117.80
569.49	2111.66
569.69	1881.06
569.89	1859.97
570.09	1753.06
570.29	1871.23
570.49	1780.71
570.69	1820.85
570.89	2047.97
571.09	2186.82
571.29	1767.60
571.49	2023.19
571.69	1968.51
571.89	1975.47
572.09	1861.81
572.29	1840.10
572.49	2037.32
572.69	2011.72
572.89	1983.66
573.09	1816.55
573.29	2114.94
573.49	2207.30
573.69	2177.20
573.89	2235.77
574.09	2041.82
574.29	2203.41
574.49	1933.49
574.69	1879.63
574.89	1847.06
575.09	1839.90
575.29	1831.09
575.49	1933.08
575.69	1965.85
575.89	1789.11
576.09	1958.06
576.29	1979.36
576.49	1847.27
576.69	1976.29
576.89	1945.16
577.09	2017.66
577.29	1852.59
577.49	2249.69
577.69	1892.12
577.89	2015.61
578.09	2005.17
578.29	1806.10
578.49	1976.29
578.69	1876.35
578.89	2050.02
579.09	1982.43
579.29	1859.35
579.49	2076.64
579.69	1932.46
579.89	2224.50
580.09	1802.21
580.29	1771.29
580.49	1902.97
580.69	1805.08
580.89	1875.32
581.09	1865.29
581.29	1863.04
581.49	1896.83
581.69	1805.90
581.89	1810.20
582.09	1806.92
582.28	1826.17
582.48	2050.22
582.68	2180.06
582.88	2265.05
583.08	2064.76
583.28	2076.64
583.48	2037.11
583.68	1932.26
583.88	2011.11
584.08	1988.58
584.28	1925.91
584.48	2188.46
584.68	1997.79
584.88	1894.58
585.08	2071.52
585.28	2124.15
585.48	2131.12
585.68	2074.59
585.87	2059.85
586.07	2038.55
586.27	1964.41
586.47	2010.90
586.67	1938.40
586.87	1957.65
587.07	1903.79
587.27	1865.90
587.47	2045.10
587.67	2387.52
587.87	2761.89
588.07	2628.36
588.27	2655.19
588.46	2934.12
588.66	2929.00
588.86	2599.28
589.06	2501.80
589.26	2448.76
589.46	2348.20
589.66	2031.58
589.86	1980.18
590.06	2071.52
590.26	2306.22
590.46	2204.23
590.66	2378.92
590.85	2347.38
591.05	2416.40
591.25	2130.30
591.45	2163.88
591.65	2282.26
591.85	2275.70
592.05	2260.96
592.25	2413.74
592.45	2537.84
592.64	2385.27
592.84	2291.88
593.04	2081.97
593.24	2551.97
593.44	2139.10
593.64	2208.32
593.84	2256.86
594.04	2130.30
594.24	2334.48
594.43	2029.54
594.63	2056.98
594.83	2129.48
595.03	2087.90
595.23	1889.46
595.43	1806.92
595.63	1883.52
595.83	2065.38
596.02	1768.63
596.22	1982.23
596.42	2048.17
596.62	2009.06
596.82	1955.20
597.02	2069.68
597.22	2170.03
597.41	2028.10
597.61	1929.80
597.81	2122.51
598.01	2205.05
598.21	2063.74
598.41	2043.46
598.61	2017.86
598.80	2119.44
599.00	2151.80
599.20	2219.79
599.40	2088.31
599.60	2093.23
599.80	2194.81
599.99	2200.95
600.19	2053.70
600.39	2068.86
600.59	2132.14
600.79	2093.43
600.99	2037.93
601.19	2250.92
601.38	2313.39
601.58	2077.46
601.78	1892.32
601.98	2450.19
602.18	3348.22
602.37	4181.34
602.57	4447.57
602.77	5029.61
602.97	5173.99
603.17	4799.82
603.37	4562.46
603.56	4553.45
603.76	4419.72
603.96	4281.28
604.16	3948.89
604.36	3651.73
604.56	3366.04
604.75	2854.05
604.95	2810.63
605.15	2816.57
605.35	2654.37
605.55	2394.08
605.74	2329.77
605.94	2432.58
606.14	2250.51
606.34	2154.67
606.54	2093.23
606.73	1978.34
606.93	2094.46
607.13	1916.90
607.33	1992.88
607.53	2161.63
607.72	2104.29
607.92	2048.38
608.12	2088.31
608.32	2009.67
608.51	2101.63
608.71	1949.05
608.91	2141.56
609.11	2221.64
609.31	2150.78
609.50	2362.54
609.70	2566.51
609.90	2544.81
610.10	2541.32
610.29	2375.44
610.49	2251.54
610.69	2357.42
610.89	2222.05
611.09	2193.17
611.28	2246.01
611.48	2238.02
611.68	2082.99
611.88	1997.18
612.07	1962.98
612.27	2155.49
612.47	1982.23
612.67	2049.40
612.86	2112.89
613.06	1976.09
613.26	1797.30
613.46	1985.10
613.65	2118.83
613.85	2514.09
614.05	2331.20
614.25	2308.88
614.44	2219.59
614.64	2236.38
614.84	2165.11
615.04	2130.09
615.23	2146.48
615.43	2260.55
615.63	2215.08
615.83	2050.02
616.02	2052.47
616.22	2415.17
616.42	2292.91
616.62	2370.32
616.81	2486.23
617.01	2531.08
617.21	2389.57
617.41	2196.86
617.60	2204.23
617.80	2248.87
618.00	2210.37
618.19	2104.90
618.39	2068.45
618.59	2107.36
618.79	1994.52
618.98	1777.64
619.18	1905.02
619.38	2179.65
619.57	1899.29
619.77	1888.02
619.97	1894.99
620.17	1944.96
620.36	1983.05
620.56	2291.27
620.76	2143.20
620.95	2212.01
621.15	2307.65
621.35	2175.76
621.54	2167.37
621.74	2184.57
621.94	2032.20
622.14	1949.46
622.33	1875.12
622.53	1999.02
622.73	1955.81
622.92	1787.26
623.12	1926.11
623.32	2194.60
623.51	2011.31
623.71	1786.85
623.91	2068.86
624.10	1829.25
624.30	1956.22
624.50	1851.36
624.69	1802.01
624.89	2442.82
625.09	1885.77
625.29	1711.49
625.48	1770.88
625.68	1935.94
625.88	2048.79
626.07	1934.51
626.27	1788.08
626.47	1866.31
626.66	1741.18
626.86	1883.52
627.06	1897.85
627.25	1916.28
627.45	2128.04
627.64	1867.34
627.84	2048.79
628.04	1791.15
628.23	2179.65
628.43	1808.56
628.63	1911.98
628.82	2004.55
629.02	2331.61
629.22	2215.08
629.41	2323.42
629.61	2175.56
629.81	2480.50
630.00	2209.35
630.20	2140.95
630.40	2344.11
630.59	2352.30
630.79	2165.93
630.98	2092.82
631.18	2090.36
631.38	2038.14
631.57	2128.25
631.77	1824.13
631.97	2009.67
632.16	2008.85
632.36	1943.11
632.56	1922.02
632.75	1957.04
632.95	2045.92
633.14	1774.16
633.34	2022.57
633.54	1704.52
633.73	1874.71
633.93	1833.14
634.12	1732.58
634.32	2254.81
634.52	1903.38
634.71	1774.77
634.91	1941.27
635.11	1761.87
635.30	1822.69
635.50	1949.87
635.69	1823.10
635.89	2230.65
636.09	2126.00
636.28	1933.69
636.48	1947.21
636.67	2107.77
636.87	2094.66
637.07	2055.55
637.26	1932.67
637.46	2095.48
637.65	2203.20
637.85	2088.52
638.04	1976.29
638.24	2046.33
638.44	2103.88
638.63	1967.28
638.83	1943.93
639.02	2027.69
639.22	2034.04
639.42	1920.18
639.61	1933.08
639.81	1930.01
640.00	1891.71
640.20	2002.71
640.39	2044.90
640.59	2517.16
640.79	2564.47
640.98	2673.01
641.18	2719.91
641.37	2776.64
641.57	2512.45
641.76	2458.38
641.96	2197.68
642.15	2351.89
642.35	2183.13
642.55	2201.16
642.74	2020.94
642.94	2150.57
643.13	2195.63
643.33	1930.21
643.52	1877.99
643.72	1881.26
643.91	1907.89
644.11	1848.29
644.31	1782.35
644.50	1832.73
644.70	2075.62
644.89	1890.89
645.09	1933.08
645.28	1904.61
645.48	1971.99
645.67	1818.19
645.87	1722.55
646.06	1920.59
646.26	1988.78
646.45	1715.58
646.65	1708.21
646.84	2189.28
647.04	1898.67
647.24	1792.18
647.43	1910.96
647.63	1975.27
647.82	2105.11
648.02	1787.88
648.21	1807.33
648.41	2066.20
648.60	1876.96
648.80	2010.29
648.99	1932.87
649.19	1856.28
649.38	1705.55
649.58	1910.75
649.77	1917.92
649.97	2049.61
650.16	1964.41
650.36	1698.79
650.55	2011.31
650.75	1951.10
650.94	2111.66
651.14	1874.51
651.33	1925.71
651.53	2128.25
651.72	1835.18
651.92	1877.37
652.11	1683.23
652.31	1967.28
652.50	1960.32
652.70	1961.13
652.89	1817.16
653.09	2127.43
653.28	1923.66
653.48	1767.19
653.67	1781.32
653.87	2367.86
654.06	1975.68
654.25	2088.31
654.45	1846.04
654.64	1876.14
654.84	1902.15
655.03	1685.07
655.23	2003.32
655.42	1982.43
655.62	2143.81
655.81	1897.44
656.01	1793.82
656.20	2018.27
656.40	2109.61
656.59	1905.84
656.79	2020.32
656.98	1930.82
657.17	2008.85
657.37	1886.79
657.56	1821.26
657.76	1966.46
657.95	2027.28
658.15	1572.84
658.34	1882.08
658.54	1896.21
658.73	1790.33
658.92	1872.05
659.12	1928.78
659.31	2043.05
659.51	1892.32
659.70	2056.37
659.90	2009.88
660.09	2160.40
660.29	2039.57
660.48	1893.35
660.67	2138.69
660.87	1917.92
661.06	2006.60
661.26	2041.82
661.45	2002.30
661.65	1974.04
661.84	1890.28
662.03	1864.68
662.23	1853.00
662.42	2178.83
662.62	1791.56
662.81	1797.09
663.00	1856.89
663.20	1923.04
663.39	1957.24
663.59	1976.29
663.78	1833.75
663.97	1861.60
664.17	2007.21
664.36	1727.46
664.56	1782.76
664.75	2003.12
664.94	2000.25
665.14	1948.03
665.33	1965.44
665.53	2016.84
665.72	2030.77
665.91	2096.30
666.11	1986.94
666.30	1985.30
666.50	2012.13
666.69	2013.36
666.88	1916.28
667.08	1984.69
667.27	1901.95
667.47	1924.68
667.66	1883.93
667.85	2032.20
668.05	1915.26
668.24	1837.23
668.43	2019.30
668.63	1886.38
668.82	2055.96
669.02	1990.22
669.21	1950.08
669.40	1796.27
669.60	2203.00
669.79	1780.50
669.98	2369.50
670.18	1820.85
670.37	1782.14
670.56	1853.21
670.76	1931.85
670.95	1956.01
671.15	2081.35
671.34	1991.44
671.53	1980.39
671.73	1937.58
671.92	1875.32
672.11	1791.97
672.31	1896.83
672.50	1993.08
672.69	1809.38
672.89	1672.78
673.08	1891.50
673.27	2015.82
673.47	1953.56
673.66	1958.06
673.85	1789.72
674.05	2097.73
674.24	2473.74
674.43	2628.16
674.63	3083.01
674.82	3497.73
675.01	2990.85
675.21	3061.51
675.40	2772.74
675.59	2695.95
675.79	2863.27
675.98	2535.59
676.17	2605.02
676.37	2480.50
676.56	2317.28
676.75	2204.84
676.95	2154.67
677.14	2054.11
677.33	2151.60
677.52	1882.08
677.72	1906.45
677.91	1991.04
678.10	1765.55
678.30	1819.83
678.49	1770.88
678.68	2199.11
678.88	1695.31
679.07	1990.83
679.26	1837.85
679.45	2126.00
679.65	2069.27
679.84	1682.20
680.03	1775.38
680.23	1868.57
680.42	2249.69
680.61	1796.27
680.81	1859.35
681.00	1909.53
681.19	1990.22
681.38	2018.07
681.58	1987.14
681.77	1919.15
681.96	2084.22
682.15	1918.95
682.35	1995.34
682.54	2022.78
682.73	1813.07
682.93	1851.16
683.12	1855.25
683.31	2026.47
683.50	2265.05
683.70	1833.14
683.89	1921.61
684.08	1839.49
684.27	2047.15
684.47	1759.61
684.66	1921.81
684.85	2184.16
685.04	2082.37
685.24	1850.75
685.43	1922.43
685.62	1724.18
685.81	2022.37
686.01	2192.76
686.20	2294.95
686.39	2412.71
686.58	2951.33
686.78	2770.29
686.97	2717.65
687.16	2625.91
687.35	2516.13
687.55	2387.32
687.74	2381.99
687.93	2247.65
688.12	2319.94
688.32	2303.56
688.51	2075.82
688.70	2221.23
688.89	1956.22
689.08	1898.47
689.28	1923.45
689.47	1976.29
689.66	2007.62
689.85	2015.61
690.05	1891.30
690.24	1861.60
690.43	1973.01
690.62	1966.25
690.81	1839.49
691.01	1929.80
691.20	1869.39
691.39	1766.58
691.58	1942.70
691.77	2157.74
691.97	1927.55
692.16	1967.28
692.35	1901.13
692.54	1919.15
692.73	2121.29
692.93	2149.75
693.12	2214.67
693.31	2314.41
693.50	2258.09
693.69	2252.15
693.89	2099.99
694.08	2278.77
694.27	2305.60
694.46	2021.35
694.65	2120.67
694.85	2188.46
695.04	2173.30
695.23	2153.85
695.42	2793.84
695.61	3300.71
695.80	3686.34
696.00	4052.11
696.19	4196.70
696.38	3664.64
696.57	3286.99
696.76	3240.09
696.95	2968.94
697.15	3041.03
697.34	2909.75
697.53	2575.94
697.72	2520.03
697.91	2376.46
698.10	2470.87
698.30	2113.91
698.49	2044.28
698.68	2097.32
698.87	2009.26
699.06	1859.76
699.25	1956.42
699.45	2088.72
699.64	1991.44
699.83	2029.54
700.02	1830.06
700.21	1991.24
700.40	1875.53
700.59	1888.43
700.79	1856.89
700.98	1981.82
701.17	1836.21
701.36	1834.16
701.55	1830.88
701.74	2162.65
701.93	2244.98
702.12	2608.70
702.32	2719.91
702.51	3097.35
702.70	3147.93
702.89	2866.75
703.08	2564.67
703.27	2783.80
703.46	2605.84
703.65	2378.72
703.85	2250.72
704.04	2249.28
704.23	2390.80
704.42	2050.22
704.61	2036.09
704.80	2273.86
704.99	1896.42
705.18	2019.09
705.37	1993.90
705.57	2500.16
705.76	3294.77
705.95	3468.03
706.14	4148.78
706.33	4430.78
706.52	4553.45
706.71	3653.99
706.90	3291.09
707.09	3295.59
707.28	3109.02
707.47	2845.86
707.67	2874.73
707.86	2580.03
708.05	2702.70
708.24	2433.81
708.43	2275.70
708.62	2136.03
708.81	1975.88
709.00	1877.78
709.19	1869.80
709.38	2079.51
709.57	1877.17
709.76	2041.01
709.96	1989.19
710.15	2276.73
710.34	2106.54
710.53	2185.80
710.72	2038.96
710.91	2158.56
711.10	2073.98
711.29	2084.83
711.48	1936.97
711.67	1924.27
711.86	2079.30
712.05	1916.49
712.24	1954.99
712.43	2091.39
712.62	2182.52
712.81	1990.01
713.00	2068.45
713.19	1821.67
713.39	2038.14
713.58	1830.06
713.77	1995.34
713.96	2101.22
714.15	2051.86
714.34	1998.00
714.53	1918.54
714.72	2291.06
714.91	1973.63
715.10	2071.52
715.29	1975.68
715.48	2491.56
715.67	2188.25
715.86	2064.35
716.05	2016.63
716.24	2009.26
716.43	1955.81
716.62	1876.14
716.81	1840.10
717.00	1955.40
717.19	2173.92
717.38	1989.19
717.57	1922.63
717.76	1772.31
717.95	2063.12
718.14	1919.56
718.33	1865.09
718.52	1725.41
718.71	1736.27
718.90	1756.54
719.09	1834.98
719.28	1922.02
719.47	2081.56
719.66	2125.59
719.85	2183.13
720.04	2143.81
720.23	2242.32
720.42	2129.89
720.61	2204.02
720.80	1948.64
720.99	2133.57
721.18	2020.32
721.37	1926.52
721.56	1967.28
721.75	2101.83
721.94	1879.22
722.13	1963.80
722.32	1938.61
722.51	2079.51
722.70	1909.12
722.89	1963.18
723.08	1897.24
723.27	2026.67
723.46	1937.99
723.65	1856.89
723.84	1859.76
724.03	2085.45
724.22	1779.89
724.41	1961.95
724.60	1880.44
724.79	2031.58
724.98	1942.91
725.16	1842.76
725.35	1999.84
725.54	1808.56
725.73	1927.96
725.92	1955.40
726.11	2048.38
726.30	2323.83
726.49	2222.25
726.68	2360.28
726.87	2470.26
727.06	2542.14
727.25	2227.78
727.44	2303.76
727.63	2219.79
727.82	2144.22
728.01	2187.23
728.20	2190.30
728.38	2305.40
728.57	2043.87
728.76	2018.27
728.95	2091.39
729.14	1843.38
729.33	1827.61
729.52	1738.52
729.71	1843.99
729.90	1846.04
730.09	1923.66
730.28	2019.71
730.47	2023.19
730.66	2339.39
730.84	2257.68
731.03	2175.56
731.22	2200.13
731.41	2150.98
731.60	2161.43
731.79	1890.07
731.98	1977.93
732.17	2123.95
732.36	2077.87
732.55	1932.05
732.73	1878.81
732.92	2118.42
733.11	2031.38
733.30	1866.93
733.49	1795.66
733.68	2018.68
733.87	2000.25
734.06	1923.25
734.25	2096.10
734.43	2284.51
734.62	2524.53
734.81	2519.21
735.00	2519.82
735.19	2438.11
735.38	2362.95
735.57	2166.14
735.76	2331.41
735.94	2493.81
736.13	3095.91
736.32	3209.99
736.51	3352.73
736.70	3760.28
736.89	3843.63
737.08	3629.82
737.27	4067.88
737.45	5101.29
737.64	5312.02
737.83	5871.73
738.02	6098.85
738.21	5811.11
738.40	5020.39
738.59	4467.85
738.77	4326.74
738.96	3936.81
739.15	3734.88
739.34	3559.78
739.53	3258.73
739.72	3163.09
739.90	2938.84
740.09	2532.72
740.28	2481.52
740.47	2415.17
740.66	2283.28
740.85	2050.63
741.03	2081.15
741.22	1947.82
741.41	2025.44
741.60	1922.02
741.79	2067.42
741.98	2262.80
742.16	2361.51
742.35	2154.05
742.54	2225.94
742.73	2579.01
742.92	2310.11
743.10	2245.19
743.29	2308.47
743.48	2559.55
743.67	2130.91
743.86	2000.25
744.05	2044.90
744.23	2011.72
744.42	1992.26
744.61	2039.57
744.80	1908.71
744.99	1930.82
745.17	1793.41
745.36	1804.67
745.55	1977.52
745.74	1943.11
745.93	1840.30
746.11	1836.00
746.30	1798.32
746.49	2021.55
746.68	1815.11
746.86	1899.29
747.05	1890.28
747.24	2022.78
747.43	2071.52
747.62	1865.09
747.80	1922.02
747.99	2227.99
748.18	2166.96
748.37	2077.05
748.56	2065.58
748.74	2180.27
748.93	2109.00
749.12	2336.12
749.31	3067.86
749.49	3652.35
749.68	4134.23
749.87	4564.72
750.06	4629.64
750.24	4772.59
750.43	5206.35
750.62	5728.37
750.81	6102.33
750.99	6514.79
751.18	6420.18
751.37	5535.45
751.56	4867.61
751.74	4938.47
751.93	4718.72
752.12	3892.78
752.31	3589.27
752.49	3391.03
752.68	3389.80
752.87	2951.94
753.06	2708.85
753.24	2525.15
753.43	2551.36
753.62	2189.48
753.81	2071.11
753.99	2285.33
754.18	2081.56
754.37	1891.91
754.55	1997.59
754.74	2209.35
754.93	1773.54
755.12	1881.06
755.30	1858.12
755.49	2062.71
755.68	1948.85
755.86	1963.80
756.05	1784.19
756.24	2121.90
756.43	1778.66
756.61	1799.35
756.80	1944.34
756.99	2094.05
757.17	1908.09
757.36	1802.01
757.55	1925.30
757.74	2008.24
757.92	1942.50
758.11	1781.32
758.30	1736.27
758.48	1876.96
758.67	1806.51
758.86	1922.02
759.04	1800.37
759.23	1884.13
759.42	1938.40
759.60	1838.05
759.79	1915.67
759.98	1887.82
760.16	1798.53
760.35	1814.50
760.54	1776.61
760.73	1937.38
760.91	1762.28
761.10	1937.79
761.29	1953.97
761.47	1924.07
761.66	2220.82
761.85	1977.93
762.03	2132.14
762.22	2995.36
762.41	5715.68
762.59	8806.88
762.78	10317.67
762.97	12418.27
763.15	13282.72
763.34	12055.98
763.52	9232.45
763.71	8579.56
763.90	7972.33
764.08	7456.04
764.27	6924.80
764.46	6505.58
764.64	5795.55
764.83	5250.38
765.02	4833.00
765.20	4261.00
765.39	3749.01
765.58	2975.70
765.76	2690.01
765.95	2464.32
766.13	2256.66
766.32	2136.65
766.51	2092.20
766.69	2607.47
766.88	2053.70
767.07	1881.26
767.25	1771.49
767.44	2079.30
767.62	2132.55
767.81	1896.62
768.00	1954.38
768.18	1960.73
768.37	1873.48
768.56	1787.26
768.74	1874.51
768.93	1798.53
769.11	1983.46
769.30	1951.30
769.49	1877.37
769.67	1897.44
769.86	1857.30
770.04	1903.59
770.23	1886.18
770.42	2088.93
770.60	1900.51
770.79	1804.26
770.97	1910.96
771.16	2441.38
771.35	3221.66
771.53	3949.10
771.72	4434.67
771.90	4980.66
772.09	5382.47
772.27	4849.18
772.46	3904.45
772.65	3973.47
772.83	3690.23
773.02	3584.15
773.20	3264.26
773.39	3286.99
773.58	3135.85
773.76	2725.03
773.95	2674.65
774.13	2600.51
774.32	2368.07
774.50	2128.04
774.69	2130.09
774.87	2001.68
775.06	2271.20
775.25	1849.11
775.43	1895.80
775.62	1940.86
775.80	1978.34
775.99	1939.84
776.17	1840.71
776.36	1913.21
776.54	2075.21
776.73	1883.11
776.92	1926.73
777.10	2079.10
777.29	1992.47
777.47	1816.34
777.66	1859.76
777.84	1927.75
778.03	1912.39
778.21	1822.69
778.40	1893.96
778.58	1977.72
778.77	2047.15
778.95	1765.96
779.14	1828.43
779.32	2144.63
779.51	2017.45
779.70	1868.77
779.88	1763.10
780.07	1839.08
780.25	2230.65
780.44	1859.76
780.62	2009.67
780.81	1992.88
780.99	1959.29
781.18	1817.78
781.36	1849.32
781.55	1874.30
781.73	2089.34
781.92	1799.55
782.10	1754.90
782.29	1965.23
782.47	2107.16
782.66	1894.17
782.84	1752.45
783.03	1828.63
783.21	2055.34
783.40	1869.80
783.58	1834.98
783.77	1827.61
783.95	1900.31
784.14	1800.37
784.32	1907.89
784.51	2105.52
784.69	1856.69
784.88	1780.71
785.06	1944.14
785.24	1816.34
785.43	2080.94
785.61	2009.88
785.80	1848.09
785.98	2046.33
786.17	1962.57
786.35	1854.85
786.54	1975.68
786.72	2070.29
786.91	2074.59
787.09	1896.62
787.28	1786.85
787.46	1954.79
787.65	2028.72
787.83	1797.91
788.01	1933.08
788.20	1844.20
788.38	1987.35
788.57	1974.86
788.75	1962.98
788.94	2280.41
789.12	2139.10
789.31	1969.53
789.49	2045.72
789.67	1913.21
789.86	2018.07
790.04	1854.44
790.23	1800.98
790.41	2250.72
790.60	1979.36
790.78	1937.79
790.96	1959.09
791.15	2065.17
791.33	1959.91
791.52	1911.98
791.70	1825.56
791.89	1935.54
792.07	2018.27
792.25	1926.93
792.44	1776.00
792.62	2062.10
792.81	1845.22
792.99	1924.68
793.17	1870.82
793.36	1862.83
793.54	2338.99
793.73	2784.83
793.91	3354.37
794.10	3901.59
794.28	4416.24
794.46	4358.28
794.65	4285.99
794.83	3572.27
795.01	3431.78
795.20	3458.40
795.38	3223.30
795.57	3139.13
795.75	3029.76
795.93	2833.77
796.12	2736.70
796.30	2715.61
796.49	2600.31
796.67	2312.77
796.85	2335.50
797.04	2232.29
797.22	2172.08
797.40	1876.96
797.59	1986.32
797.77	2011.72
797.96	1885.16
798.14	1865.90
798.32	1834.37
798.51	2008.85
798.69	2187.03
798.87	1922.43
799.06	1900.72
799.24	1793.20
799.42	2237.41
799.61	2572.66
799.79	2878.01
799.98	3358.67
800.16	3464.75
800.34	4177.65
800.53	5053.57
800.71	5320.01
800.89	6198.18
801.08	6332.52
801.26	6286.65
801.44	5392.10
801.63	4601.79
801.81	4501.03
801.99	4220.86
802.18	3955.04
802.36	3874.14
802.54	3625.31
802.73	3173.53
802.91	3119.06
803.09	2924.29
803.28	2769.26
803.46	2617.92
803.64	2596.41
803.83	2158.15
804.01	2059.03
804.19	1985.30
804.38	2175.35
804.56	2115.14
804.74	2001.48
804.92	2036.30
805.11	1906.86
805.29	2125.79
805.47	1934.92
805.66	1853.00
805.84	1859.35
806.02	2098.55
806.21	1917.72
806.39	2090.57
806.57	2079.10
806.76	2081.76
806.94	1976.90
807.12	1922.02
807.30	1946.59
807.49	2058.41
807.67	2036.70
807.85	2119.65
808.04	2140.13
808.22	2311.75
808.40	1830.27
808.58	1855.05
808.77	2038.75
808.95	2221.84
809.13	2408.82
809.31	3705.39
809.50	5008.10
809.68	5807.02
809.86	6351.37
810.05	6818.71
810.23	7554.14
810.41	9380.72
810.59	14605.70
810.78	17966.01
810.96	20554.64
811.14	22300.13
811.32	21756.80
811.51	17843.75
811.69	14403.77
811.87	14179.93
812.05	12503.87
812.24	11783.19
812.42	10879.22
812.60	9850.93
812.78	8379.06
812.97	7273.98
813.15	6696.45
813.33	5775.48
813.51	5120.74
813.70	4151.85
813.88	3548.72
814.06	3075.84
814.24	2716.84
814.42	2268.94
814.61	2256.04
814.79	2375.23
814.97	1888.02
815.15	1934.92
815.34	2031.79
815.52	2076.23
815.70	1848.29
815.88	1891.71
816.06	1842.15
816.25	1882.08
816.43	1818.39
816.61	2019.50
816.79	2133.37
816.98	1808.15
817.16	1915.06
817.34	1869.39
817.52	2047.56
817.70	2161.43
817.89	1922.43
818.07	1844.40
818.25	1937.79
818.43	1959.29
818.61	1901.95
818.80	1870.61
818.98	2154.26
819.16	1942.70
819.34	1797.30
819.52	2112.89
819.70	1821.46
819.89	1895.19
820.07	1767.60
820.25	1733.40
820.43	1941.27
820.61	2032.61
820.80	1893.35
820.98	1783.17
821.16	1719.68
821.34	1743.44
821.52	1856.69
821.70	1905.23
821.89	1903.79
822.07	1884.95
822.25	1873.28
822.43	1786.24
822.61	2101.42
822.79	1954.99
822.98	1858.94
823.16	1709.44
823.34	1933.49
823.52	2057.59
823.70	1957.04
823.88	1698.18
824.06	1984.07
824.25	1914.85
824.43	1973.63
824.61	1822.08
824.79	1991.44
824.97	2050.43
825.15	2145.45
825.33	2470.87
825.52	2964.43
825.70	3128.68
825.88	3307.47
826.06	3611.18
826.24	3652.96
826.42	3420.93
826.60	2963.21
826.78	3002.73
826.97	2770.49
827.15	2854.46
827.33	2529.86
827.51	2597.85
827.69	2400.83
827.87	2413.53
828.05	2335.50
828.23	2138.90
828.41	2302.12
828.60	2229.21
828.78	1896.62
828.96	2028.51
829.14	1913.42
829.32	1931.23
829.50	1887.82
829.68	1864.27
829.86	1885.36
830.04	1987.14
830.22	1924.27
830.41	1802.42
830.59	1909.53
830.77	1993.70
830.95	1815.32
831.13	1797.91
831.31	1832.11
831.49	2014.38
831.67	2011.92
831.85	1964.21
832.03	1880.24
832.21	1999.64
832.39	1769.65
832.57	1768.42
832.76	2041.01
832.94	1892.12
833.12	1762.07
833.30	1875.94
833.48	2056.78
833.66	1946.80
833.84	1832.52
834.02	1871.84
834.20	2039.98
834.38	1993.90
834.56	1711.69
834.74	1785.01
834.92	1794.02
835.10	2106.75
835.28	1942.50
835.46	1881.06
835.64	1883.72
835.82	1816.34
836.01	2084.01
836.19	2020.53
836.37	1865.49
836.55	1777.84
836.73	1793.41
836.91	1758.59
837.09	1980.18
837.27	2114.94
837.45	1741.80
837.63	1792.18
837.81	1800.78
837.99	1951.71
838.17	1900.11
838.35	1888.02
838.53	2295.36
838.71	2102.85
838.89	1941.88
839.07	1967.48
839.25	2046.54
839.43	2156.92
839.61	2192.56
839.79	3167.18
839.97	4120.10
840.15	4683.50
840.33	5070.36
840.51	5482.21
840.69	5244.44
840.87	4459.66
841.05	4144.47
841.23	4331.86
841.41	5249.35
841.59	7112.80
841.77	7860.72
841.95	8459.34
842.13	9143.98
842.31	8654.72
842.49	7149.46
842.67	6161.52
842.85	6081.24
843.03	5377.35
843.21	5122.79
843.39	4830.75
843.57	4470.72
843.75	4107.20
843.93	3659.72
844.11	3307.88
844.29	3160.22
844.47	2931.26
844.65	2925.93
844.83	2565.90
845.01	2386.29
845.19	2347.38
845.36	2143.81
845.54	2132.55
845.72	2034.45
845.90	2051.25
846.08	1814.09
846.26	1917.51
846.44	1985.92
846.62	1967.89
846.80	1902.77
846.98	1778.25
847.16	1871.23
847.34	1933.28
847.52	1759.00
847.70	1771.70
847.88	1871.43
848.06	2078.07
848.24	1925.30
848.41	1697.56
848.59	2039.78
848.77	1951.51
848.95	1813.27
849.13	1844.40
849.31	1994.72
849.49	1927.75
849.67	1752.86
849.85	1759.21
850.03	1916.90
850.21	1896.83
850.39	1804.26
850.57	1941.68
850.74	2102.24
850.92	2132.14
851.10	2230.44
851.28	2510.60
851.46	2845.65
851.64	3230.67
851.82	3020.14
852.00	3061.92
852.18	3019.93
852.36	2738.95
852.53	2543.99
852.71	2550.54
852.89	2531.70
853.07	2463.71
853.25	2241.71
853.43	2139.31
853.61	2218.36
853.79	2191.12
853.97	1994.52
854.14	1917.10
854.32	2191.33
854.50	2076.85
854.68	1929.60
854.86	1884.75
855.04	1828.02
855.22	2023.60
855.40	1766.99
855.57	1819.21
855.75	2001.89
855.93	1965.03
856.11	1717.02
856.29	1784.40
856.47	1830.27
856.65	1935.74
856.82	1785.62
857.00	1722.96
857.18	1892.12
857.36	1827.40
857.54	1859.15
857.72	1969.33
857.89	1983.66
858.07	1918.13
858.25	1987.55
858.43	1757.57
858.61	1844.40
858.79	1905.43
858.97	1779.68
859.14	1894.99
859.32	1855.25
859.50	1883.31
859.68	1926.93
859.86	1836.41
860.03	1986.53
860.21	2044.28
860.39	1874.30
860.57	1966.25
860.75	1986.73
860.93	2183.95
861.10	2063.74
861.28	1878.40
861.46	2009.06
861.64	2010.70
861.82	1892.53
861.99	1963.59
862.17	2043.87
862.35	2061.08
862.53	1874.71
862.71	1901.33
862.88	1959.09
863.06	1978.34
863.24	1851.36
863.42	1787.88
863.60	1895.40
863.77	1951.30
863.95	1689.37
864.13	1843.17
864.31	1865.90
864.49	1976.29
864.66	1738.11
864.84	1798.32
865.02	1914.85
865.20	2224.50
865.37	1854.44
865.55	1795.25
865.73	1801.19
865.91	2084.63
866.09	2086.06
866.26	2052.27
866.44	2171.26
866.62	2076.23
866.80	1934.31
866.97	2021.14
867.15	2005.99
867.33	2059.03
867.51	2045.31
867.68	1981.00
867.86	1929.80
868.04	1882.70
868.22	1750.81
868.39	1844.81
868.57	1960.32
868.75	2085.65
868.93	1741.80
869.10	1811.84
869.28	2130.71
869.46	2075.21
869.64	1857.71
869.81	1855.25
869.99	1923.66
870.17	1902.15
870.35	1778.66
870.52	1802.62
870.70	2018.89
870.88	1804.47
871.05	1752.86
871.23	1645.13
871.41	1877.78
871.59	1888.43
871.76	1824.33
871.94	1775.38
872.12	1894.99
872.29	1709.44
872.47	1801.60
872.65	1784.40
872.83	1934.10
873.00	2100.19
873.18	1844.81
873.36	1809.99
873.53	1975.68
873.71	1749.99
873.89	1759.82
874.06	1860.37
874.24	1938.40
874.42	2027.69
874.60	1951.51
874.77	1869.39
874.95	1821.05
875.13	1999.23
875.30	1812.25
875.48	1854.23
875.66	2138.28
875.83	1837.03
876.01	1866.52
876.19	1998.00
876.36	1768.42
876.54	1900.92
876.72	1767.60
876.89	1938.40
877.07	1979.98
877.25	1696.33
877.42	1899.08
877.60	1850.34
877.78	2113.71
877.95	1844.40
878.13	1825.35
878.31	1906.66
878.48	1995.75
878.66	1957.04
878.84	1808.36
879.01	1861.81
879.19	1945.37
879.37	1944.55
879.54	1816.34
879.72	1762.28
879.90	1669.30
880.07	1999.43
880.25	1615.23
880.42	1961.34
880.60	1885.97
880.78	1967.69
880.95	1819.21
881.13	1847.47
881.31	1889.46
881.48	1821.87
881.66	1778.46
881.83	1861.40
882.01	1817.37
882.19	1732.58
882.36	1860.78
882.54	1833.96
882.72	1970.15
882.89	1904.20
883.07	1771.08
883.24	1823.72
883.42	1972.19
883.60	1927.55
883.77	1752.65
883.95	1833.14
884.12	2041.82
884.30	1976.09
884.48	2057.80
884.65	1963.18
884.83	2007.01
885.00	2053.09
885.18	1838.67
885.36	1877.58
885.53	1996.36
885.71	2101.22
885.88	1773.13
886.06	1859.76
886.23	1968.10
886.41	1851.16
886.59	1819.21
886.76	1799.35
886.94	1932.05
887.11	2231.26
887.29	1833.14
887.47	1725.62
887.64	2054.32
887.82	2078.69
887.99	1683.84
888.17	1865.29
888.34	1846.04
888.52	1746.30
888.69	1851.57
888.87	1763.71
889.05	1826.58
889.22	1830.47
889.40	1788.70
889.57	1960.52
889.75	2090.57
889.92	1826.79
890.10	1757.57
890.27	1802.83
890.45	1802.21
890.62	1683.23
890.80	1748.56
890.98	1698.38
891.15	2059.03
891.33	1989.81
891.50	1747.12
891.68	1700.63
891.85	1968.92
892.03	1939.43
892.20	1788.90
892.38	1722.96
892.55	1967.48
892.73	1958.68
892.90	1737.09
893.08	1813.27
893.25	1822.90
893.43	1823.51
893.60	1929.19
893.78	1665.61
893.95	1893.14
894.13	1864.27
894.30	1767.81
894.48	1846.65
894.65	1976.70
894.83	1902.56
895.00	1627.73
895.18	1655.17
895.35	1995.95
895.53	1981.41
895.70	1772.11
895.88	1964.82
896.05	1954.38
896.23	1762.69
896.40	1814.30
896.58	1861.81
896.75	1975.27
896.93	2081.35
897.10	1809.59
897.28	1741.59
897.45	1938.81
897.63	1983.46
897.80	1938.40
897.98	1828.43
898.15	1929.19
898.33	1793.00
898.50	1874.51
898.67	1841.12
898.85	1878.81
899.02	1957.86
899.20	1992.06
899.37	1829.66
899.55	1923.04
899.72	2039.16
899.90	1763.71
900.07	1772.31
900.25	1959.70
900.42	2029.54
900.59	1794.02
900.77	1929.80
900.94	1939.63
901.12	1913.42
901.29	1791.56
901.47	1915.47
901.64	1920.18
901.82	1857.92
901.99	1635.51
902.16	1749.37
902.34	2022.98
902.51	1901.13
902.69	1795.04
902.86	1833.75
903.03	2335.50
903.21	1880.65
903.38	1835.39
903.56	1777.02
903.73	1997.18
903.91	1834.78
904.08	1748.15
904.25	1659.47
904.43	1813.48
904.60	1978.13
904.78	1813.27
904.95	1740.16
905.12	1855.25
905.30	2148.32
905.47	1924.68
905.65	1957.45
905.82	1927.14
905.99	1991.65
906.17	1913.62
906.34	1830.88
906.52	1880.04
906.69	2089.95
906.86	2029.13
907.04	1936.76
907.21	2079.10
907.38	2075.82
907.56	1839.49
907.73	1813.89
907.91	2097.53
908.08	2050.02
908.25	1778.87
908.43	1764.94
908.60	1968.51
908.77	1933.28
908.95	1787.26
909.12	1753.88
909.30	1984.28
909.47	1722.55
909.64	1849.93
909.82	1988.58
909.99	1862.42
910.16	1894.58
910.34	1768.83
910.51	1823.92
910.68	1926.11
910.86	1887.41
911.03	1763.10
911.20	2029.95
911.38	2726.46
911.55	3739.59
911.72	4210.42
911.90	4293.98
912.07	4709.92
912.24	4691.90
912.42	3827.24
912.59	3075.03
912.76	3059.05
912.94	2714.79
913.11	2541.73
913.28	2363.56
913.46	2249.69
913.63	2350.66
913.80	2470.06
913.98	2162.04
914.15	2331.61
914.32	2302.12
914.49	2146.89
914.67	2014.38
914.84	2141.15
915.01	2171.46
915.19	2084.01
915.36	1964.41
915.53	2129.68
915.71	2035.68
915.88	1980.18
916.05	1839.28
916.22	2062.10
916.40	1923.66
916.57	1770.47
916.74	1903.38
916.92	2083.60
917.09	1764.73
917.26	1765.96
917.43	1745.89
917.61	1849.93
917.78	1704.32
917.95	1676.67
918.13	1742.62
918.30	2164.91
918.47	1910.55
918.64	1800.98
918.82	1801.80
918.99	1939.02
919.16	2190.10
919.33	1964.00
919.51	1914.03
919.68	1982.02
919.85	2131.73
920.02	1776.00
920.20	1855.05
920.37	2135.42
920.54	2041.82
920.71	1789.72
920.89	1831.09
921.06	2139.92
921.23	1814.50
921.40	1812.45
921.58	2124.97
921.75	2658.67
921.92	2293.72
922.09	2429.10
922.27	2426.84
922.44	2356.39
922.61	2293.52
922.78	2039.37
922.96	1991.65
923.13	1968.51
923.30	2115.14
923.47	1804.87
923.64	1874.30
923.82	2020.32
923.99	1989.40
924.16	1943.52
924.33	1802.01
924.50	1924.68
924.68	2149.96
924.85	1799.14
925.02	1845.22
925.19	2022.16
925.36	1968.92
925.54	1879.01
925.71	1870.61
925.88	2284.30
926.05	1861.60
926.22	1761.46
926.40	1845.63
926.57	1925.30
926.74	1968.51
926.91	1776.82
927.08	1997.79
927.26	1998.00
927.43	1915.67
927.60	1753.68
927.77	1826.58
927.94	2080.74
928.11	2037.32
928.29	1712.51
928.46	1886.18
928.63	1816.75
928.80	1853.82
928.97	1907.48
929.14	1753.27
929.32	2139.31
929.49	1895.60
929.66	1785.01
929.83	1694.49
930.00	1812.04
930.17	1917.31
930.35	1701.86
930.52	1768.22
930.69	2086.68
930.86	1748.15
931.03	1866.52
931.20	1640.63
931.37	1997.18
931.55	1863.24
931.72	1877.58
931.89	1708.83
932.06	1754.70
932.23	2097.94
932.40	1892.53
932.57	1882.90
932.74	2048.17
932.92	2031.59
933.09	1927.96
933.26	1585.95
933.43	1844.81
933.60	1923.04
933.77	1831.29
933.94	1857.92
934.11	1875.32
934.29	1908.50
934.46	1746.51
934.63	1875.12
934.80	1741.39
934.97	1907.89
935.14	1868.16
935.31	1721.52
935.48	1822.49
935.65	1945.98
935.82	1889.05
936.00	1728.28
936.17	2062.30
936.34	1864.88
936.51	1898.06
936.68	1698.99
936.85	1923.45
937.02	1891.91
937.19	1906.25
937.36	1827.81
937.53	1945.16
937.70	1982.02
937.87	1824.54
938.05	1912.19
938.22	1901.74
938.39	1740.98
938.56	1854.23
938.73	1766.58
938.90	1852.18
939.07	1785.42
939.24	1843.38
939.41	1665.00
939.58	1935.33
939.75	1952.53
939.92	1764.53
940.09	1953.15
940.26	1863.24
940.43	1995.54
940.60	1790.54
940.77	1807.13
940.95	1952.74
941.12	1972.40
941.29	1757.57
941.46	1823.31
941.63	2034.86
941.80	2077.25
941.97	1709.03
942.14	1720.29
942.31	1984.48
942.48	1866.72
942.65	1890.28
942.82	1822.08
942.99	1949.46
943.16	1896.83
943.33	1733.81
943.50	1766.99
943.67	1975.06
943.84	2021.35
944.01	1781.73
944.18	1729.10
944.35	2056.78
944.52	1763.10
944.69	1872.25
944.86	1686.71
945.03	1978.34
945.20	2197.47
945.37	1671.55
945.54	1816.96
945.71	2101.63
945.88	2107.77
946.05	1742.62
946.22	1737.50
946.39	2055.14
946.56	1902.36
946.73	1723.57
946.90	1757.16
947.07	1814.09
947.24	1878.40
947.41	1682.82
947.58	1933.28
947.75	1959.29
947.92	1932.26
948.09	1598.44
948.26	1701.86
948.43	1898.47
948.60	2137.46
948.77	1778.46
948.94	1784.60
949.11	1965.03
949.27	1933.90
949.44	1743.85
949.61	1765.35
949.78	1936.15
949.95	2018.48
950.12	1729.71
950.29	1703.30
950.46	1811.02
950.63	1995.54
950.80	1756.13
950.97	1815.11
951.14	2001.89
951.31	1847.47
951.48	1738.52
951.65	1706.57
951.82	2114.53
951.99	1893.96
952.15	1679.13
952.32	1806.51
952.49	1790.54
952.66	1807.74
952.83	1759.41
953.00	1719.68
953.17	1853.41
953.34	1997.79
953.51	1835.18
953.68	1794.64
953.85	2005.58
954.02	1990.01
954.18	1807.74
954.35	1803.85
954.52	1749.99
954.69	1886.18
954.86	1636.74
955.03	1797.71
955.20	1942.91
955.37	1866.31
955.54	1773.34
955.71	1762.48
955.87	1929.80
956.04	2095.28
956.21	1810.20
956.38	1748.76
956.55	1890.48
956.72	2224.71
956.89	1814.91
957.06	1742.21
957.23	1811.22
957.39	2043.87
957.56	1790.33
957.73	1731.15
957.90	1655.37
958.07	2092.82
958.24	1818.80
958.41	1783.17
958.57	1968.10
958.74	1866.72
958.91	1713.74
959.08	1781.32
959.25	1943.73
959.42	1851.57
959.59	1825.76
959.75	1770.67
959.92	2056.98
960.09	1966.25
960.26	1711.69
960.43	1840.30
960.60	1905.63
960.76	1863.24
960.93	1684.86
961.10	1845.22
961.27	2015.41
961.44	1825.35
961.61	1706.57
961.77	1703.91
961.94	1917.10
962.11	1971.99
962.28	1792.18
962.45	1724.39
962.62	1845.22
962.78	2005.17
962.95	1707.80
963.12	1779.48
963.29	1953.35
963.46	2258.09
963.62	1836.82
963.79	1774.36
963.96	2192.35
964.13	1849.32
964.30	1880.85
964.46	1800.57
964.63	1770.67
964.80	2239.86
964.97	1703.30
965.14	1958.27
965.30	2050.63
965.47	2130.50
965.64	2050.22
965.81	2013.56
965.98	2205.66
966.14	1998.41
966.31	1887.00
966.48	1868.57
966.65	2092.82
966.81	2012.13
966.98	1812.66
967.15	1878.81
967.32	1941.68
967.49	1829.45
967.65	1696.13
967.82	1674.01
967.99	1908.09
968.16	1709.44
968.32	1964.00
968.49	1806.51
968.66	1878.40
968.83	2109.82
968.99	1850.13
969.16	1739.54
969.33	2064.56
969.50	1962.77
969.66	1892.94
969.83	1999.23
970.00	2010.29
970.17	1940.45
970.33	1773.13
970.50	1712.51
970.67	2058.62
970.84	2060.67
971.00	1723.98
971.17	1723.57
971.34	1981.41
971.50	1870.61
971.67	1873.28
971.84	1837.85
972.01	1705.34
972.17	1661.72
972.34	1712.31
972.51	1874.10
972.67	1999.84
972.84	1891.91
973.01	1714.35
973.18	1761.46
973.34	1985.10
973.51	1762.28
973.68	1788.49
973.84	1808.97
974.01	1819.21
974.18	2103.88
974.34	1873.07
974.51	1840.10
974.68	1794.84
974.85	2099.17
975.01	1910.75
975.18	1811.02
975.35	1881.67
975.51	1756.95
975.68	1664.38
975.85	1888.64
976.01	1816.55
976.18	2065.58
976.35	1778.46
976.51	1762.89
976.68	2080.53
976.85	2054.52
977.01	1814.71
977.18	1871.02
977.35	1977.52
977.51	1750.19
977.68	1618.71
977.85	1697.77
978.01	2045.10
978.18	1957.86
978.35	1852.18
978.51	1836.62
978.68	1995.75
978.85	2110.02
979.01	1773.95
979.18	1806.51
979.34	1868.16
979.51	1917.10
979.68	1743.03
979.84	1814.09
980.01	2215.70
980.18	1903.79
980.34	1769.45
980.51	1851.98
980.67	1999.02
980.84	1976.70
981.01	1829.86
981.17	1846.86
981.34	1694.28
981.51	1942.91
981.67	1726.85
981.84	1894.78
982.00	1953.35
982.17	1875.53
982.34	1698.18
982.50	1584.92
982.67	2065.17
982.83	1837.64
983.00	1720.50
983.17	1599.46
983.33	2022.37
983.50	1697.56
983.66	1694.90
983.83	1601.51
984.00	1829.66
984.16	1892.73
984.33	1598.64
984.49	1585.74
984.66	1766.17
984.83	1948.44
984.99	1680.36
985.16	1596.60
985.32	1934.72
985.49	1984.07
985.65	1727.26
985.82	1617.28
985.99	2037.73
986.15	1870.41
986.32	1691.21
986.48	1677.70
986.65	1839.69
986.81	1960.11
986.98	1608.88
987.14	1705.34
987.31	1907.68
987.48	1682.61
987.64	1573.45
987.81	1580.62
987.97	2149.75
988.14	1776.82
988.30	1639.60
988.47	1527.99
988.63	1905.84
988.80	1761.25
988.96	1726.85
989.13	1753.06
989.30	1835.18
989.46	1987.76
989.63	1591.07
989.79	1599.05
989.96	1856.89
990.12	2054.11
990.29	1653.53
990.45	1685.48
990.62	1839.28
990.78	2025.24
990.95	1736.06
991.11	1646.98
991.28	1811.63
991.44	1905.84
991.61	1572.64
991.77	1709.44
991.94	1891.30
992.10	2015.61
992.27	1690.39
992.43	1674.42
992.60	1923.86
992.76	1829.25
992.93	1792.18
993.09	1597.01
993.26	1985.51
993.42	2089.95
993.59	1657.01
993.75	1555.23
993.92	1782.96
994.08	1768.01
994.25	1708.01
994.41	1619.53
994.58	1968.30
994.74	2068.86
994.91	1622.40
995.07	1741.59
995.24	1855.87
995.40	1873.48
995.56	1765.76
995.73	1748.56
995.89	2111.05
996.06	1848.50
996.22	1619.94
996.39	1568.13
996.55	1862.01
996.72	1924.89
996.88	1567.31
997.05	1619.94
997.21	2121.29
997.37	1917.31
997.54	1725.62
997.70	1667.87
997.87	1917.72
998.03	1854.44
998.20	1562.19
998.36	1564.85
998.52	1943.73
998.69	1986.73
998.85	1565.47
999.02	1672.78
999.18	2007.83
999.35	1970.76
999.51	1686.91
999.67	1666.43
999.84	1746.51
1000.00	1991.44
1000.17	1737.91
1000.33	1600.49
1000.49	1803.24
1000.66	1846.65
1000.82	1656.40
1000.99	1701.66
1001.15	2034.66
1001.31	1840.51
1001.48	1665.00
1001.64	1718.04
1001.81	1848.50
1001.97	2127.63
1002.13	1642.88
1002.30	1651.28
1002.46	2058.41
1002.63	1874.30
1002.79	1735.86
1002.95	1629.16
1003.12	2034.04
1003.28	1943.93
1003.45	1647.18
1003.61	1601.92
1003.77	1919.77
1003.94	1698.59
1004.10	1670.32
1004.26	1735.65
1004.43	1964.62
1004.59	2093.64
1004.75	1622.40
1004.92	1637.56
1005.08	1830.47
1005.25	1907.27
1005.41	1653.12
1005.57	1723.37
1005.74	2023.39
1005.90	1833.75
1006.06	1761.87
1006.23	1656.60
1006.39	1946.18
1006.55	2254.20
1006.72	1796.89
1006.88	1626.70
1007.04	1788.08
1007.21	1851.16
1007.37	1697.97
1007.53	1653.33
1007.70	2054.52
1007.86	1967.28
1008.02	1731.76
1008.19	1639.81
1008.35	1881.88
1008.51	1767.40
1008.68	1658.85
1008.84	1609.09
1009.00	1774.16
1009.17	1996.16
1009.33	1763.71
1009.49	1735.04
1009.65	1777.84
1009.82	1911.16
1009.98	1714.97
1010.14	1577.14
1010.31	1967.69
1010.47	1924.07
1010.63	1740.36
1010.80	1688.76
1010.96	1958.68
1011.12	1847.47
1011.28	1641.65
1011.45	1673.80
1011.61	2186.00
1011.77	1762.07
1011.94	1644.72
1012.10	1616.87
1012.26	1733.81
1012.42	1817.37
1012.59	1697.97
1012.75	1691.42
1012.91	1851.16
1013.07	1969.94
1013.24	1599.67
1013.40	1647.39
1013.56	1927.96
1013.72	1858.33
1013.89	1712.51
1014.05	1710.67
1014.21	2120.47
1014.37	2185.18
1014.54	1703.91
1014.70	1616.05
1014.86	1844.61
1015.02	1763.30
1015.19	1667.25
1015.35	1602.13
1015.51	1830.88
1015.67	1835.18
1015.84	1614.82
1016.00	1653.73
1016.16	1992.47
1016.32	1963.39
1016.49	1650.46
1016.65	1633.46
1016.81	1838.67
1016.97	1949.05
1017.14	1751.22
1017.30	1662.34
1017.46	1821.05
1017.62	1901.33
1017.78	1720.91
1017.95	1634.07
1018.11	1959.70
1018.27	2178.01
1018.43	1774.97
1018.59	1719.68
1018.76	1973.22
1018.92	2181.70
1019.08	1626.91
1019.24	1651.48
1019.40	2042.85
1019.57	1911.16
1019.73	1728.90
1019.89	1668.07
1020.05	1908.30
1020.21	2120.67
1020.38	1609.09
1020.54	1807.33
1020.70	1923.86
1020.86	1929.80
1021.02	1666.02
1021.18	1648.41
1021.35	1826.58
1021.51	1931.03
1021.67	1786.24
1021.83	1674.83
1021.99	1881.67
1022.15	1907.89
1022.32	1743.03
1022.48	1701.04
1022.64	2033.02
1022.80	2098.96
1022.96	1677.90
1023.12	1592.91
1023.29	1993.08
1023.45	1935.74
1023.61	1627.32
1023.77	1801.19
1023.93	1903.38
1024.09	1769.04
1024.25	1629.98
1024.42	1600.28
1024.58	1830.47
1024.74	1900.11
1024.90	1661.52
1025.06	1717.22
1025.22	1800.57
1025.38	2065.58
1025.54	1582.88
1025.71	1719.88
1025.87	1953.56
1026.03	1927.55
1026.19	1623.83
1026.35	1786.44
1026.51	1943.93
1026.67	1864.06
1026.83	1702.27
1026.99	1758.80
1027.16	1923.04
1027.32	1853.62
1027.48	1673.19
1027.64	1626.70
1027.80	1936.56
1027.96	1896.62
1028.12	1665.82
1028.28	1618.10
1028.44	1914.44
1028.60	2040.80
1028.77	1784.80
1028.93	1697.36
1029.09	1831.91
1029.25	1762.48
1029.41	1710.26
1029.57	1739.75
1029.73	1908.71
1029.89	2084.42
1030.05	1755.31
1030.21	1732.79
1030.37	2193.58
1030.53	1940.66
1030.69	1697.15
1030.85	1601.51
1031.02	1756.95
1031.18	1878.40
1031.34	1675.03
1031.50	1737.50
1031.66	1801.39
1031.82	2045.31
1031.98	1703.91
1032.14	1636.53
1032.30	1770.06
1032.46	1981.41
1032.62	1768.01
1032.78	1619.94
1032.94	1812.86
1033.10	1839.28
1033.26	1707.60
1033.42	1738.93
1033.58	2128.66
1033.74	1837.64
1033.90	1666.02
1034.06	1828.43
1034.22	2157.13
1034.38	1985.92
1034.54	1699.40
1034.70	1721.93
1034.86	2100.81
>>>>>End Processed Spectral Data<<<<<
