SpectraSuite Data File
++++++++++++++++++++++++++++++++++++
Date: Thu Mar 30 15:59:03 PDT 2017
User: UCSD _CER
Dark Spectrum Present: No
Reference Spectrum Present: No
Number of Sampled Component Spectra: 1
Spectrometers: USB4C00073
Integration Time (usec): 250000 (USB4C00073)
Spectra Averaged: 10 (USB4C00073)
Boxcar Smoothing: 0 (USB4C00073)
Correct for Electrical Dark: No (USB4C00073)
Strobe/Lamp Enabled: No (USB4C00073)
Correct for Detector Non-linearity: No (USB4C00073)
Correct for Stray Light: No (USB4C00073)
Number of Pixels in Processed Spectrum: 3648
>>>>>Begin Processed Spectral Data<<<<<
345.37	1297.80
345.58	1297.80
345.80	1297.80
346.01	1273.43
346.22	1271.58
346.43	1971.17
346.65	1768.83
346.86	2116.58
347.07	2079.92
347.28	1805.28
347.50	1791.56
347.71	1894.17
347.92	1722.34
348.13	1796.89
348.35	1715.17
348.56	1889.87
348.77	1772.93
348.98	1822.69
349.20	1671.55
349.41	1934.31
349.62	1993.29
349.83	1870.21
350.05	1737.29
350.26	1967.48
350.47	2096.30
350.68	1775.59
350.90	1731.35
351.11	2108.59
351.32	2075.82
351.53	1831.09
351.75	1737.50
351.96	1973.01
352.17	1926.52
352.38	1884.54
352.60	1881.26
352.81	1940.86
353.02	2150.37
353.23	1792.79
353.44	1846.24
353.66	1872.87
353.87	1907.27
354.08	1895.60
354.29	1831.70
354.51	1850.75
354.72	1907.68
354.93	1814.50
355.14	1731.35
355.35	1742.62
355.57	2037.11
355.78	1821.67
355.99	1893.14
356.20	1934.92
356.42	1915.26
356.63	1932.87
356.84	1848.91
357.05	2062.30
357.26	2220.41
357.48	1947.21
357.69	1889.46
357.90	1999.84
358.11	1897.24
358.32	1845.83
358.54	1875.94
358.75	1908.71
358.96	2032.61
359.17	1810.61
359.38	1801.19
359.60	1995.13
359.81	1892.73
360.02	1824.74
360.23	1785.01
360.44	1859.97
360.66	2077.87
360.87	1766.17
361.08	1767.19
361.29	1971.58
361.50	1935.33
361.72	1809.79
361.93	1848.09
362.14	1941.27
362.35	1738.93
362.56	1872.66
362.77	1730.33
362.99	1995.13
363.20	1935.33
363.41	1903.18
363.62	1711.49
363.83	1986.94
364.05	2027.28
364.26	1673.40
364.47	1797.09
364.68	2060.87
364.89	1823.51
365.10	1736.68
365.32	1800.78
365.53	1797.91
365.74	1867.95
365.95	1798.73
366.16	1716.61
366.37	1872.66
366.59	1875.32
366.80	1803.24
367.01	1659.06
367.22	2165.32
367.43	2288.20
367.64	1804.26
367.86	1797.09
368.07	1977.72
368.28	2065.99
368.49	1726.44
368.70	1842.76
368.91	1871.23
369.12	1892.94
369.34	1715.17
369.55	1734.83
369.76	1919.15
369.97	1842.35
370.18	1746.92
370.39	1754.29
370.60	1773.95
370.82	1799.35
371.03	1801.80
371.24	1769.45
371.45	2015.61
371.66	1995.75
371.87	1836.00
372.08	1795.86
372.30	1829.25
372.51	2059.85
372.72	1956.01
372.93	1821.87
373.14	2136.85
373.35	1835.18
373.56	1765.35
373.78	1842.97
373.99	2047.35
374.20	2262.19
374.41	1833.75
374.62	1825.35
374.83	2106.54
375.04	1873.89
375.25	1834.16
375.47	1783.78
375.68	1883.31
375.89	2013.36
376.10	1820.64
376.31	1918.74
376.52	1960.73
376.73	1954.17
376.94	1838.26
377.15	1778.87
377.37	1919.36
377.58	1884.54
377.79	1718.25
378.00	1742.82
378.21	1945.78
378.42	2004.35
378.63	1871.02
378.84	1892.94
379.05	2073.57
379.27	1938.20
379.48	1948.85
379.69	1781.12
379.90	2098.76
380.11	1714.97
380.32	1857.10
380.53	1948.44
380.74	2093.23
380.95	1938.81
381.16	1864.68
381.37	1826.99
381.59	2111.66
381.80	2076.64
382.01	1799.14
382.22	1743.03
382.43	1992.06
382.64	1954.79
382.85	1790.95
383.06	1884.75
383.27	2041.82
383.48	1909.73
383.69	1879.83
383.91	1810.20
384.12	2056.78
384.33	2095.48
384.54	1949.67
384.75	1844.81
384.96	2408.82
385.17	2150.37
385.38	1892.73
385.59	1881.67
385.80	2094.66
386.01	2198.70
386.22	1959.29
386.43	1923.66
386.64	2280.41
386.86	1983.46
387.07	1992.47
387.28	1786.85
387.49	1929.80
387.70	2153.23
387.91	1977.11
388.12	1855.25
388.33	2038.34
388.54	1900.72
388.75	1825.35
388.96	1882.90
389.17	1874.51
389.38	1909.94
389.59	1887.20
389.80	1845.83
390.01	1920.38
390.22	1871.23
390.43	1916.90
390.64	1734.83
390.86	1965.03
391.07	2086.47
391.28	1851.36
391.49	1880.85
391.70	1784.80
391.91	1850.13
392.12	1868.77
392.33	1856.69
392.54	1978.95
392.75	1943.32
392.96	1927.14
393.17	1806.31
393.38	2221.23
393.59	2061.89
393.80	1740.36
394.01	1857.71
394.22	1952.94
394.43	2217.34
394.64	1822.08
394.85	1968.92
395.06	1941.88
395.27	1985.92
395.48	1817.98
395.69	1745.28
395.90	1900.92
396.11	1920.59
396.32	1795.66
396.53	1937.79
396.74	1911.57
396.95	2059.03
397.16	1811.22
397.37	1696.33
397.58	2038.34
397.79	1944.34
398.00	1870.21
398.21	1818.80
398.42	1945.78
398.63	2182.52
398.84	1819.01
399.05	1797.30
399.26	2101.42
399.47	1953.35
399.68	1660.70
399.89	1747.74
400.10	1781.12
400.31	1876.35
400.52	1876.35
400.73	1854.03
400.94	1811.43
401.15	2013.97
401.36	1854.23
401.57	1897.24
401.78	2103.26
401.99	2068.65
402.20	1742.21
402.41	1962.57
402.62	2136.65
402.83	1923.66
403.04	1819.83
403.25	1997.59
403.46	1992.67
403.67	2179.86
403.88	1923.66
404.09	1913.62
404.30	1967.07
404.51	1924.07
404.72	1816.14
404.93	1973.01
405.14	1850.34
405.35	1955.40
405.56	1820.85
405.77	1792.18
405.98	1961.95
406.19	1913.42
406.40	1814.91
406.61	1849.32
406.82	1914.24
407.03	2314.61
407.24	1823.72
407.45	1936.56
407.66	2041.62
407.87	2077.25
408.08	1923.45
408.29	1918.13
408.49	1990.01
408.70	1926.73
408.91	1854.85
409.12	1909.32
409.33	1818.80
409.54	2114.53
409.75	1824.74
409.96	1832.93
410.17	2062.30
410.38	1906.25
410.59	1829.04
410.80	1958.68
411.01	1920.38
411.22	1924.68
411.43	1878.19
411.64	1776.41
411.85	1798.94
412.06	1835.18
412.27	1682.00
412.47	1807.13
412.68	1947.00
412.89	2005.17
413.10	1795.45
413.31	1764.33
413.52	2174.74
413.73	2196.24
413.94	1799.14
414.15	1963.59
414.36	1845.83
414.57	1818.39
414.78	1772.93
414.99	1991.04
415.19	2348.20
415.40	2385.88
415.61	2442.00
415.82	2349.63
416.03	2380.35
416.24	2251.33
416.45	1986.32
416.66	1900.92
416.87	1810.61
417.08	2042.64
417.29	1826.79
417.50	1954.99
417.70	2089.95
417.91	2088.93
418.12	1985.71
418.33	2011.72
418.54	2209.55
418.75	2324.44
418.96	2371.14
419.17	2467.60
419.38	2880.26
419.59	2883.74
419.79	2710.69
420.00	2576.75
420.21	2809.40
420.42	2275.09
420.63	2024.62
420.84	1999.84
421.05	1974.45
421.26	1958.68
421.47	1770.67
421.67	2083.60
421.88	1873.07
422.09	1847.88
422.30	2055.34
422.51	1926.52
422.72	2209.14
422.93	2106.13
423.14	1897.44
423.35	1752.65
423.55	1754.70
423.76	1832.52
423.97	1843.17
424.18	1744.87
424.39	1906.45
424.60	2098.14
424.81	1884.75
425.02	2055.96
425.22	2180.68
425.43	2202.18
425.64	2394.69
425.85	2332.02
426.06	2644.34
426.27	2473.33
426.48	2358.44
426.68	2307.45
426.89	2417.22
427.10	2506.92
427.31	2108.38
427.52	1968.10
427.73	2138.49
427.94	2072.34
428.14	1982.23
428.35	1873.89
428.56	2145.86
428.77	2096.51
428.98	1936.35
429.19	1957.65
429.40	2048.17
429.60	2088.11
429.81	2152.42
430.02	2079.10
430.23	2026.67
430.44	2099.17
430.65	1850.54
430.85	1908.91
431.06	1992.06
431.27	1760.43
431.48	1833.96
431.69	1870.21
431.90	1938.61
432.10	1979.98
432.31	1974.04
432.52	2011.72
432.73	2588.63
432.94	2543.78
433.15	2326.49
433.35	2180.27
433.56	2382.81
433.77	2217.54
433.98	2662.97
434.19	2858.76
434.40	3102.67
434.60	3095.50
434.81	2947.03
435.02	2564.26
435.23	2410.87
435.44	2233.92
435.64	1978.13
435.85	1896.83
436.06	1964.21
436.27	1944.55
436.48	1878.19
436.68	1986.73
436.89	2349.63
437.10	2260.96
437.31	2102.65
437.52	2147.70
437.73	2144.22
437.93	2121.49
438.14	2002.71
438.35	1782.35
438.56	1928.37
438.77	1944.96
438.97	1995.95
439.18	1887.82
439.39	2318.10
439.60	2065.17
439.80	2037.32
440.01	2168.39
440.22	2108.18
440.43	2116.37
440.64	1876.76
440.84	1964.21
441.05	1840.30
441.26	2281.64
441.47	1891.91
441.68	1957.24
441.88	2331.82
442.09	2429.71
442.30	2664.00
442.51	2606.86
442.71	2520.03
442.92	2442.41
443.13	2158.97
443.34	2012.54
443.55	2002.50
443.75	2108.38
443.96	1837.03
444.17	1794.02
444.38	2061.08
444.58	1831.50
444.79	1916.49
445.00	1854.44
445.21	1940.04
445.41	1906.86
445.62	1643.49
445.83	1940.04
446.04	1949.26
446.24	1779.48
446.45	1668.89
446.66	1820.44
446.87	1971.99
447.07	1890.07
447.28	2055.75
447.49	1948.03
447.70	2104.29
447.90	2132.55
448.11	1916.90
448.32	1947.41
448.53	2140.95
448.73	2105.72
448.94	1846.45
449.15	1955.40
449.36	1962.98
449.56	1948.64
449.77	1800.98
449.98	1754.29
450.19	1944.55
450.39	2017.25
450.60	2027.90
450.81	2000.46
451.02	2084.63
451.22	2224.91
451.43	1889.25
451.64	1896.21
451.84	1953.76
452.05	2134.60
452.26	1964.82
452.47	1894.17
452.67	1867.95
452.88	2109.20
453.09	1817.16
453.30	1772.52
453.50	2054.32
453.71	2277.34
453.92	2016.43
454.12	2162.04
454.33	2069.06
454.54	2117.80
454.75	1865.49
454.95	1850.54
455.16	1992.06
455.37	2076.64
455.57	1914.65
455.78	1865.70
455.99	1944.75
456.19	1950.69
456.40	1790.13
456.61	1868.36
456.82	1961.34
457.02	2118.62
457.23	2077.87
457.44	2240.89
457.64	2117.19
457.85	2199.93
458.06	2030.36
458.26	2187.44
458.47	2059.23
458.68	2205.05
458.89	1975.47
459.09	2119.03
459.30	2309.08
459.51	2036.09
459.71	1806.10
459.92	1884.13
460.13	2188.25
460.33	2462.48
460.54	2083.81
460.75	2109.20
460.95	2078.48
461.16	2100.19
461.37	1917.31
461.57	1948.03
461.78	1985.30
461.99	1850.54
462.19	2098.55
462.40	1850.75
462.61	2396.74
462.81	2096.30
463.02	1802.42
463.23	1825.35
463.43	2052.47
463.64	1919.97
463.85	2744.89
464.05	1811.02
464.26	2337.96
464.47	2102.24
464.67	2022.57
464.88	1930.82
465.09	1997.18
465.29	2153.44
465.50	2192.56
465.71	2076.44
465.91	2035.89
466.12	1999.64
466.33	1946.80
466.53	1894.58
466.74	2171.26
466.94	1970.35
467.15	1895.80
467.36	2027.08
467.56	1848.29
467.77	1951.92
467.98	1891.71
468.18	1802.83
468.39	1866.93
468.60	2201.77
468.80	1864.06
469.01	1811.22
469.21	2003.32
469.42	2068.45
469.63	1898.67
469.83	1842.15
470.04	2076.44
470.25	2171.46
470.45	1931.03
470.66	1860.58
470.86	1984.89
471.07	1915.26
471.28	1935.54
471.48	2012.33
471.69	2000.66
471.90	2571.22
472.10	2084.63
472.31	2132.55
472.51	2176.99
472.72	2245.60
472.93	2185.59
473.13	2345.74
473.34	2355.98
473.54	2311.95
473.75	2135.62
473.96	2177.81
474.16	2031.58
474.37	2091.80
474.57	1954.38
474.78	1887.20
474.99	2035.68
475.19	2003.53
475.40	1830.27
475.60	1892.53
475.81	2368.07
476.02	2182.11
476.22	2214.26
476.43	2312.16
476.63	2118.21
476.84	2180.06
477.05	1798.32
477.25	1872.25
477.46	2369.91
477.66	2019.91
477.87	1792.38
478.08	1869.39
478.28	2075.21
478.49	1920.18
478.69	1809.18
478.90	1855.25
479.10	2002.91
479.31	2139.31
479.52	1900.92
479.72	2278.57
479.93	2625.29
480.13	2629.80
480.34	2645.16
480.54	2742.84
480.75	2407.80
480.96	2389.77
481.16	2015.61
481.37	2120.67
481.57	2202.18
481.78	2105.31
481.98	2179.86
482.19	2042.23
482.40	2241.30
482.60	2048.38
482.81	1960.93
483.01	1830.68
483.22	2034.86
483.42	2038.96
483.63	1933.90
483.83	1959.50
484.04	2025.03
484.24	2235.97
484.45	2172.08
484.66	1991.24
484.86	2184.16
485.07	1933.28
485.27	1938.61
485.48	1857.51
485.68	2134.60
485.89	1910.75
486.09	1974.24
486.30	1890.68
486.50	2014.59
486.71	1952.94
486.91	1936.35
487.12	2379.74
487.33	2955.63
487.53	3159.61
487.74	2973.45
487.94	2940.06
488.15	2634.51
488.35	2412.71
488.56	2139.92
488.76	2099.58
488.97	2112.27
489.17	2186.82
489.38	2022.37
489.58	2015.82
489.79	2142.18
489.99	2074.59
490.20	1930.01
490.40	2006.80
490.61	2014.38
490.81	1914.24
491.02	1899.29
491.22	1951.92
491.43	2047.97
491.63	1941.68
491.84	1987.55
492.04	1754.70
492.25	2004.14
492.45	1947.82
492.66	1935.13
492.86	1849.93
493.07	2019.50
493.27	2298.23
493.48	1823.51
493.68	1904.61
493.89	1950.69
494.09	2051.25
494.30	1860.99
494.50	2079.71
494.71	2029.95
494.91	1781.53
495.12	1839.90
495.32	1948.44
495.53	1973.83
495.73	1858.33
495.94	2057.80
496.14	1961.75
496.35	2457.56
496.55	2147.91
496.76	2006.60
496.96	1990.63
497.17	1994.11
497.37	2050.02
497.58	1892.32
497.78	1814.50
497.98	1923.86
498.19	1928.98
498.39	1928.78
498.60	1959.70
498.80	1728.49
499.01	2045.92
499.21	1810.61
499.42	1888.02
499.62	1893.35
499.83	2230.44
500.03	1825.76
500.24	2085.24
500.44	2291.47
500.64	2276.73
500.85	2096.51
501.05	2167.98
501.26	1891.71
501.46	2226.35
501.67	1898.88
501.87	1850.34
502.08	1894.37
502.28	1926.73
502.48	1977.31
502.69	1998.61
502.89	1772.52
503.10	1863.65
503.30	1910.96
503.51	1908.50
503.71	1817.37
503.92	2050.84
504.12	1923.25
504.32	1893.76
504.53	2041.82
504.73	2074.18
504.94	2045.72
505.14	2084.01
505.35	2117.60
505.55	2130.71
505.75	2064.15
505.96	2190.51
506.16	2399.40
506.37	2006.60
506.57	1881.88
506.78	1994.72
506.98	2132.55
507.18	1822.28
507.39	1824.33
507.59	1943.73
507.80	1895.19
508.00	1959.70
508.20	2068.65
508.41	1942.29
508.61	2134.60
508.82	2083.19
509.02	2013.56
509.22	1813.07
509.43	1837.64
509.63	1886.38
509.84	1881.67
510.04	1772.52
510.24	2151.60
510.45	2033.63
510.65	1799.75
510.86	1907.68
511.06	1806.31
511.26	2042.03
511.47	1963.39
511.67	1838.67
511.88	1992.06
512.08	2058.82
512.28	1784.60
512.49	1995.54
512.69	1948.64
512.90	1980.59
513.10	1843.79
513.30	1925.30
513.51	2039.98
513.71	2205.66
513.91	2047.15
514.12	2071.11
514.32	2150.98
514.53	1984.69
514.73	2024.01
514.93	1934.92
515.14	1992.06
515.34	2157.54
515.54	1958.88
515.75	1992.88
515.95	2088.11
516.15	2137.87
516.36	1983.25
516.56	2003.53
516.77	1732.38
516.97	2001.48
517.17	1901.13
517.38	1960.11
517.58	2152.01
517.78	1915.26
517.99	1972.81
518.19	1961.54
518.39	2137.67
518.60	1962.57
518.80	1853.82
519.00	2011.72
519.21	1932.26
519.41	2175.56
519.61	1861.81
519.82	1972.81
520.02	1958.06
520.22	1928.16
520.43	1884.75
520.63	1892.94
520.83	1831.29
521.04	1754.90
521.24	1951.30
521.44	1872.87
521.65	1841.33
521.85	2001.89
522.05	1839.28
522.26	1857.30
522.46	2159.99
522.66	2046.74
522.87	1852.18
523.07	2028.92
523.27	1867.34
523.48	2117.39
523.68	1937.99
523.88	1889.46
524.09	2083.81
524.29	1959.91
524.49	1758.18
524.70	2005.99
524.90	2127.63
525.10	2035.89
525.31	1789.52
525.51	1811.63
525.71	2012.54
525.91	2022.16
526.12	1846.04
526.32	1784.19
526.52	1900.72
526.73	1866.31
526.93	1935.33
527.13	1776.82
527.34	1913.83
527.54	1936.97
527.74	1858.53
527.94	1794.23
528.15	1821.87
528.35	1966.87
528.55	1963.59
528.76	1938.61
528.96	1736.27
529.16	2052.06
529.36	2002.71
529.57	1793.82
529.77	2079.51
529.97	1812.86
530.18	1977.52
530.38	1872.87
530.58	2009.06
530.78	1965.64
530.99	1865.90
531.19	2000.66
531.39	1862.83
531.60	1952.33
531.80	1861.81
532.00	1997.18
532.20	1977.93
532.41	1845.02
532.61	1866.52
532.81	1875.12
533.01	1907.89
533.22	1995.54
533.42	2045.72
533.62	1736.47
533.82	2114.53
534.03	1920.79
534.23	1951.92
534.43	1811.02
534.63	1899.08
534.84	2001.28
535.04	1936.56
535.24	1936.15
535.44	2309.29
535.65	1909.12
535.85	1877.58
536.05	1875.53
536.25	1948.64
536.46	1850.34
536.66	2095.28
536.86	1937.99
537.06	2044.28
537.27	2105.31
537.47	1990.01
537.67	1879.83
537.87	2169.21
538.08	1928.16
538.28	1819.01
538.48	1829.25
538.68	1902.36
538.88	2009.88
539.09	1772.11
539.29	1880.44
539.49	2043.67
539.69	1995.13
539.90	1955.81
540.10	1834.98
540.30	2112.89
540.50	1872.05
540.70	1789.72
540.91	1902.36
541.11	2033.63
541.31	2137.06
541.51	1978.95
541.72	1985.10
541.92	2017.04
542.12	1868.98
542.32	1895.40
542.52	1870.21
542.73	1903.38
542.93	2023.19
543.13	1874.71
543.33	1987.35
543.53	2037.11
543.74	2043.26
543.94	1881.47
544.14	2028.51
544.34	2131.73
544.54	1990.83
544.75	2012.33
544.95	2131.53
545.15	2086.88
545.35	2191.53
545.55	2025.44
545.75	1871.02
545.96	2275.91
546.16	1888.43
546.36	1920.59
546.56	1942.70
546.76	2083.60
546.97	2179.45
547.17	1919.36
547.37	1974.65
547.57	1907.27
547.77	2056.37
547.97	1942.50
548.18	1959.09
548.38	1938.81
548.58	2150.57
548.78	1871.43
548.98	1987.14
549.18	2121.90
549.39	2227.17
549.59	2043.26
549.79	1971.17
549.99	2186.82
550.19	2091.59
550.39	2045.10
550.60	1934.92
550.80	1978.75
551.00	2047.15
551.20	1889.46
551.40	1895.19
551.60	2045.72
551.80	2000.05
552.01	2024.01
552.21	1934.10
552.41	2000.66
552.61	2184.98
552.81	1956.01
553.01	1843.58
553.21	2010.29
553.42	1869.39
553.62	1869.39
553.82	1836.00
554.02	2129.89
554.22	2050.43
554.42	1854.64
554.62	1976.49
554.83	2188.05
555.03	2216.11
555.23	2022.98
555.43	2260.96
555.63	2118.01
555.83	2061.89
556.03	1998.00
556.23	1874.10
556.44	2017.86
556.64	2157.54
556.84	1737.70
557.04	1933.69
557.24	2012.95
557.44	2003.73
557.64	1947.41
557.84	1835.18
558.04	1931.85
558.25	2058.62
558.45	1848.09
558.65	1931.03
558.85	1945.37
559.05	1731.76
559.25	1891.09
559.45	1988.99
559.65	2240.89
559.85	2658.26
560.05	2048.17
560.26	2087.90
560.46	2086.06
560.66	1957.45
560.86	1946.59
561.06	1872.87
561.26	2166.34
561.46	2029.13
561.66	1921.20
561.86	2025.44
562.06	1885.77
562.26	1927.34
562.47	1948.85
562.67	1815.11
562.87	2032.61
563.07	1775.38
563.27	1924.89
563.47	1942.91
563.67	1894.58
563.87	2036.50
564.07	1877.17
564.27	1955.81
564.47	2008.03
564.67	2062.51
564.87	1879.83
565.08	1988.58
565.28	1944.75
565.48	2062.10
565.68	1990.22
565.88	1993.90
566.08	2198.08
566.28	1958.68
566.48	1805.08
566.68	1895.40
566.88	1937.17
567.08	2062.30
567.28	1909.32
567.48	1937.99
567.68	2012.13
567.88	1808.15
568.08	1953.56
568.28	2059.44
568.48	1945.37
568.68	2096.30
568.89	1958.06
569.09	1797.09
569.29	2048.79
569.49	2060.26
569.69	1828.22
569.89	1851.98
570.09	1758.18
570.29	1869.18
570.49	1791.97
570.69	1825.15
570.89	2042.85
571.09	2214.06
571.29	1785.62
571.49	2053.70
571.69	1979.57
571.89	2013.15
572.09	1858.94
572.29	1887.82
572.49	2044.69
572.69	2025.24
572.89	1927.96
573.09	1692.65
573.29	1975.06
573.49	1996.16
573.69	1930.01
573.89	2040.80
574.09	1893.14
574.29	2119.24
574.49	1889.66
574.69	1863.65
574.89	1824.13
575.09	1832.93
575.29	1861.40
575.49	1920.79
575.69	2012.13
575.89	1825.97
576.09	1944.96
576.29	1958.47
576.49	1823.92
576.69	1954.38
576.89	1891.30
577.09	1920.38
577.29	1768.42
577.49	2178.22
577.69	1874.51
577.89	2010.90
578.09	1974.04
578.29	1767.19
578.49	1903.38
578.69	1843.79
578.89	2062.71
579.09	1960.93
579.29	1832.73
579.49	2045.51
579.69	1899.70
579.89	2145.25
580.09	1754.70
580.29	1758.59
580.49	1878.19
580.69	1833.14
580.89	1899.49
581.09	1902.56
581.29	1903.38
581.49	1948.85
581.69	1821.05
581.89	1851.57
582.09	1849.52
582.28	1842.76
582.48	2040.39
582.68	2093.02
582.88	2120.67
583.08	1931.44
583.28	1899.08
583.48	1942.70
583.68	1869.59
583.88	1964.21
584.08	1952.53
584.28	1925.09
584.48	2205.25
584.68	2026.26
584.88	1902.15
585.08	2052.68
585.28	2127.84
585.48	2127.63
585.68	1995.13
585.87	2051.25
586.07	2061.08
586.27	1984.28
586.47	2029.74
586.67	1967.07
586.87	1961.75
587.07	1925.30
587.27	1825.35
587.47	1978.13
587.67	2227.17
587.87	2353.32
588.07	2072.13
588.27	2004.96
588.46	2158.56
588.66	2191.94
588.86	2028.51
589.06	2069.68
589.26	2120.67
589.46	2072.75
589.66	1881.06
589.86	1890.07
590.06	1957.04
590.26	2085.86
590.46	2001.07
590.66	2099.99
590.85	2003.32
591.05	2126.82
591.25	1925.30
591.45	1992.06
591.65	2088.72
591.85	1994.93
592.05	1964.00
592.25	2074.18
592.45	2138.90
592.64	1965.64
592.84	1959.91
593.04	1878.40
593.24	2345.95
593.44	1920.38
593.64	2007.42
593.84	2027.69
594.04	1944.55
594.24	2177.81
594.43	1901.95
594.63	1946.18
594.83	2074.59
595.03	2043.87
595.23	1868.36
595.43	1798.53
595.63	1864.47
595.83	2069.68
596.02	1708.83
596.22	1956.42
596.42	1994.11
596.62	1948.03
596.82	1889.25
597.02	2000.05
597.22	2131.73
597.41	1964.41
597.61	1876.96
597.81	2009.06
598.01	2063.12
598.21	1922.63
598.41	1889.87
598.61	1870.41
598.80	1967.48
599.00	2029.95
599.20	2072.75
599.40	1922.02
599.60	1915.87
599.80	2096.71
599.99	2127.02
600.19	1927.96
600.39	1974.65
600.59	2049.20
600.79	2009.06
600.99	2001.68
601.19	2189.48
601.38	2230.44
601.58	2005.99
601.78	1775.18
601.98	2079.51
602.18	2189.69
602.37	2403.70
602.57	2261.16
602.77	2473.13
602.97	2404.52
603.17	2465.75
603.37	2330.18
603.56	2416.81
603.76	2367.25
603.96	2269.97
604.16	2283.08
604.36	2327.11
604.56	2243.96
604.75	2010.70
604.95	2099.17
605.15	2225.73
605.35	2214.06
605.55	2012.74
605.74	1931.23
605.94	2155.69
606.14	2052.88
606.34	2013.56
606.54	1975.68
606.73	1923.25
606.93	2061.28
607.13	1875.94
607.33	1960.32
607.53	2149.34
607.72	2098.14
607.92	2022.57
608.12	2056.16
608.32	1921.81
608.51	2031.59
608.71	1862.83
608.91	2011.11
609.11	2020.53
609.31	1941.06
609.50	1978.75
609.70	2138.69
609.90	2113.71
610.10	2123.33
610.29	1952.12
610.49	1920.59
610.69	2104.49
610.89	2022.98
611.09	2042.85
611.28	2091.18
611.48	2113.71
611.68	1964.21
611.88	1905.63
612.07	1857.51
612.27	2069.47
612.47	1874.30
612.67	1959.29
612.86	2058.21
613.06	1966.66
613.26	1770.06
613.46	1879.01
613.65	1970.76
613.85	2320.14
614.05	2064.56
614.25	2023.80
614.44	1915.26
614.64	1954.38
614.84	1902.77
615.04	1854.44
615.23	1888.84
615.43	2039.37
615.63	2013.36
615.83	1853.62
616.02	1786.44
616.22	2070.70
616.42	1877.17
616.62	1876.96
616.81	1988.99
617.01	2037.73
617.21	2002.91
617.41	1864.68
617.60	1962.36
617.80	2042.85
618.00	2054.32
618.19	1993.90
618.39	1979.77
618.59	1998.20
618.79	1943.11
618.98	1753.27
619.18	1906.66
619.38	2199.93
619.57	1913.83
619.77	1925.09
619.97	1890.89
620.17	1850.13
620.36	1830.47
620.56	2050.02
620.76	1834.16
620.95	1806.10
621.15	1902.15
621.35	1841.94
621.54	1893.35
621.74	1932.87
621.94	1859.97
622.14	1825.35
622.33	1797.91
622.53	1914.44
622.73	1887.41
622.92	1774.36
623.12	1936.35
623.32	2184.57
623.51	2043.67
623.71	1795.04
623.91	2057.80
624.10	1843.38
624.30	1993.70
624.50	1826.17
624.69	1828.63
624.89	2407.39
625.09	1928.57
625.29	1696.95
625.48	1819.83
625.68	1966.66
625.88	2052.88
626.07	1948.64
626.27	1802.62
626.47	1891.50
626.66	1746.51
626.86	1884.54
627.06	1872.66
627.25	1942.70
627.45	2138.49
627.64	1897.85
627.84	2106.75
628.04	1849.52
628.23	2217.95
628.43	1818.19
628.63	1871.23
628.82	1885.36
629.02	2208.32
629.22	2038.14
629.41	2095.28
629.61	1979.57
629.81	2235.15
630.00	1886.18
630.20	1854.44
630.40	1995.13
630.59	2055.75
630.79	1960.93
630.98	1902.36
631.18	1961.34
631.38	1941.06
631.57	2068.24
631.77	1757.77
631.97	1967.69
632.16	1991.65
632.36	1947.82
632.56	1926.32
632.75	1957.04
632.95	2063.94
633.14	1819.62
633.34	2053.09
633.54	1744.05
633.73	1882.90
633.93	1876.96
634.12	1762.89
634.32	2277.34
634.52	1914.03
634.71	1827.81
634.91	1960.11
635.11	1809.79
635.30	1872.46
635.50	1956.63
635.69	1816.55
635.89	2195.83
636.09	2059.44
636.28	1840.71
636.48	1875.53
636.67	2046.94
636.87	2037.32
637.07	2039.57
637.26	1890.68
637.46	2009.88
637.65	2098.35
637.85	2008.65
638.04	1885.77
638.24	1934.72
638.44	2037.52
638.63	1931.85
638.83	1929.60
639.02	2025.65
639.22	2048.17
639.42	1932.26
639.61	1942.09
639.81	1972.19
640.00	1927.55
640.20	2036.70
640.39	2019.91
640.59	2299.46
640.79	2187.44
640.98	2182.11
641.18	2155.28
641.37	2186.41
641.57	2081.35
641.76	2073.98
641.96	1906.66
642.15	2061.89
642.35	1983.46
642.55	2037.32
642.74	1892.94
642.94	2097.12
643.13	2155.08
643.33	1942.91
643.52	1905.02
643.72	1919.56
643.91	1978.34
644.11	1898.88
644.31	1856.69
644.50	1891.50
644.70	2133.78
644.89	1923.86
645.09	1992.67
645.28	1963.80
645.48	2030.77
645.67	1873.69
645.87	1777.64
646.06	1926.93
646.26	2000.66
646.45	1713.95
646.65	1725.00
646.84	2179.24
647.04	1906.86
647.24	1803.24
647.43	1961.34
647.63	1986.32
647.82	2140.95
648.02	1828.02
648.21	1903.59
648.41	2137.87
648.60	1905.63
648.80	2039.78
648.99	1975.68
649.19	1887.82
649.38	1777.64
649.58	1962.16
649.77	1973.22
649.97	2104.29
650.16	2007.62
650.36	1748.56
650.55	2052.88
650.75	1977.72
650.94	2169.00
651.14	1950.90
651.33	1970.15
651.53	2169.00
651.72	1873.28
651.92	1927.75
652.11	1764.33
652.31	2020.73
652.50	2001.48
652.70	2001.28
652.89	1828.02
653.09	2167.77
653.28	1956.42
653.48	1768.42
653.67	1781.94
653.87	2363.36
654.06	1974.04
654.25	2101.22
654.45	1879.63
654.64	1914.24
654.84	1950.08
655.03	1740.16
655.23	2040.80
655.42	2073.36
655.62	2173.92
655.81	1968.92
656.01	1834.98
656.20	2062.92
656.40	2157.33
656.59	1952.33
656.79	2085.86
656.98	1989.40
657.17	2079.71
657.37	1970.35
657.56	1900.52
657.76	2007.21
657.95	2093.64
658.15	1657.63
658.34	1954.58
658.54	1960.73
658.73	1838.05
658.92	1921.40
659.12	1955.40
659.31	2047.35
659.51	1830.68
659.70	2036.70
659.90	1931.85
660.09	2092.41
660.29	1986.32
660.48	1858.74
660.67	2095.07
660.87	1906.04
661.06	2015.00
661.26	2036.09
661.45	2013.77
661.65	2013.97
661.84	1902.15
662.03	1864.88
662.23	1916.49
662.42	2217.75
662.62	1826.79
662.81	1845.83
663.00	1903.38
663.20	2033.22
663.39	2136.24
663.59	2131.73
663.78	2037.32
663.97	2050.22
664.17	2183.95
664.36	1899.90
664.56	1941.47
664.75	2132.55
664.94	2105.93
665.14	2025.24
665.33	1988.37
665.53	2052.88
665.72	2009.88
665.91	2108.38
666.11	1977.52
666.30	1996.97
666.50	1979.36
666.69	2071.52
666.88	2020.12
667.08	2148.32
667.27	2105.72
667.47	2155.08
667.66	2077.87
667.85	2229.21
668.05	2102.04
668.24	1997.38
668.43	2184.77
668.63	2008.24
668.82	2174.94
669.02	2097.12
669.21	1993.29
669.40	1857.51
669.60	2219.79
669.79	1795.04
669.98	2387.11
670.18	1845.63
670.37	1817.98
670.56	1874.30
670.76	1983.66
670.95	1920.99
671.15	2069.06
671.34	1984.28
671.53	1943.73
671.73	1900.11
671.92	1857.51
672.11	1820.03
672.31	1893.14
672.50	1943.11
672.69	1779.48
672.89	1693.67
673.08	1885.16
673.27	2032.81
673.47	1974.04
673.66	1970.35
673.85	1841.74
674.05	2031.58
674.24	2187.44
674.43	2156.72
674.63	2437.29
674.82	2750.01
675.01	2219.38
675.21	2442.41
675.40	2256.25
675.59	2203.00
675.79	2408.62
675.98	2117.60
676.17	2229.01
676.37	2171.46
676.56	2052.06
676.75	2064.97
676.95	1995.95
677.14	1948.23
677.33	2081.15
677.52	1818.60
677.72	1883.72
677.91	1978.75
678.10	1780.09
678.30	1814.50
678.49	1795.86
678.68	2193.99
678.88	1743.23
679.07	2039.37
679.26	1880.24
679.45	2164.09
679.65	2098.35
679.84	1732.38
680.03	1759.82
680.23	1903.79
680.42	2252.97
680.61	1796.89
680.81	1840.71
681.00	1940.86
681.19	1971.58
681.38	2000.05
681.58	1986.53
681.77	1889.87
681.96	2076.23
682.15	1879.22
682.35	1965.03
682.54	1960.52
682.73	1824.74
682.93	1839.49
683.12	1854.64
683.31	2029.33
683.50	2293.32
683.70	1844.20
683.89	1927.96
684.08	1824.54
684.27	2082.78
684.47	1765.96
684.66	1952.53
684.85	2210.17
685.04	2105.31
685.24	1864.47
685.43	1945.57
685.62	1756.75
685.81	2010.49
686.01	2119.44
686.20	2086.88
686.39	2110.43
686.58	2584.33
686.78	2382.40
686.97	2334.27
687.16	2350.45
687.35	2236.38
687.55	2128.04
687.74	2118.01
687.93	1997.59
688.12	2082.58
688.32	2066.61
688.51	1900.31
688.70	2086.47
688.89	1887.82
689.08	1808.97
689.28	1828.22
689.47	1979.36
689.66	1973.22
689.85	2005.37
690.05	1862.42
690.24	1881.47
690.43	1974.86
690.62	1984.07
690.81	1850.54
691.01	1952.53
691.20	1898.88
691.39	1838.26
691.58	1983.05
691.77	2188.05
691.97	1969.94
692.16	1954.38
692.35	1917.10
692.54	1900.11
692.73	2066.81
692.93	2025.03
693.12	2088.52
693.31	2156.72
693.50	2109.82
693.69	2127.43
693.89	1994.11
694.08	2210.17
694.27	2192.96
694.46	1928.16
694.65	2001.07
694.85	2050.22
695.04	2121.29
695.23	2303.96
695.42	3732.01
695.61	5056.84
695.80	5905.73
696.00	6731.47
696.19	7193.70
696.38	6388.84
696.57	5251.20
696.76	5077.53
696.95	4638.24
697.15	4448.39
697.34	4170.69
697.53	3647.23
697.72	3433.21
697.91	3097.14
698.10	3009.90
698.30	2481.52
698.49	2261.57
698.68	2181.50
698.87	2021.96
699.06	1893.76
699.25	1959.50
699.45	2089.95
699.64	1990.42
699.83	2031.99
700.02	1827.20
700.21	2017.45
700.40	1883.31
700.59	1882.70
700.79	1888.64
700.98	1994.52
701.17	1877.37
701.36	1869.80
701.55	1853.00
701.74	2107.36
701.93	1966.87
702.12	2132.75
702.32	2120.47
702.51	2383.84
702.70	2393.46
702.89	2190.51
703.08	2076.23
703.27	2280.21
703.46	2162.45
703.65	2056.16
703.85	1927.34
704.04	1985.92
704.23	2164.29
704.42	1899.70
704.61	1919.36
704.80	2169.62
704.99	1862.01
705.18	2006.80
705.37	2102.65
705.57	3099.60
705.76	4625.54
705.95	5099.65
706.14	6086.56
706.33	6608.39
706.52	6455.81
706.71	5013.84
706.90	4561.65
707.09	4428.12
707.28	4155.12
707.47	3740.82
707.67	3610.77
707.86	3282.28
708.05	3244.80
708.24	2794.66
708.43	2560.98
708.62	2292.09
708.81	2085.45
709.00	1925.71
709.19	1932.46
709.38	2084.83
709.57	1855.46
709.76	1985.51
709.96	1917.51
710.15	2175.76
710.34	1965.23
710.53	2068.04
710.72	1957.04
710.91	2106.13
711.10	2018.27
711.29	2039.78
711.48	1887.82
711.67	1820.44
711.86	2013.36
712.05	1838.87
712.24	1875.53
712.43	2028.92
712.62	2084.63
712.81	1962.57
713.00	2052.06
713.19	1826.58
713.39	2023.19
713.58	1954.99
713.77	2223.48
713.96	2355.78
714.15	2341.24
714.34	2348.00
714.53	2209.96
714.72	2479.27
714.91	2106.75
715.10	2200.95
715.29	2049.81
715.48	2530.67
715.67	2229.62
715.86	2077.05
716.05	2032.81
716.24	1993.70
716.43	1953.15
716.62	1831.09
716.81	1799.55
717.00	1913.01
717.19	2157.13
717.38	1950.08
717.57	1892.12
717.76	1745.28
717.95	2047.56
718.14	1923.86
718.33	1862.42
718.52	1696.33
718.71	1755.93
718.90	1776.41
719.09	1873.48
719.28	1941.06
719.47	2065.17
719.66	2019.91
719.85	2037.52
720.04	1987.76
720.23	2028.10
720.42	1914.24
720.61	2031.79
720.80	1817.57
720.99	2025.44
721.18	1910.75
721.37	1849.52
721.56	1902.97
721.75	2044.69
721.94	1841.94
722.13	1903.18
722.32	1912.60
722.51	2042.44
722.70	1940.86
722.89	1993.29
723.08	1953.76
723.27	2078.89
723.46	1938.81
723.65	1916.49
723.84	1858.74
724.03	2104.70
724.22	1801.39
724.41	1947.41
724.60	1867.13
724.79	2056.57
724.98	1974.65
725.16	1904.00
725.35	2037.11
725.54	1832.93
725.73	1946.39
725.92	1975.47
726.11	2181.50
726.30	2669.53
726.49	2673.42
726.68	2950.10
726.87	3141.17
727.06	3192.58
727.25	2672.60
727.44	2717.86
727.63	2583.10
727.82	2498.52
728.01	2475.18
728.20	2440.36
728.38	2513.88
728.57	2248.06
728.76	2220.82
728.95	2238.02
729.14	1947.41
729.33	1916.90
729.52	1759.82
729.71	1881.88
729.90	1879.83
730.09	1958.47
730.28	1996.56
730.47	1933.69
730.66	2202.59
730.84	2099.58
731.03	2058.00
731.22	2078.48
731.41	2042.03
731.60	2072.54
731.79	1840.92
731.98	1895.80
732.17	2076.64
732.36	2052.68
732.55	1907.89
732.73	1873.48
732.92	2122.72
733.11	2024.01
733.30	1885.16
733.49	1851.57
733.68	2042.64
733.87	2031.79
734.06	1910.96
734.25	1949.26
734.43	2042.03
734.62	2125.38
734.81	2126.82
735.00	2102.44
735.19	2071.73
735.38	2146.89
735.57	1919.15
735.76	2110.23
735.94	2174.53
736.13	2516.75
736.32	2386.09
736.51	2420.29
736.70	2727.28
736.89	2826.61
737.08	3099.40
737.27	4880.31
737.45	7276.43
737.64	8378.04
737.83	9759.80
738.02	10476.38
738.21	9785.40
738.40	7758.93
738.59	6959.20
738.77	6475.68
738.96	5988.06
739.15	5624.95
739.34	5277.82
739.53	4742.28
739.72	4528.47
739.90	4049.86
740.09	3327.95
740.28	3044.10
740.47	2774.79
740.66	2484.80
740.85	2152.82
741.03	2142.58
741.22	1974.86
741.41	2052.68
741.60	1889.46
741.79	2030.77
741.98	2199.11
742.16	2260.55
742.35	2071.52
742.54	2030.36
742.73	2339.60
742.92	2079.30
743.10	1997.18
743.29	2063.12
743.48	2430.53
743.67	2057.18
743.86	1907.89
744.05	1968.30
744.23	1959.29
744.42	1974.86
744.61	2000.25
744.80	1918.95
744.99	1986.94
745.17	1838.05
745.36	1871.64
745.55	2072.13
745.74	2067.42
745.93	1980.59
746.11	1998.00
746.30	1961.95
746.49	2196.24
746.68	1956.63
746.86	2040.60
747.05	2033.02
747.24	2144.22
747.43	2161.22
747.62	1925.91
747.80	2003.12
747.99	2235.15
748.18	2166.55
748.37	2121.70
748.56	2138.49
748.74	2251.33
748.93	2383.43
749.12	3764.37
749.31	8158.70
749.49	11964.64
749.68	14494.70
749.87	16865.64
750.06	17954.75
750.24	17043.81
750.43	16104.61
750.62	17700.18
750.81	18232.86
750.99	18939.61
751.18	18380.93
751.37	15412.60
751.56	12846.29
751.74	12380.18
751.93	10945.37
752.12	9138.24
752.31	7887.34
752.49	6794.55
752.68	6074.89
752.87	5090.64
753.06	4382.45
753.24	3799.39
753.43	3399.01
753.62	2788.72
753.81	2424.80
753.99	2489.10
754.18	2271.40
754.37	1998.20
754.55	2139.92
754.74	2324.44
754.93	1836.82
755.12	1958.88
755.30	1921.61
755.49	2142.79
755.68	2047.35
755.86	2046.74
756.05	1884.75
756.24	2184.57
756.43	1852.39
756.61	1874.51
756.80	2041.42
756.99	2164.91
757.17	2021.96
757.36	1874.92
757.55	1978.13
757.74	2068.45
757.92	2020.73
758.11	1867.13
758.30	1805.49
758.48	1989.81
758.67	1906.66
758.86	2044.49
759.04	1946.39
759.23	2033.02
759.42	2080.12
759.60	1986.32
759.79	2032.61
759.98	1982.23
760.16	1912.39
760.35	1919.15
760.54	1893.14
760.73	2056.37
760.91	1835.18
761.10	2014.79
761.29	2049.20
761.47	2029.54
761.66	2348.61
761.85	2075.00
762.03	2512.86
762.22	4726.92
762.41	12319.56
762.59	21081.38
762.78	25507.86
762.97	30738.78
763.15	32995.64
763.34	29861.84
763.52	21845.89
763.71	20089.75
763.90	18216.48
764.08	17159.73
764.27	15636.45
764.46	14213.31
764.64	12411.92
764.83	11114.53
765.02	9672.15
765.20	8188.60
765.39	6691.53
765.58	4960.79
765.76	4005.83
765.95	3283.71
766.13	2775.61
766.32	2414.15
766.51	2290.24
766.69	2747.55
766.88	2169.82
767.07	1931.85
767.25	1871.43
767.44	2155.49
767.62	2179.24
767.81	1957.65
768.00	2001.07
768.18	1991.85
768.37	1915.67
768.56	1812.45
768.74	1859.56
768.93	1832.32
769.11	2033.43
769.30	1941.47
769.49	1865.70
769.67	1909.94
769.86	1902.56
770.04	1933.08
770.23	1909.94
770.42	2118.62
770.60	1970.76
770.79	1868.16
770.97	2021.14
771.16	3013.59
771.35	4988.85
771.53	6797.00
771.72	7953.90
771.90	9296.14
772.09	9914.22
772.27	8744.42
772.46	6635.21
772.65	6560.67
772.83	5989.69
773.02	5726.74
773.20	5210.03
773.39	5031.24
773.58	4602.81
773.76	4049.45
773.95	3807.38
774.13	3497.32
774.32	3032.63
774.50	2619.35
774.69	2443.02
774.87	2242.12
775.06	2431.14
775.25	1982.43
775.43	1988.99
775.62	2051.86
775.80	2038.34
775.99	2027.90
776.17	1893.76
776.36	1981.61
776.54	2125.18
776.73	1913.21
776.92	1987.35
777.10	2119.85
777.29	1995.13
777.47	1860.58
777.66	1888.84
777.84	1977.93
778.03	1931.85
778.21	1866.52
778.40	1939.22
778.58	2002.09
778.77	2084.22
778.95	1800.16
779.14	1842.97
779.32	2163.88
779.51	2058.62
779.70	1891.30
779.88	1803.24
780.07	1874.71
780.25	2255.84
780.44	1892.12
780.62	2045.92
780.81	1997.18
780.99	1982.84
781.18	1862.22
781.36	1885.97
781.55	1935.74
781.73	2134.60
781.92	1800.16
782.10	1792.18
782.29	1998.00
782.47	2146.07
782.66	1946.59
782.84	1792.79
783.03	1837.03
783.21	2113.30
783.40	1888.23
783.58	1876.14
783.77	1906.66
783.95	1918.54
784.14	1849.73
784.32	1943.93
784.51	2076.23
784.69	1881.06
784.88	1814.71
785.06	1910.35
785.24	1795.86
785.43	2086.47
785.61	1996.16
785.80	1847.06
785.98	2016.43
786.17	1987.96
786.35	1853.62
786.54	1994.11
786.72	2065.99
786.91	2104.90
787.09	1927.55
787.28	1825.35
787.46	1966.05
787.65	2077.66
787.83	1834.98
788.01	1969.12
788.20	1862.83
788.38	2006.60
788.57	1944.75
788.75	1977.31
788.94	2222.87
789.12	2088.31
789.31	1993.49
789.49	2072.54
789.67	1970.76
789.86	2041.01
790.04	1862.22
790.23	1800.98
790.41	2276.73
790.60	1973.42
790.78	1946.39
790.96	1955.40
791.15	2096.10
791.33	1959.91
791.52	1962.57
791.70	1887.20
791.89	2003.12
792.07	2095.69
792.25	1984.89
792.44	1835.39
792.62	2104.08
792.81	1952.33
792.99	2008.03
793.17	1965.64
793.36	2045.92
793.54	2816.37
793.73	4298.89
793.91	6093.53
794.10	7306.13
794.28	8557.23
794.46	8835.76
794.65	8441.52
794.83	6710.58
795.01	6095.37
795.20	5972.90
795.38	5462.75
795.57	5178.70
795.75	4959.77
795.93	4495.29
796.12	4126.25
796.30	3912.85
796.49	3670.98
796.67	3184.59
796.85	3061.92
797.04	2768.65
797.22	2576.55
797.40	2233.11
797.59	2284.51
797.77	2217.34
797.96	2081.97
798.14	2061.49
798.32	2012.95
798.51	2174.53
798.69	2321.58
798.87	2065.58
799.06	2025.65
799.24	2013.36
799.42	2750.01
799.61	3774.82
799.79	4668.96
799.98	5552.45
800.16	6135.71
800.34	7812.18
800.53	9801.37
800.71	10446.89
800.89	12033.45
801.08	12436.90
801.26	12350.89
801.44	10275.48
801.63	8430.26
801.81	8180.61
801.99	7415.29
802.18	6870.12
802.36	6475.88
802.54	5956.52
802.73	5132.82
802.91	4724.66
803.09	4265.51
803.28	3863.29
803.46	3511.04
803.64	3263.23
803.83	2632.66
804.01	2373.80
804.19	2218.36
804.38	2368.07
804.56	2256.04
804.74	2122.92
804.92	2138.69
805.11	1979.36
805.29	2216.93
805.47	1997.79
805.66	1901.54
805.84	1910.75
806.02	2167.98
806.21	2005.37
806.39	2158.76
806.57	2199.93
806.76	2180.88
806.94	2057.39
807.12	2048.99
807.30	2077.87
807.49	2212.42
807.67	2205.87
807.85	2244.98
808.04	2233.31
808.22	2368.27
808.40	1957.86
808.58	1950.69
808.77	2140.33
808.95	2443.23
809.13	3064.58
809.31	5864.77
809.50	8888.18
809.68	10542.33
809.86	12073.39
810.05	13274.32
810.23	15150.67
810.41	22771.16
810.59	39301.75
810.78	49069.74
810.96	57028.56
811.14	61964.37
811.32	61235.49
811.51	49579.69
811.69	38994.76
811.87	38375.86
812.05	33413.63
812.24	31457.41
812.42	28613.20
812.60	25310.23
812.78	21614.47
812.97	18261.74
813.15	15944.26
813.33	13587.66
813.51	11380.56
813.70	8916.24
813.88	6949.99
814.06	5367.52
814.24	4192.81
814.42	3228.21
814.61	2932.08
814.79	2828.45
814.97	2261.57
815.15	2284.71
815.34	2271.81
815.52	2292.29
815.70	2012.13
815.88	2012.95
816.06	2002.91
816.25	2006.19
816.43	1917.51
816.61	2056.16
816.79	2211.19
816.98	1801.60
817.16	1892.12
817.34	1879.22
817.52	2002.50
817.70	2153.23
817.89	1907.68
818.07	1825.35
818.25	1920.79
818.43	1961.75
818.61	1898.47
818.80	1855.66
818.98	2142.18
819.16	1942.29
819.34	1834.37
819.52	2112.68
819.70	1850.54
819.89	1900.51
820.07	1780.71
820.25	1729.92
820.43	1970.35
820.61	2065.58
820.80	1916.49
820.98	1784.19
821.16	1743.23
821.34	1788.90
821.52	1864.06
821.70	1935.74
821.89	1954.58
822.07	1915.06
822.25	1898.67
822.43	1823.72
822.61	2126.61
822.79	1957.04
822.98	1883.11
823.16	1703.71
823.34	1993.70
823.52	2069.88
823.70	2000.66
823.88	1738.32
824.06	1995.95
824.25	1925.30
824.43	1980.80
824.61	1816.55
824.79	1893.55
824.97	2007.62
825.15	2160.40
825.33	2959.72
825.52	4162.50
825.70	4841.60
825.88	5355.64
826.06	5923.34
826.24	6051.34
826.42	5380.42
826.60	4410.30
826.78	4452.69
826.97	4020.37
827.15	4070.75
827.33	3579.64
827.51	3611.39
827.69	3254.63
827.87	3119.47
828.05	2928.39
828.23	2627.13
828.41	2731.58
828.60	2590.68
828.78	2169.21
828.96	2230.65
829.14	2055.14
829.32	2018.68
829.50	1925.91
829.68	1929.39
829.86	1931.64
830.04	2047.56
830.22	1962.77
830.41	1819.83
830.59	1906.45
830.77	2020.73
830.95	1859.56
831.13	1845.63
831.31	1827.20
831.49	2028.51
831.67	2019.50
831.85	2004.55
832.03	1882.49
832.21	1999.43
832.39	1792.59
832.57	1786.24
832.76	2008.65
832.94	1885.77
833.12	1706.78
833.30	1888.23
833.48	2073.36
833.66	1973.42
833.84	1819.83
834.02	1882.90
834.20	2033.02
834.38	2017.45
834.56	1706.57
834.74	1752.65
834.92	1759.21
835.10	2150.16
835.28	1932.05
835.46	1895.40
835.64	1907.68
835.82	1845.83
836.01	2100.81
836.19	2015.61
836.37	1859.15
836.55	1836.00
836.73	1825.35
836.91	1779.89
837.09	2021.55
837.27	2128.04
837.45	1771.70
837.63	1820.44
837.81	1811.84
837.99	1949.67
838.17	1900.72
838.35	1817.57
838.53	2265.67
838.71	2049.40
838.89	1892.32
839.07	1893.96
839.25	2008.44
839.43	2219.38
839.61	2553.61
839.79	4526.83
839.97	6770.99
840.15	8067.77
840.33	9208.90
840.51	9906.43
840.69	9591.25
840.87	7732.11
841.05	6878.72
841.23	7419.18
841.41	9653.92
841.59	13896.70
841.77	15865.82
841.95	17321.92
842.13	18509.34
842.31	17890.03
842.49	14182.59
842.67	11662.77
842.85	11393.05
843.03	9904.39
843.21	9326.45
843.39	8540.85
843.57	7618.44
843.75	6781.03
843.93	5793.91
844.11	5091.86
844.29	4656.06
844.47	4235.20
844.65	4024.67
844.83	3425.43
845.01	3034.88
845.19	2846.06
845.36	2436.06
845.54	2303.96
845.72	2154.05
845.90	2132.75
846.08	1906.25
846.26	1954.79
846.44	2022.57
846.62	2017.86
846.80	1937.17
846.98	1815.93
847.16	1913.83
847.34	1969.12
847.52	1779.89
847.70	1816.14
847.88	1895.19
848.06	2119.03
848.24	1969.94
848.41	1768.42
848.59	2072.95
848.77	1986.94
848.95	1836.21
849.13	1831.09
849.31	2010.70
849.49	1951.51
849.67	1780.09
849.85	1750.40
850.03	1941.47
850.21	1940.86
850.39	1844.20
850.57	1987.14
850.74	2139.72
850.92	2294.95
851.10	2776.43
851.28	3653.58
851.46	4351.93
851.64	5059.92
851.82	5022.03
852.00	5076.50
852.18	4599.33
852.36	3970.19
852.53	3743.48
852.71	3589.68
852.89	3496.29
853.07	3292.72
853.25	3040.00
853.43	2795.27
853.61	2825.58
853.79	2629.80
853.97	2368.68
854.14	2291.88
854.32	2489.92
854.50	2343.08
854.68	2089.95
854.86	2034.25
855.04	1931.23
855.22	2081.15
855.40	1800.78
855.57	1877.17
855.75	2019.71
855.93	1972.60
856.11	1696.13
856.29	1769.65
856.47	1819.01
856.65	1920.38
856.82	1791.36
857.00	1715.99
857.18	1872.05
857.36	1816.96
857.54	1901.74
857.72	1955.20
857.89	1977.31
858.07	1913.01
858.25	1990.01
858.43	1728.28
858.61	1857.51
858.79	1894.37
858.97	1781.94
859.14	1916.49
859.32	1875.12
859.50	1844.81
859.68	1919.15
859.86	1821.05
860.03	1899.90
860.21	1994.52
860.39	1829.66
860.57	1939.02
860.75	1959.29
860.93	2145.86
861.10	2030.97
861.28	1835.80
861.46	1981.20
861.64	1975.47
861.82	1871.84
861.99	1948.64
862.17	2035.89
862.35	2017.66
862.53	1884.95
862.71	1890.28
862.88	1930.62
863.06	1988.99
863.24	1845.42
863.42	1804.87
863.60	1866.11
863.77	1947.00
863.95	1702.89
864.13	1863.04
864.31	1876.14
864.49	1967.48
864.66	1740.36
864.84	1831.09
865.02	1904.00
865.20	2242.12
865.37	1894.78
865.55	1846.86
865.73	1874.30
865.91	2221.64
866.09	2312.77
866.26	2321.58
866.44	2508.76
866.62	2384.45
866.80	2209.55
866.97	2233.31
867.15	2214.88
867.33	2202.18
867.51	2233.72
867.68	2108.38
867.86	2063.94
868.04	2007.62
868.22	1843.58
868.39	1924.68
868.57	2018.68
868.75	2151.39
868.93	1786.44
869.10	1841.74
869.28	2183.75
869.46	2128.04
869.64	1888.84
869.81	1898.47
869.99	1933.69
870.17	1900.31
870.35	1783.17
870.52	1797.91
870.70	2015.00
870.88	1842.35
871.05	1750.19
871.23	1656.60
871.41	1888.02
871.59	1861.81
871.76	1868.77
871.94	1780.91
872.12	1890.89
872.29	1709.03
872.47	1811.63
872.65	1772.11
872.83	1932.05
873.00	2078.89
873.18	1835.80
873.36	1789.72
873.53	1974.86
873.71	1730.33
873.89	1797.09
874.06	1868.98
874.24	1930.82
874.42	2029.13
874.60	1977.93
874.77	1857.51
874.95	1804.87
875.13	1990.83
875.30	1806.31
875.48	1846.04
875.66	2082.78
875.83	1825.97
876.01	1842.97
876.19	1978.54
876.36	1728.69
876.54	1908.91
876.72	1772.93
876.89	1909.94
877.07	1991.85
877.25	1690.19
877.42	1873.48
877.60	1851.98
877.78	2135.21
877.95	1843.58
878.13	1795.86
878.31	1896.42
878.48	1975.27
878.66	1968.51
878.84	1803.44
879.01	1876.96
879.19	1954.38
879.37	1956.42
879.54	1809.99
879.72	1736.88
879.90	1686.50
880.07	2004.14
880.25	1591.89
880.42	1923.66
880.60	1911.98
880.78	1979.36
880.95	1840.51
881.13	1832.11
881.31	1866.31
881.48	1814.09
881.66	1777.64
881.83	1895.60
882.01	1799.75
882.19	1766.78
882.36	1858.53
882.54	1825.97
882.72	1974.86
882.89	1892.73
883.07	1771.90
883.24	1834.16
883.42	1966.66
883.60	1866.93
883.77	1752.65
883.95	1814.91
884.12	1996.16
884.30	1924.48
884.48	1965.03
884.65	1884.34
884.83	1930.42
885.00	1940.66
885.18	1720.91
885.36	1821.05
885.53	1937.99
885.71	2047.76
885.88	1732.38
886.06	1823.51
886.23	1972.19
886.41	1824.33
886.59	1809.38
886.76	1787.47
886.94	1956.63
887.11	2239.86
887.29	1825.35
887.47	1711.08
887.64	2047.97
887.82	2055.14
887.99	1677.90
888.17	1855.46
888.34	1865.70
888.52	1751.63
888.69	1862.63
888.87	1742.00
889.05	1841.33
889.22	1850.34
889.40	1774.56
889.57	1953.56
889.75	2105.52
889.92	1848.91
890.10	1759.41
890.27	1863.04
890.45	1812.66
890.62	1675.85
890.80	1730.12
890.98	1717.22
891.15	2067.63
891.33	1996.56
891.50	1798.53
891.68	1727.67
891.85	1971.37
892.03	1956.42
892.20	1796.07
892.38	1753.88
892.55	1964.00
892.73	1948.64
892.90	1732.99
893.08	1798.12
893.25	1797.50
893.43	1803.03
893.60	1933.49
893.78	1618.71
893.95	1933.49
894.13	1881.47
894.30	1768.22
894.48	1839.90
894.65	1993.08
894.83	1909.32
895.00	1683.43
895.18	1667.66
895.35	2000.05
895.53	1955.81
895.70	1713.54
895.88	1900.51
896.05	1952.53
896.23	1730.53
896.40	1792.18
896.58	1865.09
896.75	2001.28
896.93	2060.05
897.10	1786.85
897.28	1715.58
897.45	1902.15
897.63	1957.86
897.80	1934.51
897.98	1849.93
898.15	1912.80
898.33	1811.43
898.50	1855.87
898.67	1852.18
898.85	1829.45
899.02	1941.06
899.20	1977.31
899.37	1834.16
899.55	1866.93
899.72	2073.16
899.90	1788.08
900.07	1780.50
900.25	1944.55
900.42	1996.16
900.59	1813.27
900.77	1916.08
900.94	1949.05
901.12	1916.28
901.29	1766.58
901.47	1928.78
901.64	1932.46
901.82	1896.42
901.99	1641.04
902.16	1783.78
902.34	2030.15
902.51	1920.18
902.69	1828.84
902.86	1852.18
903.03	2320.76
903.21	1886.59
903.38	1839.90
903.56	1768.83
903.73	2032.61
903.91	1856.28
904.08	1768.63
904.25	1664.59
904.43	1785.01
904.60	1983.87
904.78	1814.09
904.95	1754.49
905.12	1845.22
905.30	2112.89
905.47	1907.68
905.65	1964.21
905.82	1874.92
905.99	1960.32
906.17	1862.63
906.34	1754.09
906.52	1813.27
906.69	1967.28
906.86	1961.13
907.04	1884.34
907.21	1991.44
907.38	2017.25
907.56	1789.72
907.73	1789.11
907.91	2090.98
908.08	2024.01
908.25	1759.21
908.43	1792.79
908.60	1968.71
908.77	1915.26
908.95	1829.04
909.12	1769.04
909.30	2000.87
909.47	1714.56
909.64	1857.51
909.82	1991.44
909.99	1849.52
910.16	1893.96
910.34	1799.14
910.51	1834.37
910.68	1930.42
910.86	1923.25
911.03	1941.27
911.20	2665.02
911.38	4690.26
911.55	7746.03
911.72	9246.58
911.90	10281.21
912.07	11214.06
912.24	10832.94
912.42	8371.48
912.59	5940.75
912.76	5536.68
912.94	4622.88
913.11	4146.32
913.28	3703.96
913.46	3473.76
913.63	3373.41
913.80	3446.53
913.98	3048.81
914.15	3147.93
914.32	3035.70
914.49	2828.04
914.67	2675.88
914.84	2792.41
915.01	2847.91
915.19	2657.44
915.36	2473.95
915.53	2502.82
915.71	2305.60
915.88	2170.85
916.05	1973.42
916.22	2152.62
916.40	2008.65
916.57	1843.58
916.74	1962.57
916.92	2113.30
917.09	1795.25
917.26	1792.79
917.43	1748.15
917.61	1834.37
917.78	1715.17
917.95	1695.72
918.13	1757.16
918.30	2155.69
918.47	1904.41
918.64	1796.48
918.82	1808.77
918.99	1900.72
919.16	2130.09
919.33	1890.07
919.51	1820.85
919.68	1888.84
919.85	2048.38
920.02	1728.28
920.20	1841.94
920.37	2095.07
920.54	2023.80
920.71	1786.24
920.89	1805.28
921.06	2113.50
921.23	1833.96
921.40	1933.28
921.58	2531.90
921.75	3399.42
921.92	3144.04
922.09	3323.03
922.27	3351.91
922.44	3242.55
922.61	2862.65
922.78	2421.52
922.96	2320.35
923.13	2267.31
923.30	2396.12
923.47	2005.17
923.64	2053.91
923.82	2210.17
923.99	2180.27
924.16	2075.41
924.33	1920.18
924.50	2058.41
924.68	2239.86
924.85	1925.09
925.02	1976.90
925.19	2134.39
925.36	2068.04
925.54	1986.32
925.71	1923.45
925.88	2324.85
926.05	1905.02
926.22	1807.33
926.40	1883.72
926.57	1929.60
926.74	1959.70
926.91	1785.21
927.08	1963.80
927.26	2021.55
927.43	1907.89
927.60	1754.29
927.77	1842.35
927.94	2079.30
928.11	2033.02
928.29	1722.34
928.46	1866.93
928.63	1816.55
928.80	1873.28
928.97	1910.55
929.14	1767.60
929.32	2181.29
929.49	1909.94
929.66	1775.79
929.83	1710.67
930.00	1825.76
930.17	1927.96
930.35	1718.66
930.52	1791.56
930.69	2095.48
930.86	1765.14
931.03	1867.54
931.20	1628.95
931.37	1998.00
931.55	1883.11
931.72	1858.33
931.89	1685.48
932.06	1735.86
932.23	2070.09
932.40	1904.82
932.57	1866.72
932.74	2053.91
932.92	2024.42
933.09	1928.98
933.26	1590.66
933.43	1824.54
933.60	1913.01
933.77	1848.29
933.94	1841.53
934.11	1846.04
934.29	1915.26
934.46	1720.70
934.63	1912.80
934.80	1789.52
934.97	1943.93
935.14	1902.15
935.31	1763.71
935.48	1848.91
935.65	1973.22
935.82	1880.04
936.00	1762.48
936.17	2072.34
936.34	1892.94
936.51	1928.78
936.68	1720.50
936.85	1932.05
937.02	1907.07
937.19	1910.55
937.36	1817.57
937.53	1934.51
937.70	2011.92
937.87	1823.51
938.05	1900.11
938.22	1909.73
938.39	1760.23
938.56	1829.04
938.73	1751.83
938.90	1850.95
939.07	1812.86
939.24	1814.09
939.41	1644.72
939.58	1937.17
939.75	1922.22
939.92	1760.64
940.09	1960.73
940.26	1830.68
940.43	1973.01
940.60	1817.16
940.77	1784.19
940.95	1906.45
941.12	1968.10
941.29	1787.06
941.46	1832.11
941.63	2048.38
941.80	2063.53
941.97	1727.46
942.14	1702.27
942.31	1953.56
942.48	1852.18
942.65	1899.29
942.82	1827.61
942.99	1946.59
943.16	1903.18
943.33	1722.14
943.50	1734.83
943.67	1966.05
943.84	2024.62
944.01	1799.14
944.18	1735.04
944.35	2031.38
944.52	1764.94
944.69	1842.56
944.86	1693.67
945.03	1979.36
945.20	2188.66
945.37	1650.25
945.54	1800.16
945.71	2034.86
945.88	2082.78
946.05	1748.97
946.22	1728.69
946.39	2043.87
946.56	1857.71
946.73	1708.83
946.90	1753.27
947.07	1833.96
947.24	1873.07
947.41	1658.85
947.58	1886.79
947.75	1957.65
947.92	1915.26
948.09	1592.91
948.26	1660.70
948.43	1899.90
948.60	2128.04
948.77	1740.16
948.94	1771.29
949.11	1986.73
949.27	1914.03
949.44	1753.47
949.61	1760.43
949.78	1916.69
949.95	2008.44
950.12	1717.43
950.29	1687.73
950.46	1807.74
950.63	2005.58
950.80	1772.11
950.97	1832.93
951.14	1990.22
951.31	1826.38
951.48	1757.77
951.65	1738.11
951.82	2095.07
951.99	1898.88
952.15	1671.35
952.32	1793.41
952.49	1802.42
952.66	1802.83
952.83	1746.51
953.00	1752.86
953.17	1853.82
953.34	1997.59
953.51	1834.98
953.68	1795.66
953.85	1994.72
954.02	2025.44
954.18	1804.47
954.35	1821.26
954.52	1771.49
954.69	1904.41
954.86	1667.87
955.03	1827.20
955.20	1950.49
955.37	1865.70
955.54	1790.74
955.71	1771.49
955.87	1945.57
956.04	2094.46
956.21	1780.50
956.38	1740.98
956.55	1897.85
956.72	2181.50
956.89	1817.57
957.06	1756.54
957.23	1797.50
957.39	2026.26
957.56	1791.15
957.73	1715.38
957.90	1632.64
958.07	2096.10
958.24	1833.14
958.41	1765.55
958.57	1959.70
958.74	1873.48
958.91	1723.57
959.08	1747.12
959.25	1987.35
959.42	1832.73
959.59	1844.40
959.75	1769.24
959.92	2038.55
960.09	1990.83
960.26	1738.52
960.43	1838.67
960.60	1917.92
960.76	1857.30
960.93	1690.39
961.10	1830.88
961.27	1975.06
961.44	1845.42
961.61	1697.15
961.77	1722.55
961.94	1912.80
962.11	1979.98
962.28	1786.44
962.45	1704.32
962.62	1857.71
962.78	2008.85
962.95	1719.47
963.12	1781.73
963.29	1953.56
963.46	2243.55
963.62	1845.02
963.79	1778.87
963.96	2199.72
964.13	1829.04
964.30	1873.07
964.46	1790.74
964.63	1803.85
964.80	2337.76
964.97	1932.26
965.14	2279.80
965.30	2445.48
965.47	2559.76
965.64	2528.01
965.81	2435.65
965.98	2524.94
966.14	2255.84
966.31	2039.78
966.48	2024.62
966.65	2272.02
966.81	2152.21
966.98	1974.45
967.15	1987.35
967.32	2050.22
967.49	1928.16
967.65	1787.47
967.82	1763.71
967.99	1998.20
968.16	1813.68
968.32	2036.50
968.49	1867.75
968.66	1932.67
968.83	2177.40
968.99	1935.33
969.16	1820.03
969.33	2121.70
969.50	2032.40
969.66	1966.05
969.83	2039.37
970.00	1999.43
970.17	1981.00
970.33	1815.73
970.50	1743.85
970.67	2077.46
970.84	2078.28
971.00	1742.21
971.17	1699.40
971.34	1962.77
971.50	1853.00
971.67	1903.79
971.84	1819.21
972.01	1730.94
972.17	1635.30
972.34	1720.70
972.51	1862.01
972.67	2024.01
972.84	1919.36
973.01	1700.84
973.18	1770.67
973.34	2002.30
973.51	1785.21
973.68	1807.13
973.84	1826.79
974.01	1837.85
974.18	2102.24
974.34	1841.94
974.51	1876.96
974.68	1781.94
974.85	2137.06
975.01	1908.09
975.18	1800.98
975.35	1863.86
975.51	1762.07
975.68	1671.96
975.85	1909.94
976.01	1810.40
976.18	2068.65
976.35	1811.63
976.51	1772.52
976.68	2083.81
976.85	2028.92
977.01	1808.15
977.18	1860.78
977.35	1969.74
977.51	1743.23
977.68	1638.99
977.85	1741.80
978.01	2045.92
978.18	2009.26
978.35	1887.61
978.51	1903.18
978.68	2039.57
978.85	2103.88
979.01	1806.92
979.18	1859.97
979.34	1875.73
979.51	1912.39
979.68	1748.56
979.84	1825.15
980.01	2229.83
980.18	1892.12
980.34	1774.16
980.51	1881.26
980.67	2002.50
980.84	1998.61
981.01	1806.31
981.17	1865.49
981.34	1669.71
981.51	1987.96
981.67	1730.53
981.84	1895.80
982.00	1945.98
982.17	1901.33
982.34	1712.31
982.50	1612.16
982.67	2068.45
982.83	1827.81
983.00	1710.05
983.17	1612.37
983.33	2033.22
983.50	1683.02
983.66	1683.02
983.83	1636.74
984.00	1835.18
984.16	1868.16
984.33	1626.50
984.49	1620.35
984.66	1778.66
984.83	1977.72
984.99	1664.59
985.16	1608.88
985.32	1948.03
985.49	1957.04
985.65	1725.41
985.82	1616.26
985.99	2063.94
986.15	1892.53
986.32	1686.50
986.48	1683.84
986.65	1824.94
986.81	1953.97
986.98	1611.75
987.14	1676.06
987.31	1878.19
987.48	1707.80
987.64	1560.14
987.81	1592.71
987.97	2129.07
988.14	1755.11
988.30	1634.28
988.47	1513.65
988.63	1920.18
988.80	1747.94
988.96	1699.81
989.13	1721.73
989.30	1866.11
989.46	1985.51
989.63	1579.19
989.79	1586.15
989.96	1873.89
990.12	2077.05
990.29	1645.75
990.45	1653.53
990.62	1868.57
990.78	2016.63
990.95	1759.21
991.11	1631.62
991.28	1821.87
991.44	1914.24
991.61	1548.88
991.77	1690.19
991.94	1904.00
992.10	2017.86
992.27	1695.51
992.43	1661.31
992.60	1926.73
992.76	1818.39
992.93	1832.32
993.09	1603.56
993.26	1999.23
993.42	2086.06
993.59	1653.12
993.75	1559.73
993.92	1767.81
994.08	1766.37
994.25	1704.11
994.41	1603.15
994.58	1970.56
994.74	2065.17
994.91	1628.75
995.07	1717.43
995.24	1856.48
995.40	1863.65
995.56	1740.98
995.73	1717.22
995.89	2067.01
996.06	1855.87
996.22	1624.86
996.39	1578.16
996.55	1854.03
996.72	1915.47
996.88	1578.16
997.05	1619.74
997.21	2103.26
997.37	1943.32
997.54	1704.11
997.70	1670.12
997.87	1916.28
998.03	1868.98
998.20	1564.03
998.36	1562.60
998.52	1932.05
998.69	1982.64
998.85	1577.35
999.02	1665.82
999.18	1991.44
999.35	2002.09
999.51	1678.92
999.67	1685.48
999.84	1739.34
1000.00	1958.88
1000.17	1731.76
1000.33	1602.95
1000.49	1808.56
1000.66	1856.48
1000.82	1631.82
1000.99	1707.60
1001.15	1996.36
1001.31	1827.81
1001.48	1692.44
1001.64	1705.55
1001.81	1839.08
1001.97	2145.86
1002.13	1648.21
1002.30	1662.75
1002.46	2030.97
1002.63	1847.47
1002.79	1708.21
1002.95	1634.07
1003.12	2001.48
1003.28	1915.06
1003.45	1624.86
1003.61	1599.67
1003.77	1900.51
1003.94	1731.97
1004.10	1668.28
1004.26	1703.09
1004.43	1954.58
1004.59	2098.96
1004.75	1615.85
1004.92	1600.69
1005.08	1827.61
1005.25	1877.58
1005.41	1662.95
1005.57	1712.72
1005.74	2037.52
1005.90	1841.74
1006.06	1752.65
1006.23	1636.74
1006.39	1958.68
1006.55	2193.17
1006.72	1776.41
1006.88	1594.75
1007.04	1747.53
1007.21	1829.45
1007.37	1667.87
1007.53	1631.00
1007.70	2053.91
1007.86	1983.66
1008.02	1704.32
1008.19	1604.99
1008.35	1871.64
1008.51	1770.26
1008.68	1677.29
1008.84	1592.91
1009.00	1785.42
1009.17	1998.41
1009.33	1768.42
1009.49	1716.20
1009.65	1781.32
1009.82	1909.94
1009.98	1719.27
1010.14	1560.55
1010.31	1963.18
1010.47	1939.22
1010.63	1721.52
1010.80	1703.50
1010.96	1939.84
1011.12	1842.56
1011.28	1676.88
1011.45	1630.59
1011.61	2216.93
1011.77	1757.98
1011.94	1649.64
1012.10	1583.28
1012.26	1764.73
1012.42	1810.40
1012.59	1712.51
1012.75	1707.19
1012.91	1837.64
1013.07	1982.43
1013.24	1616.26
1013.40	1634.69
1013.56	1868.77
1013.72	1859.97
1013.89	1728.90
1014.05	1734.42
1014.21	2135.01
1014.37	2194.60
1014.54	1699.40
1014.70	1618.30
1014.86	1836.21
1015.02	1734.83
1015.19	1658.65
1015.35	1620.56
1015.51	1829.25
1015.67	1811.84
1015.84	1621.99
1016.00	1642.47
1016.16	1997.79
1016.32	1974.65
1016.49	1634.48
1016.65	1610.32
1016.81	1825.15
1016.97	1923.25
1017.14	1779.89
1017.30	1664.38
1017.46	1802.21
1017.62	1927.34
1017.78	1719.27
1017.95	1608.68
1018.11	1972.19
1018.27	2180.88
1018.43	1767.60
1018.59	1701.04
1018.76	1952.74
1018.92	2200.54
1019.08	1625.88
1019.24	1650.66
1019.40	2048.38
1019.57	1887.20
1019.73	1731.97
1019.89	1620.76
1020.05	1876.55
1020.21	2106.13
1020.38	1638.38
1020.54	1797.09
1020.70	1948.64
1020.86	1922.84
1021.02	1649.84
1021.18	1641.04
1021.35	1798.94
1021.51	1950.90
1021.67	1776.82
1021.83	1644.52
1021.99	1871.64
1022.15	1914.03
1022.32	1724.59
1022.48	1717.02
1022.64	2023.80
1022.80	2090.57
1022.96	1697.15
1023.12	1594.34
1023.29	1990.83
1023.45	1902.15
1023.61	1663.36
1023.77	1799.14
1023.93	1904.20
1024.09	1793.82
1024.25	1611.96
1024.42	1576.32
1024.58	1826.17
1024.74	1913.42
1024.90	1657.63
1025.06	1741.59
1025.22	1820.44
1025.38	2100.19
1025.54	1589.63
1025.71	1732.99
1025.87	1948.03
1026.03	1910.75
1026.19	1625.47
1026.35	1790.33
1026.51	1964.41
1026.67	1870.21
1026.83	1693.47
1026.99	1756.54
1027.16	1922.02
1027.32	1851.36
1027.48	1700.22
1027.64	1618.51
1027.80	1927.34
1027.96	1884.95
1028.12	1658.85
1028.28	1632.03
1028.44	1916.49
1028.60	2064.76
1028.77	1768.63
1028.93	1680.77
1029.09	1819.21
1029.25	1762.69
1029.41	1700.84
1029.57	1739.95
1029.73	1917.72
1029.89	2067.22
1030.05	1769.24
1030.21	1743.44
1030.37	2179.45
1030.53	1952.94
1030.69	1685.27
1030.85	1609.09
1031.02	1746.10
1031.18	1885.36
1031.34	1686.91
1031.50	1734.02
1031.66	1762.28
1031.82	2065.38
1031.98	1725.62
1032.14	1641.65
1032.30	1741.18
1032.46	1954.99
1032.62	1791.36
1032.78	1600.90
1032.94	1790.13
1033.10	1845.02
1033.26	1728.69
1033.42	1765.35
1033.58	2129.07
1033.74	1836.41
1033.90	1651.48
1034.06	1852.39
1034.22	2158.97
1034.38	1985.51
1034.54	1698.18
1034.70	1714.97
1034.86	2089.75
>>>>>End Processed Spectral Data<<<<<
