SpectraSuite Data File
++++++++++++++++++++++++++++++++++++
Date: Thu Mar 30 16:18:40 PDT 2017
User: UCSD _CER
Dark Spectrum Present: No
Reference Spectrum Present: No
Number of Sampled Component Spectra: 1
Spectrometers: USB4C00073
Integration Time (usec): 250000 (USB4C00073)
Spectra Averaged: 10 (USB4C00073)
Boxcar Smoothing: 0 (USB4C00073)
Correct for Electrical Dark: No (USB4C00073)
Strobe/Lamp Enabled: No (USB4C00073)
Correct for Detector Non-linearity: No (USB4C00073)
Correct for Stray Light: No (USB4C00073)
Number of Pixels in Processed Spectrum: 3648
>>>>>Begin Processed Spectral Data<<<<<
345.37	1253.97
345.58	1253.97
345.80	1253.97
346.01	1268.31
346.22	1273.02
346.43	1957.04
346.65	1786.03
346.86	2129.48
347.07	2085.86
347.28	1781.53
347.50	1784.60
347.71	1911.37
347.92	1733.81
348.13	1799.96
348.35	1704.73
348.56	1910.96
348.77	1760.23
348.98	1813.48
349.20	1653.33
349.41	1895.19
349.62	1981.41
349.83	1855.05
350.05	1719.47
350.26	1933.90
350.47	2076.44
350.68	1761.05
350.90	1703.09
351.11	2063.33
351.32	2080.53
351.53	1798.94
351.75	1714.97
351.96	1953.15
352.17	1894.58
352.38	1863.24
352.60	1859.56
352.81	1907.48
353.02	2124.97
353.23	1741.59
353.44	1790.33
353.66	1821.87
353.87	1870.00
354.08	1881.88
354.29	1791.36
354.51	1816.55
354.72	1835.80
354.93	1757.36
355.14	1686.91
355.35	1718.86
355.57	2021.35
355.78	1787.88
355.99	1814.91
356.20	1894.37
356.42	1854.23
356.63	1860.37
356.84	1808.36
357.05	2013.15
357.26	2172.28
357.48	1865.70
357.69	1826.58
357.90	1951.30
358.11	1858.74
358.32	1785.62
358.54	1858.53
358.75	1842.97
358.96	1973.83
359.17	1775.38
359.38	1777.02
359.60	1968.10
359.81	1881.88
360.02	1791.77
360.23	1740.98
360.44	1826.58
360.66	2024.83
360.87	1738.32
361.08	1736.27
361.29	1947.00
361.50	1926.32
361.72	1780.09
361.93	1838.05
362.14	1901.74
362.35	1716.40
362.56	1874.71
362.77	1709.64
362.99	1959.09
363.20	1904.20
363.41	1848.50
363.62	1688.35
363.83	1992.26
364.05	2004.76
364.26	1706.98
364.47	1754.29
364.68	2026.67
364.89	1804.06
365.10	1716.61
365.32	1822.90
365.53	1810.40
365.74	1832.93
365.95	1776.00
366.16	1693.47
366.37	1882.29
366.59	1859.97
366.80	1804.67
367.01	1662.34
367.22	2157.33
367.43	2272.02
367.64	1807.33
367.86	1805.28
368.07	1987.35
368.28	2065.99
368.49	1747.12
368.70	1839.69
368.91	1889.05
369.12	1884.13
369.34	1720.09
369.55	1711.28
369.76	1902.15
369.97	1843.79
370.18	1747.53
370.39	1740.57
370.60	1728.90
370.82	1774.16
371.03	1812.66
371.24	1750.40
371.45	2010.70
371.66	1971.99
371.87	1826.38
372.08	1764.33
372.30	1780.71
372.51	2003.73
372.72	1868.16
372.93	1732.99
373.14	2084.83
373.35	1827.61
373.56	1746.71
373.78	1796.07
373.99	1997.59
374.20	2280.82
374.41	1795.66
374.62	1829.66
374.83	2085.24
375.04	1848.70
375.25	1790.33
375.47	1752.24
375.68	1863.45
375.89	2009.06
376.10	1805.69
376.31	1876.55
376.52	1957.04
376.73	1932.05
376.94	1796.07
377.15	1790.95
377.37	1888.84
377.58	1850.95
377.79	1697.36
378.00	1726.23
378.21	1930.01
378.42	1959.50
378.63	1813.07
378.84	1867.13
379.05	2008.85
379.27	1911.78
379.48	1915.67
379.69	1733.81
379.90	2057.39
380.11	1655.37
380.32	1768.63
380.53	1919.15
380.74	2053.91
380.95	1920.79
381.16	1777.64
381.37	1786.44
381.59	2092.41
381.80	2005.37
382.01	1734.02
382.22	1693.06
382.43	1959.91
382.64	1886.18
382.85	1717.02
383.06	1830.27
383.27	1974.86
383.48	1859.56
383.69	1842.97
383.91	1722.14
384.12	1991.65
384.33	1960.93
384.54	1810.40
384.75	1707.39
384.96	2259.93
385.17	1997.59
385.38	1750.81
385.59	1744.25
385.80	1994.11
386.01	2067.83
386.22	1874.71
386.43	1804.26
386.64	2173.30
386.86	1868.36
387.07	1908.30
387.28	1716.61
387.49	1853.41
387.70	2071.73
387.91	1858.12
388.12	1751.22
388.33	1963.80
388.54	1799.14
388.75	1782.76
388.96	1828.02
389.17	1837.64
389.38	1869.39
389.59	1858.74
389.80	1818.80
390.01	1876.96
390.22	1868.98
390.43	1895.80
390.64	1643.29
390.86	1950.28
391.07	2007.42
391.28	1786.85
391.49	1819.83
391.70	1747.33
391.91	1798.53
392.12	1816.34
392.33	1777.64
392.54	1909.53
392.75	1844.40
392.96	1884.54
393.17	1742.21
393.38	2216.52
393.59	2023.39
393.80	1718.66
394.01	1795.66
394.22	1872.46
394.43	2152.62
394.64	1732.58
394.85	1906.66
395.06	1900.52
395.27	1886.38
395.48	1817.57
395.69	1730.94
395.90	1888.64
396.11	1888.02
396.32	1764.12
396.53	1876.35
396.74	1887.41
396.95	2049.20
397.16	1760.02
397.37	1673.60
397.58	1991.24
397.79	1894.78
398.00	1856.48
398.21	1784.19
398.42	1932.26
398.63	2174.74
398.84	1803.65
399.05	1772.31
399.26	2047.97
399.47	1940.25
399.68	1632.44
399.89	1730.53
400.10	1766.78
400.31	1859.56
400.52	1822.90
400.73	1797.09
400.94	1725.82
401.15	1917.72
401.36	1778.25
401.57	1834.37
401.78	2058.41
401.99	2009.26
402.20	1726.85
402.41	1893.35
402.62	2096.10
402.83	1877.37
403.04	1753.47
403.25	1933.69
403.46	1928.57
403.67	2052.06
403.88	1793.00
404.09	1790.95
404.30	1823.31
404.51	1818.39
404.72	1735.04
404.93	1920.99
405.14	1788.08
405.35	1906.04
405.56	1792.79
405.77	1773.54
405.98	1919.15
406.19	1910.55
406.40	1745.89
406.61	1762.89
406.82	1819.83
407.03	2175.97
407.24	1710.26
407.45	1828.22
407.66	1951.92
407.87	2007.62
408.08	1864.47
408.29	1872.05
408.49	1985.10
408.70	1882.29
408.91	1819.42
409.12	1854.64
409.33	1777.02
409.54	2057.39
409.75	1789.52
409.96	1794.02
410.17	1982.84
410.38	1849.93
410.59	1779.28
410.80	1880.85
411.01	1888.43
411.22	1874.92
411.43	1865.09
411.64	1726.23
411.85	1793.82
412.06	1783.99
412.27	1619.74
412.47	1769.04
412.68	1878.81
412.89	1944.14
413.10	1772.93
413.31	1682.20
413.52	2134.60
413.73	2116.58
413.94	1768.63
414.15	1910.55
414.36	1841.53
414.57	1786.44
414.78	1678.11
414.99	1711.69
415.19	2000.46
415.40	1949.26
415.61	1974.86
415.82	1879.01
416.03	2005.17
416.24	1983.87
416.45	1812.86
416.66	1760.23
416.87	1751.22
417.08	2011.11
417.29	1760.02
417.50	1835.39
417.70	1945.57
417.91	1943.52
418.12	1815.93
418.33	1820.44
418.54	1942.91
418.75	2042.85
418.96	1974.24
419.17	1901.74
419.38	2141.36
419.59	2042.03
419.79	1934.92
420.00	1834.78
420.21	2317.89
420.42	1949.26
420.63	1814.50
420.84	1868.36
421.05	1878.60
421.26	1903.18
421.47	1733.40
421.67	2033.84
421.88	1782.35
422.09	1758.39
422.30	1942.50
422.51	1778.87
422.72	2109.20
422.93	1979.77
423.14	1817.57
423.35	1691.01
423.55	1686.91
423.76	1799.14
423.97	1821.05
424.18	1683.23
424.39	1858.33
424.60	1997.18
424.81	1802.01
425.02	1877.37
425.22	1904.00
425.43	1895.80
425.64	1982.02
425.85	1837.03
426.06	2192.76
426.27	2034.45
426.48	1902.36
426.68	1854.64
426.89	2003.73
427.10	2132.55
427.31	1828.02
427.52	1746.51
427.73	1949.05
427.94	1944.34
428.14	1892.53
428.35	1768.01
428.56	2088.31
428.77	2008.44
428.98	1873.07
429.19	1811.02
429.40	1876.35
429.60	1873.69
429.81	1938.40
430.02	1837.23
430.23	1874.71
430.44	1987.55
430.65	1763.51
430.85	1838.67
431.06	1952.33
431.27	1710.26
431.48	1774.56
431.69	1837.85
431.90	1909.53
432.10	1916.90
432.31	1851.57
432.52	1750.19
432.73	2195.01
432.94	2092.00
433.15	1935.54
433.35	1783.78
433.56	2053.29
433.77	1882.70
433.98	1924.27
434.19	1798.94
434.40	1857.71
434.60	1866.52
434.81	1795.25
435.02	1886.79
435.23	1908.30
435.44	1826.58
435.64	1691.83
435.85	1759.61
436.06	1871.43
436.27	1828.02
436.48	1710.87
436.68	1760.84
436.89	2099.37
437.10	1931.03
437.31	1808.77
437.52	1884.75
437.73	1899.70
437.93	1908.30
438.14	1846.04
438.35	1674.21
438.56	1841.94
438.77	1866.11
438.97	1948.85
439.18	1741.59
439.39	2034.86
439.60	1738.73
439.80	1674.21
440.01	1808.77
440.22	1821.05
440.43	1948.85
440.64	1722.55
440.84	1830.47
441.05	1747.53
441.26	2250.10
441.47	1842.15
441.68	1742.21
441.88	1854.44
442.09	1835.18
442.30	1928.57
442.51	1849.11
442.71	1854.64
442.92	1934.51
443.13	1738.32
443.34	1753.27
443.55	1756.75
443.75	1963.59
443.96	1765.96
444.17	1727.87
444.38	2018.27
444.58	1798.73
444.79	1835.59
445.00	1813.48
445.21	1895.19
445.41	1850.95
445.62	1594.75
445.83	1853.21
446.04	1910.96
446.24	1732.99
446.45	1632.23
446.66	1787.26
446.87	1933.49
447.07	1829.86
447.28	1978.34
447.49	1825.56
447.70	1975.47
447.90	2012.33
448.11	1816.96
448.32	1870.21
448.53	2077.66
448.73	2059.64
448.94	1796.27
449.15	1917.31
449.36	1910.75
449.56	1941.68
449.77	1799.14
449.98	1706.57
450.19	1836.62
450.39	1861.40
450.60	1865.70
450.81	1872.05
451.02	1908.30
451.22	2089.13
451.43	1754.09
451.64	1804.06
451.84	1845.42
452.05	2031.99
452.26	1835.39
452.47	1812.86
452.67	1849.73
452.88	2067.42
453.09	1772.52
453.30	1722.96
453.50	1975.88
453.71	2066.61
453.92	1761.87
454.12	1887.20
454.33	1803.24
454.54	1834.37
454.75	1741.39
454.95	1723.16
455.16	1932.26
455.37	1971.99
455.57	1836.82
455.78	1806.92
455.99	1865.70
456.19	1887.00
456.40	1721.52
456.61	1806.92
456.82	1910.75
457.02	1972.81
457.23	1869.80
457.44	1975.47
457.64	1830.88
457.85	1945.78
458.06	1794.64
458.26	1938.81
458.47	1865.49
458.68	1987.14
458.89	1702.07
459.09	1894.58
459.30	2163.88
459.51	1907.68
459.71	1714.35
459.92	1772.31
460.13	1973.01
460.33	2154.26
460.54	1772.93
460.75	1797.30
460.95	1768.42
461.16	1937.38
461.37	1800.57
461.57	1854.03
461.78	1928.37
461.99	1743.03
462.19	1995.34
462.40	1744.66
462.61	2346.56
462.81	2011.51
463.02	1751.01
463.23	1763.92
463.43	1987.14
463.64	1841.53
463.85	2665.64
464.05	1787.47
464.26	2303.76
464.47	2057.59
464.67	1945.57
464.88	1843.79
465.09	1793.82
465.29	1902.77
465.50	1909.94
465.71	1806.10
465.91	1821.67
466.12	1888.43
466.33	1850.54
466.53	1763.10
466.74	2057.59
466.94	1847.68
467.15	1821.67
467.36	1984.89
467.56	1783.17
467.77	1901.33
467.98	1849.93
468.18	1784.40
468.39	1833.96
468.60	2135.83
468.80	1860.78
469.01	1753.47
469.21	1945.16
469.42	2009.26
469.63	1829.86
469.83	1742.41
470.04	1992.26
470.25	2082.17
470.45	1868.98
470.66	1781.94
470.86	1948.44
471.07	1859.97
471.28	1874.71
471.48	1923.66
471.69	1902.56
471.90	2336.73
472.10	1782.96
472.31	1816.55
472.51	1795.25
472.72	1806.31
472.93	1725.21
473.13	1910.96
473.34	1919.15
473.54	1876.14
473.75	1811.43
473.96	1985.30
474.16	1881.88
474.37	1931.85
474.57	1838.46
474.78	1746.30
474.99	1929.60
475.19	1906.45
475.40	1756.95
475.60	1718.66
475.81	2063.74
476.02	1855.87
476.22	1783.37
476.43	1931.44
476.63	1862.63
476.84	2036.70
477.05	1663.77
477.25	1774.36
477.46	2275.29
477.66	1897.65
477.87	1684.86
478.08	1807.54
478.28	1998.61
478.49	1860.58
478.69	1768.63
478.90	1822.69
479.10	1974.65
479.31	2093.23
479.52	1867.95
479.72	1913.42
479.93	1964.21
480.13	1840.71
480.34	1785.01
480.54	1893.14
480.75	1795.45
480.96	2046.54
481.16	1764.53
481.37	1920.99
481.57	1987.55
481.78	1987.35
481.98	1997.18
482.19	1873.48
482.40	2143.61
482.60	1951.51
482.81	1886.18
483.01	1761.25
483.22	2004.14
483.42	1981.82
483.63	1906.04
483.83	1887.20
484.04	1821.46
484.24	1973.83
484.45	1864.06
484.66	1696.74
484.86	1945.57
485.07	1817.16
485.27	1865.70
485.48	1787.26
485.68	2072.13
485.89	1795.25
486.09	1858.74
486.30	1782.76
486.50	1918.54
486.71	1879.01
486.91	1814.71
487.12	1882.49
487.33	2100.81
487.53	2092.61
487.74	1850.95
487.94	1797.91
488.15	1883.72
488.35	1950.08
488.56	1804.06
488.76	1776.61
488.97	1882.08
489.17	1977.72
489.38	1820.85
489.58	1799.35
489.79	1927.75
489.99	1933.08
490.20	1863.65
490.40	1888.23
490.61	1950.49
490.81	1822.49
491.02	1857.51
491.22	1876.55
491.43	1986.73
491.63	1902.56
491.84	1931.44
492.04	1702.27
492.25	1947.21
492.45	1859.76
492.66	1792.38
492.86	1717.84
493.07	1871.43
493.27	2152.21
493.48	1667.05
493.68	1836.62
493.89	1849.73
494.09	2000.05
494.30	1783.17
494.50	2050.43
494.71	1948.64
494.91	1716.20
495.12	1817.98
495.32	1891.30
495.53	1854.03
495.73	1693.67
495.94	1822.28
496.14	1673.19
496.35	2114.53
496.55	1873.48
496.76	1791.56
496.96	1883.52
497.17	1871.23
497.37	1953.35
497.58	1791.56
497.78	1743.64
497.98	1831.70
498.19	1875.73
498.39	1844.81
498.60	1881.06
498.80	1678.92
499.01	1967.48
499.21	1759.82
499.42	1861.40
499.62	1840.51
499.83	2163.88
500.03	1699.61
500.24	1876.96
500.44	2052.47
500.64	2028.10
500.85	1808.15
501.05	1916.90
501.26	1713.74
501.46	2060.87
501.67	1770.06
501.87	1755.31
502.08	1814.30
502.28	1819.62
502.48	1888.64
502.69	1944.96
502.89	1719.88
503.10	1797.91
503.30	1824.74
503.51	1848.70
503.71	1765.55
503.92	1951.71
504.12	1888.43
504.32	1813.07
504.53	1976.09
504.73	1977.52
504.94	1929.39
505.14	1998.00
505.35	1954.58
505.55	1959.70
505.75	1863.24
505.96	1978.34
506.16	2137.06
506.37	1836.41
506.57	1753.68
506.78	1834.57
506.98	1996.77
507.18	1706.37
507.39	1728.49
507.59	1802.42
507.80	1760.84
508.00	1885.16
508.20	1960.52
508.41	1856.07
508.61	2045.92
508.82	2008.65
509.02	1937.58
509.22	1745.07
509.43	1749.58
509.63	1798.94
509.84	1819.83
510.04	1729.10
510.24	2058.62
510.45	1955.81
510.65	1737.29
510.86	1842.97
511.06	1761.25
511.26	1975.88
511.47	1928.57
511.67	1764.12
511.88	1963.39
512.08	2007.21
512.28	1709.23
512.49	1916.69
512.69	1898.67
512.90	1936.76
513.10	1791.97
513.30	1836.62
513.51	1943.32
513.71	2087.29
513.91	1900.11
514.12	1874.71
514.32	1961.54
514.53	1797.91
514.73	1882.08
514.93	1804.06
515.14	1882.29
515.34	2053.50
515.54	1832.11
515.75	1892.73
515.95	1974.65
516.15	2016.43
516.36	1897.44
516.56	1925.30
516.77	1646.98
516.97	1944.96
517.17	1839.28
517.38	1897.65
517.58	2070.09
517.78	1843.99
517.99	1900.72
518.19	1859.35
518.39	2073.36
518.60	1841.94
518.80	1799.75
519.00	1944.96
519.21	1860.99
519.41	2141.56
519.61	1790.13
519.82	1922.43
520.02	1901.13
520.22	1885.77
520.43	1859.56
520.63	1829.86
520.83	1818.80
521.04	1689.57
521.24	1902.56
521.44	1840.71
521.65	1815.11
521.85	1979.16
522.05	1793.00
522.26	1832.93
522.46	2151.19
522.66	2012.13
522.87	1804.47
523.07	1985.51
523.27	1825.97
523.48	2084.01
523.68	1893.35
523.88	1873.07
524.09	2039.78
524.29	1886.38
524.49	1675.03
524.70	1956.83
524.90	2087.70
525.10	1986.12
525.31	1738.93
525.51	1754.29
525.71	2012.54
525.91	1958.88
526.12	1790.33
526.32	1745.89
526.52	1831.50
526.73	1816.96
526.93	1898.88
527.13	1722.75
527.34	1884.34
527.54	1896.21
527.74	1812.45
527.94	1732.38
528.15	1754.70
528.35	1899.29
528.55	1934.51
528.76	1889.05
528.96	1715.17
529.16	2000.66
529.36	1959.50
529.57	1759.00
529.77	2058.62
529.97	1780.91
530.18	1942.70
530.38	1812.25
530.58	1945.57
530.78	1939.84
530.99	1803.44
531.19	1940.66
531.39	1789.31
531.60	1919.36
531.80	1815.11
532.00	1955.40
532.20	1912.60
532.41	1809.38
532.61	1820.23
532.81	1833.75
533.01	1839.69
533.22	1951.30
533.42	1967.28
533.62	1701.25
533.82	2064.76
534.03	1863.04
534.23	1901.54
534.43	1756.54
534.63	1843.79
534.84	1902.15
535.04	1871.64
535.24	1885.56
535.44	2210.99
535.65	1825.15
535.85	1806.10
536.05	1799.35
536.25	1882.90
536.46	1790.13
536.66	1985.51
536.86	1897.24
537.06	1984.07
537.27	2066.40
537.47	1945.57
537.67	1827.20
537.87	2070.50
538.08	1866.31
538.28	1757.36
538.48	1753.47
538.68	1891.50
538.88	1970.35
539.09	1702.27
539.29	1836.62
539.49	2006.80
539.69	1929.60
539.90	1907.68
540.10	1761.05
540.30	2053.09
540.50	1814.30
540.70	1736.27
540.91	1859.76
541.11	1969.94
541.31	2062.10
541.51	1925.71
541.72	1949.87
541.92	1928.37
542.12	1815.73
542.32	1832.11
542.52	1786.03
542.73	1802.21
542.93	1949.67
543.13	1831.50
543.33	1946.59
543.53	2003.32
543.74	1977.31
543.94	1814.30
544.14	1943.93
544.34	2063.53
544.54	1883.31
544.75	1925.30
544.95	2038.75
545.15	2004.96
545.35	2095.28
545.55	1965.44
545.75	1808.77
545.96	2185.18
546.16	1812.45
546.36	1835.39
546.56	1872.87
546.76	2018.89
546.97	2096.30
547.17	1850.34
547.37	1914.24
547.57	1806.92
547.77	2009.06
547.97	1898.88
548.18	1914.03
548.38	1883.52
548.58	2076.23
548.78	1804.87
548.98	1916.08
549.18	2039.78
549.39	2147.70
549.59	1964.00
549.79	1901.54
549.99	2088.31
550.19	2030.36
550.39	1979.16
550.60	1850.13
550.80	1931.23
551.00	1928.16
551.20	1794.64
551.40	1815.73
551.60	1939.22
551.80	1927.14
552.01	1959.29
552.21	1849.11
552.41	1909.53
552.61	2128.66
552.81	1882.08
553.01	1793.00
553.21	1964.00
553.42	1806.92
553.62	1813.68
553.82	1792.38
554.02	2081.35
554.22	2018.27
554.42	1767.60
554.62	1915.67
554.83	2121.29
555.03	2121.70
555.23	1877.17
555.43	2130.09
555.63	1961.13
555.83	1955.40
556.03	1899.49
556.23	1761.25
556.44	1937.58
556.64	2073.98
556.84	1647.39
557.04	1858.74
557.24	1929.39
557.44	1920.38
557.64	1916.90
557.84	1781.73
558.04	1855.66
558.25	1993.70
558.45	1812.04
558.65	1878.19
558.85	1907.07
559.05	1692.85
559.25	1842.56
559.45	1963.39
559.65	2220.82
559.85	2545.83
560.05	1908.71
560.26	1948.44
560.46	1933.90
560.66	1868.57
560.86	1846.04
561.06	1796.48
561.26	2091.18
561.46	1990.22
561.66	1854.64
561.86	1968.92
562.06	1826.79
562.26	1883.72
562.47	1856.07
562.67	1755.93
562.87	1981.82
563.07	1739.95
563.27	1873.07
563.47	1891.91
563.67	1853.41
563.87	1963.80
564.07	1803.44
564.27	1848.91
564.47	1898.06
564.67	1957.45
564.87	1783.58
565.08	1944.96
565.28	1835.18
565.48	1962.57
565.68	1924.07
565.88	1948.64
566.08	2136.03
566.28	1927.14
566.48	1748.56
566.68	1845.02
566.88	1860.99
567.08	1996.97
567.28	1849.32
567.48	1874.51
567.68	1934.92
567.88	1740.57
568.08	1942.70
568.28	2012.13
568.48	1875.73
568.68	2039.78
568.89	1890.68
569.09	1736.06
569.29	1996.56
569.49	1998.61
569.69	1777.84
569.89	1791.36
570.09	1671.35
570.29	1800.78
570.49	1723.78
570.69	1834.78
570.89	2005.58
571.09	2158.35
571.29	1711.90
571.49	1990.83
571.69	1920.38
571.89	1931.44
572.09	1830.68
572.29	1833.75
572.49	1976.29
572.69	1961.13
572.89	1871.84
573.09	1625.88
573.29	1879.01
573.49	1916.69
573.69	1859.15
573.89	1971.99
574.09	1840.92
574.29	2030.15
574.49	1816.34
574.69	1806.92
574.89	1756.34
575.09	1782.76
575.29	1790.74
575.49	1864.88
575.69	1913.62
575.89	1728.49
576.09	1890.28
576.29	1893.35
576.49	1775.18
576.69	1856.48
576.89	1776.41
577.09	1850.54
577.29	1716.20
577.49	2136.85
577.69	1821.05
577.89	1943.73
578.09	1906.25
578.29	1698.99
578.49	1862.83
578.69	1780.91
578.89	2007.21
579.09	1882.90
579.29	1786.85
579.49	1976.70
579.69	1820.03
579.89	2106.34
580.09	1695.51
580.29	1723.57
580.49	1816.14
580.69	1775.59
580.89	1864.68
581.09	1849.73
581.29	1836.41
581.49	1876.96
581.69	1766.99
581.89	1805.28
582.09	1798.73
582.28	1803.03
582.48	1969.94
582.68	2039.37
582.88	2059.44
583.08	1866.52
583.28	1841.33
583.48	1873.89
583.68	1791.56
583.88	1896.83
584.08	1860.99
584.28	1894.78
584.48	2124.56
584.68	1951.71
584.88	1850.54
585.08	2013.77
585.28	2014.18
585.48	2043.67
585.68	1939.02
585.87	1970.76
586.07	1949.26
586.27	1870.41
586.47	1954.79
586.67	1885.16
586.87	1862.42
587.07	1838.87
587.27	1709.23
587.47	1872.05
587.67	2118.62
587.87	2232.90
588.07	1930.62
588.27	1835.59
588.46	2046.54
588.66	2030.15
588.86	1901.13
589.06	1968.92
589.26	1998.20
589.46	1964.62
589.66	1771.90
589.86	1769.65
590.06	1837.85
590.26	1961.13
590.46	1840.71
590.66	1943.52
590.85	1849.52
591.05	1960.32
591.25	1797.09
591.45	1827.40
591.65	1977.93
591.85	1929.60
592.05	1862.01
592.25	1954.58
592.45	2029.74
592.64	1854.64
592.84	1881.67
593.04	1777.43
593.24	2214.67
593.44	1844.40
593.64	1927.75
593.84	1983.87
594.04	1876.35
594.24	2086.88
594.43	1810.81
594.63	1877.37
594.83	2026.06
595.03	2004.55
595.23	1801.80
595.43	1734.42
595.63	1793.20
595.83	1995.34
596.02	1666.43
596.22	1906.66
596.42	1937.79
596.62	1879.22
596.82	1802.42
597.02	1951.71
597.22	2060.87
597.41	1922.43
597.61	1803.24
597.81	1940.66
598.01	1978.13
598.21	1850.13
598.41	1802.21
598.61	1765.35
598.80	1885.77
599.00	1903.18
599.20	1978.95
599.40	1821.05
599.60	1858.94
599.80	1990.42
599.99	2005.99
600.19	1856.89
600.39	1908.71
600.59	1967.28
600.79	1925.91
600.99	1911.16
601.19	2120.88
601.38	2131.73
601.58	1895.80
601.78	1680.56
601.98	1952.12
602.18	2000.05
602.37	2182.32
602.57	2006.19
602.77	2121.70
602.97	2072.75
603.17	2149.55
603.37	2051.04
603.56	2144.22
603.76	2095.28
603.96	2029.33
604.16	2060.26
604.36	2112.89
604.56	2075.62
604.75	1826.79
604.95	1888.64
605.15	2107.97
605.35	2041.01
605.55	1848.29
605.74	1810.81
605.94	2059.64
606.14	1914.85
606.34	1926.52
606.54	1895.80
606.73	1854.85
606.93	1971.37
607.13	1809.99
607.33	1892.12
607.53	2084.01
607.72	2022.98
607.92	1965.85
608.12	1983.05
608.32	1875.73
608.51	1968.10
608.71	1819.42
608.91	1934.31
609.11	1993.90
609.31	1893.76
609.50	1929.19
609.70	2077.87
609.90	2028.51
610.10	2025.44
610.29	1905.02
610.49	1789.31
610.69	1977.52
610.89	1914.24
611.09	1893.55
611.28	2029.95
611.48	2018.07
611.68	1893.14
611.88	1801.19
612.07	1794.02
612.27	1988.17
612.47	1820.23
612.67	1913.62
612.86	2000.87
613.06	1905.84
613.26	1733.20
613.46	1836.00
613.65	1874.10
613.85	2248.67
614.05	2014.18
614.25	1958.47
614.44	1874.51
614.64	1906.25
614.84	1851.77
615.04	1822.08
615.23	1808.15
615.43	2000.05
615.63	1983.05
615.83	1811.02
616.02	1721.11
616.22	1974.65
616.42	1768.01
616.62	1784.60
616.81	1845.42
617.01	1937.17
617.21	1896.83
617.41	1789.72
617.60	1892.94
617.80	1935.74
618.00	1991.04
618.19	1943.11
618.39	1932.05
618.59	1936.76
618.79	1887.20
618.98	1725.82
619.18	1883.93
619.38	2163.27
619.57	1865.49
619.77	1895.60
619.97	1865.09
620.17	1830.06
620.36	1748.56
620.56	1987.14
620.76	1747.33
620.95	1772.52
621.15	1857.71
621.35	1786.85
621.54	1814.91
621.74	1910.75
621.94	1814.50
622.14	1779.48
622.33	1729.51
622.53	1874.51
622.73	1845.02
622.92	1728.69
623.12	1881.06
623.32	2141.97
623.51	1960.11
623.71	1726.85
623.91	1985.10
624.10	1764.33
624.30	1891.50
624.50	1743.85
624.69	1745.48
624.89	2359.67
625.09	1837.03
625.29	1676.67
625.48	1756.34
625.68	1907.27
625.88	2031.79
626.07	1879.01
626.27	1769.85
626.47	1828.43
626.66	1726.85
626.86	1837.03
627.06	1844.81
627.25	1888.43
627.45	2117.19
627.64	1855.66
627.84	2042.44
628.04	1794.84
628.23	2171.05
628.43	1772.93
628.63	1784.60
628.82	1817.98
629.02	2127.02
629.22	1977.72
629.41	2040.80
629.61	1891.50
629.81	2143.81
630.00	1781.12
630.20	1769.24
630.40	1908.71
630.59	1956.42
630.79	1867.13
630.98	1851.16
631.18	1853.21
631.38	1887.82
631.57	1984.48
631.77	1723.16
631.97	1901.54
632.16	1946.80
632.36	1893.96
632.56	1909.12
632.75	1920.59
632.95	2044.28
633.14	1742.00
633.34	2017.66
633.54	1686.30
633.73	1831.29
633.93	1842.76
634.12	1711.69
634.32	2240.07
634.52	1876.35
634.71	1764.73
634.91	1930.62
635.11	1736.27
635.30	1775.59
635.50	1902.15
635.69	1761.87
635.89	2122.11
636.09	1976.09
636.28	1754.29
636.48	1776.82
636.67	1950.90
636.87	1958.27
637.07	1936.35
637.26	1818.80
637.46	1887.41
637.65	2015.41
637.85	1872.66
638.04	1806.31
638.24	1834.78
638.44	1925.09
638.63	1854.03
638.83	1841.53
639.02	1946.80
639.22	1973.83
639.42	1833.34
639.61	1858.33
639.81	1863.24
640.00	1865.90
640.20	1970.76
640.39	1923.66
640.59	2118.21
640.79	2025.65
640.98	1936.56
641.18	1865.09
641.37	1897.24
641.57	1820.44
641.76	1849.32
641.96	1706.16
642.15	1898.06
642.35	1809.79
642.55	1862.83
642.74	1733.20
642.94	1966.25
643.13	2010.29
643.33	1848.91
643.52	1793.82
643.72	1817.16
643.91	1891.71
644.11	1811.43
644.31	1792.18
644.50	1829.25
644.70	2037.52
644.89	1842.35
645.09	1924.89
645.28	1881.67
645.48	1974.04
645.67	1773.54
645.87	1682.41
646.06	1870.41
646.26	1914.44
646.45	1681.79
646.65	1643.29
646.84	2099.17
647.04	1847.68
647.24	1722.75
647.43	1877.58
647.63	1905.02
647.82	2048.58
648.02	1719.47
648.21	1780.91
648.41	2039.16
648.60	1823.72
648.80	1979.77
648.99	1878.60
649.19	1816.34
649.38	1723.78
649.58	1870.21
649.77	1883.93
649.97	2016.23
650.16	1933.08
650.36	1668.48
650.55	1941.68
650.75	1918.54
650.94	2073.57
651.14	1842.15
651.33	1889.25
651.53	2084.42
651.72	1786.85
651.92	1875.53
652.11	1691.83
652.31	1948.03
652.50	1929.80
652.70	1916.28
652.89	1748.76
653.09	2088.31
653.28	1835.18
653.48	1669.09
653.67	1692.24
653.87	2289.42
654.06	1872.05
654.25	2030.36
654.45	1802.01
654.64	1846.65
654.84	1877.99
655.03	1666.23
655.23	1960.11
655.42	1964.62
655.62	2102.44
655.81	1865.49
656.01	1749.78
656.20	1976.09
656.40	2074.39
656.59	1860.37
656.79	2014.59
656.98	1908.50
657.17	2002.09
657.37	1880.65
657.56	1802.42
657.76	1895.19
657.95	1997.38
658.15	1555.84
658.34	1861.19
658.54	1887.61
658.73	1760.02
658.92	1803.85
659.12	1891.71
659.31	1937.99
659.51	1749.99
659.70	1926.93
659.90	1830.68
660.09	1988.99
660.29	1867.34
660.48	1789.52
660.67	2016.02
660.87	1834.16
661.06	1933.28
661.26	1969.74
661.45	1921.40
661.65	1930.42
661.84	1826.17
662.03	1782.14
662.23	1803.65
662.42	2137.26
662.62	1743.03
662.81	1745.48
663.00	1832.93
663.20	1859.97
663.39	1932.67
663.59	1935.74
663.78	1813.89
663.97	1793.00
664.17	1998.20
664.36	1714.56
664.56	1774.56
664.75	2006.80
664.94	1962.77
665.14	1863.45
665.33	1835.39
665.53	1891.91
665.72	1867.75
665.91	1990.42
666.11	1896.01
666.30	1918.13
666.50	1852.39
666.69	1881.06
666.88	1818.80
667.08	1897.24
667.27	1838.05
667.47	1856.28
667.66	1805.49
667.85	1986.73
668.05	1875.12
668.24	1769.24
668.43	1987.55
668.63	1813.07
668.82	2033.43
669.02	1923.04
669.21	1843.79
669.40	1722.14
669.60	2108.38
669.79	1732.38
669.98	2325.26
670.18	1758.59
670.37	1755.72
670.56	1837.64
670.76	1900.92
670.95	1873.89
671.15	2003.53
671.34	1917.10
671.53	1867.54
671.73	1822.28
671.92	1774.97
672.11	1749.37
672.31	1820.03
672.50	1949.26
672.69	1736.27
672.89	1672.17
673.08	1832.11
673.27	1981.82
673.47	1910.96
673.66	1901.54
673.85	1758.18
674.05	1890.48
674.24	1926.11
674.43	1795.86
674.63	2007.62
674.82	2242.94
675.01	1720.09
675.21	2046.33
675.40	1906.25
675.59	1848.09
675.79	2101.22
675.98	1826.38
676.17	1970.15
676.37	1962.57
676.56	1835.39
676.75	1890.28
676.95	1869.80
677.14	1861.19
677.33	2002.91
677.52	1765.55
677.72	1810.61
677.91	1908.91
678.10	1695.92
678.30	1768.22
678.49	1738.32
678.68	2141.15
678.88	1682.20
679.07	1991.44
679.26	1816.34
679.45	2121.49
679.65	2040.80
679.84	1658.45
680.03	1696.13
680.23	1854.85
680.42	2219.18
680.61	1741.18
680.81	1806.51
681.00	1898.47
681.19	1942.91
681.38	1949.05
681.58	1937.79
681.77	1823.51
681.96	1957.04
682.15	1815.93
682.35	1902.36
682.54	1941.06
682.73	1749.58
682.93	1790.95
683.12	1768.83
683.31	1977.31
683.50	2202.18
683.70	1801.80
683.89	1863.65
684.08	1760.23
684.27	2019.09
684.47	1685.27
684.66	1875.32
684.85	2106.54
685.04	2029.54
685.24	1768.22
685.43	1876.14
685.62	1667.87
685.81	1906.45
686.01	1901.54
686.20	1808.56
686.39	1745.89
686.58	2187.03
686.78	1930.42
686.97	1943.52
687.16	2041.21
687.35	1947.62
687.55	1867.75
687.74	1890.48
687.93	1776.41
688.12	1898.88
688.32	1885.77
688.51	1698.18
688.70	1925.09
688.89	1734.22
689.08	1724.39
689.28	1778.25
689.47	1886.79
689.66	1897.44
689.85	1932.87
690.05	1789.31
690.24	1774.56
690.43	1912.60
690.62	1894.17
690.81	1795.66
691.01	1880.85
691.20	1808.77
691.39	1761.25
691.58	1913.42
691.77	2093.23
691.97	1882.49
692.16	1903.38
692.35	1832.93
692.54	1807.74
692.73	1923.66
692.93	1881.88
693.12	1918.74
693.31	1950.28
693.50	1920.38
693.69	1968.92
693.89	1857.10
694.08	2054.11
694.27	2053.70
694.46	1798.53
694.65	1885.16
694.85	1954.99
695.04	1945.78
695.23	1822.08
695.42	1996.56
695.61	2085.86
695.80	2202.18
696.00	2319.12
696.19	2344.31
696.38	2065.58
696.57	2125.38
696.76	2123.54
696.95	2009.88
697.15	2177.81
697.34	2174.12
697.53	1913.42
697.72	1949.46
697.91	1920.18
698.10	2081.97
698.30	1865.70
698.49	1863.86
698.68	1927.75
698.87	1839.08
699.06	1743.64
699.25	1871.43
699.45	2025.65
699.64	1896.42
699.83	1937.79
700.02	1804.47
700.21	1935.33
700.40	1809.18
700.59	1853.00
700.79	1851.98
700.98	1962.77
701.17	1805.08
701.36	1822.49
701.55	1782.35
701.74	2015.00
701.93	1759.21
702.12	1879.83
702.32	1783.58
702.51	2029.33
702.70	1995.75
702.89	1927.14
703.08	1828.02
703.27	2043.87
703.46	1969.12
703.65	1820.23
703.85	1738.52
704.04	1842.76
704.23	2021.96
704.42	1762.69
704.61	1825.97
704.80	2101.22
704.99	1818.19
705.18	1890.07
705.37	1816.96
705.57	1971.37
705.76	2160.20
705.95	1990.83
706.14	2308.47
706.33	2349.22
706.52	2518.18
706.71	2155.28
706.90	2008.03
707.09	2116.99
707.28	2040.60
707.47	1898.47
707.67	2005.17
707.86	1877.78
708.05	2070.29
708.24	1891.71
708.43	1910.96
708.62	1862.42
708.81	1790.13
709.00	1751.01
709.19	1800.16
709.38	1995.75
709.57	1771.29
709.76	1904.00
709.96	1826.99
710.15	2045.92
710.34	1879.42
710.53	1946.80
710.72	1883.52
710.91	2039.78
711.10	1947.00
711.29	1949.46
711.48	1803.44
711.67	1755.72
711.86	1916.08
712.05	1772.52
712.24	1795.45
712.43	1968.30
712.62	2042.44
712.81	1894.58
713.00	2006.80
713.19	1745.48
713.39	1955.61
713.58	1745.07
713.77	1861.81
713.96	1921.40
714.15	1856.07
714.34	1840.10
714.53	1758.59
714.72	2124.97
714.91	1742.62
715.10	1847.27
715.29	1729.92
715.48	2257.48
715.67	1964.41
715.86	1891.50
716.05	1849.11
716.24	1865.90
716.43	1841.33
716.62	1757.98
716.81	1716.40
717.00	1837.44
717.19	2099.78
717.38	1835.18
717.57	1878.19
717.76	1720.09
717.95	1994.52
718.14	1870.21
718.33	1833.75
718.52	1714.56
718.71	1680.56
718.90	1737.09
719.09	1820.03
719.28	1840.51
719.47	2015.82
719.66	1942.70
719.85	1939.84
720.04	1838.46
720.23	1897.44
720.42	1798.12
720.61	1902.77
720.80	1750.60
720.99	1916.90
721.18	1823.10
721.37	1760.84
721.56	1853.00
721.75	1977.72
721.94	1741.59
722.13	1828.43
722.32	1819.01
722.51	1974.24
722.70	1865.70
722.89	1920.99
723.08	1833.96
723.27	1994.11
723.46	1898.06
723.65	1819.83
723.84	1830.47
724.03	2032.61
724.22	1731.97
724.41	1921.20
724.60	1831.29
724.79	1991.24
724.98	1936.15
725.16	1831.50
725.35	1949.26
725.54	1748.97
725.73	1864.68
725.92	1858.53
726.11	1868.57
726.30	1978.34
726.49	1796.07
726.68	1880.65
726.87	1964.62
727.06	2092.61
727.25	1845.02
727.44	1965.23
727.63	1909.12
727.82	1855.87
728.01	1901.13
728.20	1957.04
728.38	2048.58
728.57	1854.03
728.76	1855.05
728.95	1948.64
729.14	1733.81
729.33	1772.52
729.52	1640.42
729.71	1774.36
729.90	1770.67
730.09	1796.89
730.28	1830.27
730.47	1796.27
730.66	2015.41
730.84	1882.90
731.03	1861.60
731.22	1917.10
731.41	1894.78
731.60	1939.63
731.79	1668.07
731.98	1775.79
732.17	1925.71
732.36	1933.90
732.55	1793.82
732.73	1746.10
732.92	1997.38
733.11	1936.15
733.30	1792.18
733.49	1701.25
733.68	1932.26
733.87	1871.23
734.06	1733.61
734.25	1746.30
734.43	1807.95
734.62	1921.61
734.81	1859.76
735.00	1854.64
735.19	1875.73
735.38	1930.21
735.57	1712.92
735.76	1901.33
735.94	1937.99
736.13	2173.92
736.32	2021.55
736.51	1951.51
736.70	2231.47
736.89	2232.90
737.08	2124.15
737.27	2212.83
737.45	2430.73
737.64	2372.37
737.83	2528.42
738.02	2473.74
738.21	2547.88
738.40	2504.67
738.59	2157.33
738.77	2239.66
738.96	2087.90
739.15	2116.58
739.34	2136.85
739.53	2069.68
739.72	2187.64
739.90	2119.65
740.09	1854.64
740.28	1923.04
740.47	1999.02
740.66	1983.66
740.85	1789.52
741.03	1864.47
741.22	1757.36
741.41	1871.84
741.60	1703.91
741.79	1889.05
741.98	2024.01
742.16	2106.13
742.35	1903.59
742.54	1842.35
742.73	2131.32
742.92	1834.16
743.10	1721.11
743.29	1808.77
743.48	2181.09
743.67	1798.73
743.86	1707.80
744.05	1724.59
744.23	1775.18
744.42	1773.34
744.61	1860.17
744.80	1732.17
744.99	1797.30
745.17	1659.88
745.36	1680.15
745.55	1885.36
745.74	1860.17
745.93	1789.72
746.11	1756.54
746.30	1768.63
746.49	1985.30
746.68	1740.57
746.86	1848.29
747.05	1829.45
747.24	1942.09
747.43	1950.90
747.62	1727.05
747.80	1790.74
747.99	2055.75
748.18	1966.46
748.37	1917.51
748.56	1917.72
748.74	1984.89
748.93	1906.25
749.12	2084.42
749.31	2504.26
749.49	2884.77
749.68	3157.15
749.87	3409.05
750.06	3344.95
750.24	3315.87
750.43	3245.62
750.62	3316.89
750.81	3380.99
750.99	3490.35
751.18	3448.98
751.37	3073.80
751.56	2935.35
751.74	3110.86
751.93	3121.51
752.12	2437.70
752.31	2325.26
752.49	2292.70
752.68	2448.76
752.87	2204.43
753.06	2025.85
753.24	1999.84
753.43	2135.01
753.62	1860.78
753.81	1861.40
753.99	2082.99
754.18	1962.98
754.37	1772.31
754.55	1906.86
754.74	2105.52
754.93	1686.30
755.12	1809.18
755.30	1784.60
755.49	1978.54
755.68	1901.95
755.86	1905.02
756.05	1739.34
756.24	2029.74
756.43	1720.50
756.61	1749.17
756.80	1895.60
756.99	2013.97
757.17	1851.77
757.36	1741.39
757.55	1825.76
757.74	1902.97
757.92	1870.41
758.11	1693.06
758.30	1665.41
758.48	1823.72
758.67	1713.95
758.86	1827.81
759.04	1699.20
759.23	1824.74
759.42	1849.11
759.60	1750.81
759.79	1822.28
759.98	1812.04
760.16	1786.24
760.35	1760.02
760.54	1717.84
760.73	1914.65
760.91	1702.48
761.10	1885.56
761.29	1873.07
761.47	1835.59
761.66	2150.16
761.85	1869.80
762.03	1941.06
762.22	2177.20
762.41	2689.60
762.59	3233.33
762.78	3518.41
762.97	4183.59
763.15	4209.80
763.34	3897.69
763.52	3311.77
763.71	3187.66
763.90	3258.93
764.08	2912.42
764.27	2875.96
764.46	2921.02
764.64	2589.04
764.83	2515.93
765.02	2435.65
765.20	2377.08
765.39	2299.46
765.58	1976.29
765.76	2029.95
765.95	2008.24
766.13	1938.61
766.32	1891.50
766.51	1898.06
766.69	2424.18
766.88	1910.55
767.07	1750.81
767.25	1666.64
767.44	1991.44
767.62	1997.59
767.81	1779.48
768.00	1877.58
768.18	1877.58
768.37	1796.48
768.56	1668.07
768.74	1783.17
768.93	1711.49
769.11	1921.20
769.30	1845.63
769.49	1787.67
769.67	1861.81
769.86	1804.47
770.04	1814.09
770.23	1826.17
770.42	2020.32
770.60	1893.14
770.79	1732.99
770.97	1794.02
771.16	2057.39
771.35	2060.87
771.53	2154.67
771.72	2223.68
771.90	2426.23
772.09	2632.66
772.27	2494.63
772.46	2210.17
772.65	2368.27
772.83	2246.21
773.02	2184.77
773.20	2029.33
773.39	2153.44
773.58	2152.62
773.76	1880.65
773.95	1962.98
774.13	2029.33
774.32	1893.55
774.50	1813.07
774.69	1892.94
774.87	1873.07
775.06	2148.11
775.25	1777.43
775.43	1873.07
775.62	1914.85
775.80	1961.75
775.99	1913.62
776.17	1783.17
776.36	1848.29
776.54	1944.75
776.73	1749.17
776.92	1822.08
777.10	1902.15
777.29	1852.18
777.47	1710.87
777.66	1766.58
777.84	1851.57
778.03	1821.87
778.21	1716.61
778.40	1848.50
778.58	1918.74
778.77	1976.29
778.95	1683.43
779.14	1761.87
779.32	2092.20
779.51	1979.16
779.70	1832.32
779.88	1703.30
780.07	1816.75
780.25	2204.43
780.44	1807.54
780.62	1965.44
780.81	1954.17
780.99	1934.31
781.18	1829.86
781.36	1810.40
781.55	1881.26
781.73	2053.50
781.92	1730.94
782.10	1702.07
782.29	1926.93
782.47	2056.37
782.66	1847.27
782.84	1693.67
783.03	1802.01
783.21	2037.11
783.40	1809.38
783.58	1812.66
783.77	1794.43
783.95	1830.88
784.14	1742.41
784.32	1841.74
784.51	2010.08
784.69	1766.37
784.88	1696.54
785.06	1824.74
785.24	1698.38
785.43	1998.20
785.61	1910.55
785.80	1755.72
785.98	1905.23
786.17	1889.05
786.35	1732.58
786.54	1904.20
786.72	1986.12
786.91	1994.93
787.09	1825.76
787.28	1733.61
787.46	1866.72
787.65	1965.03
787.83	1716.20
788.01	1830.68
788.20	1724.39
788.38	1854.23
788.57	1773.75
788.75	1798.53
788.94	2104.70
789.12	2029.95
789.31	1856.28
789.49	1936.15
789.67	1815.73
789.86	1887.00
790.04	1761.05
790.23	1674.83
790.41	2139.31
790.60	1840.30
790.78	1820.44
790.96	1843.17
791.15	1965.85
791.33	1852.18
791.52	1813.89
791.70	1752.45
791.89	1863.24
792.07	1954.17
792.25	1846.45
792.44	1694.69
792.62	2021.96
792.81	1791.97
792.99	1850.13
793.17	1774.56
793.36	1765.35
793.54	2100.40
793.73	2107.56
793.91	2073.16
794.10	2315.02
794.28	2450.39
794.46	2266.49
794.65	2310.93
794.83	2113.71
795.01	2138.28
795.20	2247.65
795.38	2115.14
795.57	2149.75
795.75	2110.84
795.93	1994.52
796.12	2021.55
796.30	2053.50
796.49	2040.39
796.67	1808.15
796.85	1990.63
797.04	1903.59
797.22	1949.46
797.40	1736.06
797.59	1900.72
797.77	1903.59
797.96	1769.04
798.14	1778.87
798.32	1787.06
798.51	1960.32
798.69	2111.87
798.87	1835.59
799.06	1813.07
799.24	1708.83
799.42	2005.37
799.61	1951.10
799.79	2024.83
799.98	2344.51
800.16	2107.77
800.34	2283.08
800.53	2466.98
800.71	2485.21
800.89	2881.90
801.08	2772.34
801.26	2736.50
801.44	2506.71
801.63	2328.34
801.81	2325.26
801.99	2282.87
802.18	2198.70
802.36	2215.70
802.54	2217.95
802.73	1970.76
802.91	2083.40
803.09	2051.45
803.28	2065.17
803.46	2047.97
803.64	2162.04
803.83	1813.27
804.01	1829.25
804.19	1747.12
804.38	1980.80
804.56	1969.12
804.74	1830.06
804.92	1878.81
805.11	1753.06
805.29	1999.23
805.47	1802.62
805.66	1701.66
805.84	1723.78
806.02	1971.37
806.21	1814.91
806.39	1957.24
806.57	1991.44
806.76	1973.83
806.94	1861.60
807.12	1771.49
807.30	1791.15
807.49	1882.08
807.67	1837.85
807.85	1927.75
808.04	1970.35
808.22	2146.68
808.40	1715.79
808.58	1709.64
808.77	1908.91
808.95	2045.31
809.13	1886.38
809.31	2246.42
809.50	2476.40
809.68	2637.37
809.86	2539.48
810.05	2656.01
810.23	3101.03
810.41	3453.08
810.59	5007.49
810.78	5808.45
810.96	6597.12
811.14	7062.22
811.32	6677.40
811.51	5694.38
811.69	5003.39
811.87	4974.72
812.05	4466.62
812.24	4313.02
812.42	4161.47
812.60	3934.15
812.78	3391.23
812.97	3128.07
813.15	3250.33
813.33	2894.60
813.51	2733.63
813.70	2357.62
813.88	2210.99
814.06	2223.27
814.24	2120.26
814.42	1879.42
814.61	2015.61
814.79	2153.23
814.97	1720.29
815.15	1838.46
815.34	1915.06
815.52	1983.66
815.70	1745.48
815.88	1799.55
816.06	1753.68
816.25	1805.28
816.43	1749.17
816.61	1905.23
816.79	2033.02
816.98	1692.24
817.16	1769.45
817.34	1732.79
817.52	1905.63
817.70	2059.23
817.89	1805.49
818.07	1730.53
818.25	1859.76
818.43	1900.11
818.61	1811.43
818.80	1782.96
818.98	2098.14
819.16	1886.59
819.34	1717.02
819.52	2038.75
819.70	1777.02
819.89	1876.35
820.07	1711.28
820.25	1676.26
820.43	1911.78
820.61	2017.25
820.80	1848.70
820.98	1744.87
821.16	1681.38
821.34	1713.13
821.52	1828.22
821.70	1876.14
821.89	1864.68
822.07	1821.46
822.25	1797.30
822.43	1752.86
822.61	2039.98
822.79	1923.86
822.98	1820.64
823.16	1655.78
823.34	1913.01
823.52	2030.77
823.70	1928.98
823.88	1706.57
824.06	1952.74
824.25	1857.30
824.43	1934.51
824.61	1754.29
824.79	1845.63
824.97	1890.48
825.15	1947.00
825.33	2055.55
825.52	2163.47
825.70	2088.31
825.88	2039.78
826.06	2180.88
826.24	2184.16
826.42	2188.66
826.60	2051.04
826.78	2116.37
826.97	2011.92
827.15	2151.39
827.33	1864.47
827.51	1995.34
827.69	1882.70
827.87	1984.89
828.05	2013.56
828.23	1822.69
828.41	2017.04
828.60	1975.88
828.78	1718.45
828.96	1879.42
829.14	1789.52
829.32	1836.21
829.50	1825.35
829.68	1804.47
829.86	1831.29
830.04	1953.35
830.22	1883.52
830.41	1724.59
830.59	1836.21
830.77	1931.85
830.95	1800.57
831.13	1770.88
831.31	1785.83
831.49	2005.99
831.67	1979.16
831.85	1937.17
832.03	1831.50
832.21	1957.86
832.39	1730.74
832.57	1735.86
832.76	1981.41
832.94	1826.17
833.12	1675.03
833.30	1817.57
833.48	2041.62
833.66	1898.67
833.84	1772.72
834.02	1837.23
834.20	1958.68
834.38	1988.17
834.56	1653.33
834.74	1731.56
834.92	1712.72
835.10	2089.13
835.28	1876.14
835.46	1825.35
835.64	1835.39
835.82	1812.66
836.01	2038.75
836.19	1968.30
836.37	1786.65
836.55	1752.86
836.73	1748.15
836.91	1718.45
837.09	1946.80
837.27	2024.01
837.45	1693.26
837.63	1722.34
837.81	1708.42
837.99	1856.69
838.17	1789.92
838.35	1755.93
838.53	2135.62
838.71	1923.04
838.89	1759.00
839.07	1772.93
839.25	1877.37
839.43	1981.41
839.61	1816.34
839.79	2148.93
839.97	2297.00
840.15	2394.69
840.33	2375.03
840.51	2638.40
840.69	2438.72
840.87	2305.81
841.05	2335.09
841.23	2200.13
841.41	2439.13
841.59	2913.65
841.77	2975.70
841.95	3096.12
842.13	3416.22
842.31	3145.68
842.49	2783.39
842.67	2787.29
842.85	2761.89
843.03	2436.26
843.21	2434.22
843.39	2527.40
843.57	2392.03
843.75	2343.49
843.93	2197.88
844.11	2115.96
844.29	2137.46
844.47	2068.65
844.65	2167.16
844.83	1929.39
845.01	1937.58
845.19	2066.20
845.36	1884.34
845.54	1976.49
845.72	1934.72
845.90	1985.92
846.08	1747.94
846.26	1827.40
846.44	1953.97
846.62	1942.91
846.80	1854.44
846.98	1780.30
847.16	1832.93
847.34	1896.62
847.52	1746.51
847.70	1750.81
847.88	1849.11
848.06	2049.61
848.24	1896.42
848.41	1698.79
848.59	1989.81
848.77	1934.72
848.95	1767.81
849.13	1806.31
849.31	1991.65
849.49	1917.92
849.67	1720.91
849.85	1737.50
850.03	1913.83
850.21	1883.52
850.39	1786.24
850.57	1902.77
850.74	2055.96
850.92	2050.84
851.10	1978.54
851.28	1942.29
851.46	2106.75
851.64	2378.51
851.82	2105.31
852.00	2143.81
852.18	2279.59
852.36	2155.90
852.53	1968.51
852.71	2047.15
852.89	2033.43
853.07	2088.11
853.25	1861.40
853.43	1773.75
853.61	1942.91
853.79	1961.34
853.97	1814.71
854.14	1801.60
854.32	2037.93
854.50	1998.41
854.68	1810.81
854.86	1792.59
855.04	1784.19
855.22	1927.55
855.40	1708.62
855.57	1790.33
855.75	1983.25
855.93	1958.88
856.11	1679.54
856.29	1756.13
856.47	1790.74
856.65	1900.31
856.82	1749.78
857.00	1707.60
857.18	1829.86
857.36	1797.30
857.54	1872.25
857.72	1929.19
857.89	1940.45
858.07	1854.03
858.25	1988.78
858.43	1696.95
858.61	1829.04
858.79	1875.73
858.97	1761.87
859.14	1897.24
859.32	1824.54
859.50	1832.93
859.68	1883.52
859.86	1758.59
860.03	1869.59
860.21	1910.35
860.39	1756.34
860.57	1857.10
860.75	1908.30
860.93	2092.41
861.10	1947.82
861.28	1802.01
861.46	1904.41
861.64	1918.74
861.82	1819.42
861.99	1883.72
862.17	1994.72
862.35	2021.14
862.53	1832.93
862.71	1831.50
862.88	1935.33
863.06	1962.77
863.24	1812.86
863.42	1753.06
863.60	1858.53
863.77	1925.30
863.95	1672.58
864.13	1837.23
864.31	1843.99
864.49	1952.94
864.66	1701.45
864.84	1814.91
865.02	1912.60
865.20	2175.35
865.37	1879.22
865.55	1758.80
865.73	1735.04
865.91	1974.24
866.09	1930.82
866.26	1858.12
866.44	1960.32
866.62	1837.03
866.80	1731.97
866.97	1863.86
867.15	1867.13
867.33	1887.00
867.51	1915.06
867.68	1830.27
867.86	1813.89
868.04	1800.37
868.22	1653.12
868.39	1791.36
868.57	1909.32
868.75	2038.55
868.93	1704.52
869.10	1780.09
869.28	2126.00
869.46	2030.15
869.64	1846.65
869.81	1807.13
869.99	1891.71
870.17	1906.25
870.35	1763.51
870.52	1759.41
870.70	1978.54
870.88	1797.50
871.05	1740.16
871.23	1624.45
871.41	1840.92
871.59	1881.47
871.76	1806.92
871.94	1764.73
872.12	1889.46
872.29	1717.43
872.47	1800.78
872.65	1757.77
872.83	1911.16
873.00	2036.09
873.18	1823.51
873.36	1760.02
873.53	1968.92
873.71	1693.47
873.89	1775.79
874.06	1836.21
874.24	1921.81
874.42	2039.37
874.60	1931.44
874.77	1885.36
874.95	1778.46
875.13	1995.13
875.30	1763.92
875.48	1808.15
875.66	2046.13
875.83	1781.53
876.01	1816.55
876.19	1907.89
876.36	1707.39
876.54	1863.04
876.72	1713.33
876.89	1899.90
877.07	1966.25
877.25	1675.24
877.42	1854.44
877.60	1836.62
877.78	2113.71
877.95	1833.96
878.13	1778.25
878.31	1890.68
878.48	1989.60
878.66	1977.72
878.84	1764.12
879.01	1839.69
879.19	1939.22
879.37	1940.66
879.54	1822.49
879.72	1735.24
879.90	1653.53
880.07	1965.03
880.25	1581.24
880.42	1927.34
880.60	1892.32
880.78	1978.54
880.95	1805.90
881.13	1843.38
881.31	1846.86
881.48	1815.73
881.66	1771.08
881.83	1874.30
882.01	1784.80
882.19	1719.06
882.36	1852.80
882.54	1817.16
882.72	1960.32
882.89	1881.88
883.07	1743.03
883.24	1813.07
883.42	1953.97
883.60	1880.65
883.77	1749.78
883.95	1799.55
884.12	1974.24
884.30	1902.97
884.48	1927.14
884.65	1856.69
884.83	1895.80
885.00	1923.45
885.18	1719.68
885.36	1789.92
885.53	1942.29
885.71	2017.04
885.88	1726.23
886.06	1797.91
886.23	1935.54
886.41	1844.20
886.59	1768.83
886.76	1788.49
886.94	1931.44
887.11	2242.53
887.29	1815.52
887.47	1670.12
887.64	2016.23
887.82	2009.26
887.99	1668.89
888.17	1857.51
888.34	1837.23
888.52	1766.99
888.69	1855.25
888.87	1750.81
889.05	1812.04
889.22	1847.27
889.40	1790.13
889.57	1967.89
889.75	2068.04
889.92	1851.57
890.10	1734.63
890.27	1793.00
890.45	1787.06
890.62	1691.42
890.80	1734.63
890.98	1699.20
891.15	2060.26
891.33	1966.25
891.50	1783.37
891.68	1716.40
891.85	1967.89
892.03	1928.98
892.20	1788.08
892.38	1761.46
892.55	1950.49
892.73	1998.61
892.90	1710.05
893.08	1771.49
893.25	1793.82
893.43	1811.84
893.60	1927.14
893.78	1636.74
893.95	1930.21
894.13	1857.10
894.30	1751.83
894.48	1855.66
894.65	1976.09
894.83	1899.70
895.00	1638.78
895.18	1660.90
895.35	1986.73
895.53	1970.76
895.70	1719.68
895.88	1892.12
896.05	1916.90
896.23	1687.53
896.40	1788.29
896.58	1841.53
896.75	1964.62
896.93	2044.28
897.10	1794.02
897.28	1722.14
897.45	1891.71
897.63	1963.59
897.80	1931.64
897.98	1839.49
898.15	1930.01
898.33	1753.68
898.50	1883.93
898.67	1834.78
898.85	1823.10
899.02	1931.44
899.20	1962.77
899.37	1794.23
899.55	1878.40
899.72	2016.63
899.90	1742.00
900.07	1766.17
900.25	1924.07
900.42	2019.30
900.59	1759.41
900.77	1919.97
900.94	1922.63
901.12	1911.16
901.29	1783.99
901.47	1916.90
901.64	1940.25
901.82	1873.89
901.99	1607.86
902.16	1764.94
902.34	1990.83
902.51	1892.73
902.69	1775.79
902.86	1832.11
903.03	2326.08
903.21	1881.06
903.38	1830.68
903.56	1787.67
903.73	2001.28
903.91	1822.69
904.08	1736.68
904.25	1658.85
904.43	1782.35
904.60	1973.83
904.78	1787.26
904.95	1713.74
905.12	1832.93
905.30	2082.37
905.47	1866.93
905.65	1920.79
905.82	1832.32
905.99	1918.13
906.17	1825.76
906.34	1718.66
906.52	1758.39
906.69	1962.16
906.86	1897.65
907.04	1828.22
907.21	1960.73
907.38	1973.22
907.56	1763.71
907.73	1790.13
907.91	2043.26
908.08	1993.90
908.25	1759.41
908.43	1734.02
908.60	1936.15
908.77	1898.26
908.95	1776.61
909.12	1744.25
909.30	1940.04
909.47	1703.30
909.64	1823.51
909.82	1907.07
909.99	1830.27
910.16	1880.65
910.34	1744.87
910.51	1800.98
910.68	1898.26
910.86	1897.03
911.03	1712.31
911.20	1804.47
911.38	2094.25
911.55	2462.48
911.72	2493.20
911.90	2404.32
912.07	2668.71
912.24	2821.08
912.42	2345.54
912.59	2096.71
912.76	2266.28
912.94	2115.14
913.11	1994.31
913.28	1872.05
913.46	1848.29
913.63	2014.38
913.80	2152.21
913.98	1846.86
914.15	2023.39
914.32	2040.80
914.49	1931.85
914.67	1771.49
914.84	1922.22
915.01	1963.80
915.19	1868.16
915.36	1791.15
915.53	1985.71
915.71	1951.51
915.88	1887.20
916.05	1789.31
916.22	2009.26
916.40	1928.78
916.57	1744.25
916.74	1871.23
916.92	2048.38
917.09	1735.24
917.26	1713.95
917.43	1703.71
917.61	1812.86
917.78	1663.57
917.95	1652.92
918.13	1710.05
918.30	2131.94
918.47	1902.77
918.64	1731.15
918.82	1733.40
918.99	1849.93
919.16	2062.71
919.33	1796.27
919.51	1754.49
919.68	1857.30
919.85	2006.60
920.02	1663.97
920.20	1800.57
920.37	2082.99
920.54	1962.16
920.71	1738.93
920.89	1763.10
921.06	2083.19
921.23	1755.93
921.40	1685.68
921.58	1891.71
921.75	2322.60
921.92	1873.48
922.09	1924.48
922.27	1916.28
922.44	1920.99
922.61	1998.82
922.78	1856.07
922.96	1796.27
923.13	1847.88
923.30	1997.79
923.47	1688.14
923.64	1756.34
923.82	1918.33
923.99	1889.05
924.16	1855.05
924.33	1705.75
924.50	1876.14
924.68	2066.61
924.85	1746.51
925.02	1770.47
925.19	1959.09
925.36	1887.82
925.54	1850.13
925.71	1824.74
925.88	2246.01
926.05	1840.10
926.22	1733.20
926.40	1840.30
926.57	1888.84
926.74	1945.37
926.91	1769.24
927.08	1954.38
927.26	2004.76
927.43	1870.61
927.60	1728.90
927.77	1830.47
927.94	2073.16
928.11	2035.27
928.29	1675.03
928.46	1829.86
928.63	1778.25
928.80	1819.83
928.97	1887.82
929.14	1729.10
929.32	2164.09
929.49	1879.83
929.66	1772.31
929.83	1672.17
930.00	1802.42
930.17	1927.34
930.35	1695.31
930.52	1780.30
930.69	2052.88
930.86	1767.19
931.03	1861.81
931.20	1604.58
931.37	1996.77
931.55	1857.71
931.72	1829.04
931.89	1697.36
932.06	1746.92
932.23	2081.97
932.40	1911.78
932.57	1851.36
932.74	1995.75
932.92	2017.66
933.09	1900.11
933.26	1574.27
933.43	1805.28
933.60	1908.91
933.77	1847.06
933.94	1867.34
934.11	1840.30
934.29	1907.89
934.46	1693.47
934.63	1842.15
934.80	1709.44
934.97	1867.75
935.14	1796.89
935.31	1676.06
935.48	1792.18
935.65	1893.76
935.82	1844.81
936.00	1708.01
936.17	2051.25
936.34	1877.58
936.51	1906.25
936.68	1710.26
936.85	1890.68
937.02	1886.79
937.19	1857.92
937.36	1804.06
937.53	1910.75
937.70	1970.97
937.87	1834.16
938.05	1901.95
938.22	1869.80
938.39	1729.30
938.56	1774.16
938.73	1750.60
938.90	1855.05
939.07	1798.73
939.24	1830.27
939.41	1673.80
939.58	1916.49
939.75	1920.38
939.92	1737.70
940.09	1950.28
940.26	1809.18
940.43	1961.34
940.60	1769.65
940.77	1819.01
940.95	1898.88
941.12	1966.46
941.29	1800.98
941.46	1844.61
941.63	2026.87
941.80	2031.18
941.97	1676.47
942.14	1711.69
942.31	1932.67
942.48	1858.33
942.65	1869.39
942.82	1819.42
942.99	1941.88
943.16	1896.83
943.33	1723.57
943.50	1784.80
943.67	1968.71
943.84	1992.26
944.01	1798.73
944.18	1735.04
944.35	2033.22
944.52	1761.87
944.69	1849.52
944.86	1695.72
945.03	1974.45
945.20	2171.05
945.37	1634.07
945.54	1828.84
945.71	2017.25
945.88	2096.51
946.05	1740.57
946.22	1734.83
946.39	2035.07
946.56	1857.51
946.73	1689.37
946.90	1746.10
947.07	1821.67
947.24	1845.83
947.41	1653.33
947.58	1902.97
947.75	1958.47
947.92	1926.32
948.09	1587.18
948.26	1661.11
948.43	1883.11
948.60	2112.48
948.77	1719.27
948.94	1789.92
949.11	1964.41
949.27	1938.61
949.44	1751.22
949.61	1759.82
949.78	1924.48
949.95	2013.36
950.12	1717.84
950.29	1693.67
950.46	1809.99
950.63	1978.13
950.80	1766.17
950.97	1811.43
951.14	1972.40
951.31	1828.22
951.48	1734.02
951.65	1702.27
951.82	2095.48
951.99	1919.97
952.15	1669.91
952.32	1772.31
952.49	1791.97
952.66	1821.05
952.83	1739.14
953.00	1712.51
953.17	1842.35
953.34	1961.95
953.51	1835.18
953.68	1798.53
953.85	1994.72
954.02	1991.04
954.18	1791.56
954.35	1820.85
954.52	1790.74
954.69	1898.26
954.86	1634.48
955.03	1808.97
955.20	1960.32
955.37	1837.23
955.54	1771.29
955.71	1733.81
955.87	1913.83
956.04	2087.29
956.21	1781.32
956.38	1739.54
956.55	1887.00
956.72	2196.45
956.89	1809.38
957.06	1751.22
957.23	1833.34
957.39	2049.40
957.56	1753.27
957.73	1719.27
957.90	1633.26
958.07	2090.57
958.24	1791.15
958.41	1793.20
958.57	1975.27
958.74	1874.92
958.91	1695.31
959.08	1763.10
959.25	1958.27
959.42	1852.18
959.59	1837.85
959.75	1749.78
959.92	2034.66
960.09	1986.32
960.26	1754.90
960.43	1864.68
960.60	1926.52
960.76	1855.87
960.93	1688.55
961.10	1834.98
961.27	1985.71
961.44	1809.18
961.61	1700.22
961.77	1723.78
961.94	1874.10
962.11	1995.34
962.28	1779.48
962.45	1716.81
962.62	1815.32
962.78	2003.73
962.95	1718.04
963.12	1778.05
963.29	1969.74
963.46	2226.55
963.62	1832.11
963.79	1764.12
963.96	2212.42
964.13	1826.38
964.30	1864.06
964.46	1758.59
964.63	1744.87
964.80	2215.49
964.97	1612.98
965.14	1854.64
965.30	1936.76
965.47	1996.77
965.64	1918.74
965.81	1874.92
965.98	2062.30
966.14	1921.40
966.31	1813.68
966.48	1793.41
966.65	2016.63
966.81	1940.25
966.98	1768.83
967.15	1814.30
967.32	1852.18
967.49	1783.58
967.65	1628.95
967.82	1632.44
967.99	1817.57
968.16	1676.47
968.32	1922.22
968.49	1756.75
968.66	1875.12
968.83	2065.17
968.99	1849.52
969.16	1719.68
969.33	2037.32
969.50	1947.82
969.66	1864.06
969.83	1963.80
970.00	1975.27
970.17	1946.39
970.33	1764.12
970.50	1717.22
970.67	2071.52
970.84	2043.26
971.00	1729.51
971.17	1709.64
971.34	1952.53
971.50	1872.05
971.67	1890.89
971.84	1842.35
972.01	1733.20
972.17	1639.40
972.34	1733.61
972.51	1877.58
972.67	2010.70
972.84	1885.16
973.01	1727.05
973.18	1770.67
973.34	1985.92
973.51	1765.55
973.68	1807.54
973.84	1790.13
974.01	1843.99
974.18	2067.01
974.34	1834.16
974.51	1861.81
974.68	1784.60
974.85	2136.65
975.01	1905.43
975.18	1790.33
975.35	1887.82
975.51	1816.55
975.68	1655.58
975.85	1920.79
976.01	1795.86
976.18	2048.99
976.35	1777.84
976.51	1759.00
976.68	2064.35
976.85	2045.31
977.01	1832.73
977.18	1857.30
977.35	1949.05
977.51	1720.50
977.68	1615.64
977.85	1669.09
978.01	1988.58
978.18	1935.74
978.35	1810.61
978.51	1784.40
978.68	2002.91
978.85	2064.35
979.01	1766.37
979.18	1810.81
979.34	1858.94
979.51	1892.53
979.68	1699.40
979.84	1814.09
980.01	2198.29
980.18	1882.90
980.34	1772.72
980.51	1853.41
980.67	1972.60
980.84	1975.47
981.01	1828.84
981.17	1825.76
981.34	1694.08
981.51	1955.40
981.67	1711.49
981.84	1900.11
982.00	1955.20
982.17	1831.91
982.34	1673.60
982.50	1574.07
982.67	2071.93
982.83	1793.20
983.00	1690.19
983.17	1581.85
983.33	2022.57
983.50	1680.36
983.66	1716.40
983.83	1584.10
984.00	1813.48
984.16	1889.66
984.33	1615.85
984.49	1606.43
984.66	1768.01
984.83	1990.22
984.99	1645.13
985.16	1587.18
985.32	1948.03
985.49	1972.40
985.65	1708.83
985.82	1591.48
985.99	2050.02
986.15	1892.53
986.32	1723.57
986.48	1666.23
986.65	1813.07
986.81	1953.97
986.98	1621.38
987.14	1681.59
987.31	1879.63
987.48	1689.98
987.64	1547.85
987.81	1570.79
987.97	2136.85
988.14	1768.83
988.30	1638.58
988.47	1484.78
988.63	1894.78
988.80	1727.05
988.96	1702.48
989.13	1726.23
989.30	1831.09
989.46	1955.40
989.63	1594.55
989.79	1596.39
989.96	1861.19
990.12	2049.81
990.29	1658.45
990.45	1681.79
990.62	1872.05
990.78	2003.73
990.95	1761.25
991.11	1639.81
991.28	1820.85
991.44	1900.92
991.61	1542.33
991.77	1671.76
991.94	1892.53
992.10	2005.58
992.27	1710.67
992.43	1683.23
992.60	1925.09
992.76	1836.00
992.93	1771.49
993.09	1606.63
993.26	1981.61
993.42	2100.40
993.59	1652.51
993.75	1589.84
993.92	1773.75
994.08	1774.77
994.25	1750.19
994.41	1603.76
994.58	1948.03
994.74	2054.52
994.91	1614.62
995.07	1728.08
995.24	1878.81
995.40	1854.44
995.56	1744.87
995.73	1724.39
995.89	2075.41
996.06	1851.16
996.22	1617.69
996.39	1558.09
996.55	1838.05
996.72	1934.10
996.88	1587.79
997.05	1608.68
997.21	2110.02
997.37	1947.00
997.54	1722.55
997.70	1659.67
997.87	1912.60
998.03	1837.44
998.20	1569.97
998.36	1599.05
998.52	1949.46
998.69	2012.33
998.85	1566.08
999.02	1667.25
999.18	1962.98
999.35	1973.22
999.51	1663.77
999.67	1647.59
999.84	1776.20
1000.00	1954.58
1000.17	1726.44
1000.33	1609.50
1000.49	1817.37
1000.66	1851.98
1000.82	1633.05
1000.99	1709.44
1001.15	2000.87
1001.31	1824.33
1001.48	1666.84
1001.64	1706.37
1001.81	1864.06
1001.97	2131.32
1002.13	1620.76
1002.30	1653.73
1002.46	2014.59
1002.63	1838.67
1002.79	1734.42
1002.95	1643.90
1003.12	1972.19
1003.28	1929.39
1003.45	1652.51
1003.61	1595.16
1003.77	1887.82
1003.94	1709.44
1004.10	1658.45
1004.26	1701.04
1004.43	1942.29
1004.59	2118.42
1004.75	1633.87
1004.92	1625.47
1005.08	1794.64
1005.25	1903.38
1005.41	1636.94
1005.57	1724.18
1005.74	2013.77
1005.90	1826.99
1006.06	1699.20
1006.23	1651.48
1006.39	1933.08
1006.55	2196.65
1006.72	1795.66
1006.88	1597.42
1007.04	1753.06
1007.21	1836.00
1007.37	1662.34
1007.53	1637.15
1007.70	2042.03
1007.86	1957.86
1008.02	1690.80
1008.19	1612.16
1008.35	1912.60
1008.51	1764.94
1008.68	1675.85
1008.84	1576.12
1009.00	1756.75
1009.17	2007.62
1009.33	1773.95
1009.49	1745.28
1009.65	1800.98
1009.82	1935.94
1009.98	1708.62
1010.14	1551.75
1010.31	1943.73
1010.47	1954.58
1010.63	1712.10
1010.80	1701.86
1010.96	1934.92
1011.12	1840.30
1011.28	1664.38
1011.45	1628.54
1011.61	2215.90
1011.77	1757.98
1011.94	1621.17
1012.10	1587.99
1012.26	1742.82
1012.42	1788.70
1012.59	1688.14
1012.75	1678.72
1012.91	1846.24
1013.07	1980.59
1013.24	1600.69
1013.40	1638.99
1013.56	1903.38
1013.72	1853.82
1013.89	1734.22
1014.05	1719.27
1014.21	2098.76
1014.37	2189.48
1014.54	1698.18
1014.70	1608.47
1014.86	1814.50
1015.02	1750.60
1015.19	1657.01
1015.35	1610.93
1015.51	1841.94
1015.67	1835.80
1015.84	1633.26
1016.00	1645.75
1016.16	1998.20
1016.32	1966.66
1016.49	1629.16
1016.65	1616.05
1016.81	1867.54
1016.97	1926.52
1017.14	1757.77
1017.30	1638.38
1017.46	1834.37
1017.62	1918.95
1017.78	1713.13
1017.95	1597.42
1018.11	1968.10
1018.27	2166.55
1018.43	1758.59
1018.59	1703.91
1018.76	1952.94
1018.92	2195.42
1019.08	1625.47
1019.24	1661.11
1019.40	2042.44
1019.57	1909.53
1019.73	1731.97
1019.89	1658.85
1020.05	1901.54
1020.21	2149.96
1020.38	1600.90
1020.54	1815.32
1020.70	1963.18
1020.86	1958.88
1021.02	1669.50
1021.18	1634.48
1021.35	1803.44
1021.51	1913.21
1021.67	1768.63
1021.83	1643.90
1021.99	1866.11
1022.15	1909.73
1022.32	1722.55
1022.48	1709.85
1022.64	2030.15
1022.80	2097.73
1022.96	1713.13
1023.12	1588.61
1023.29	2002.30
1023.45	1927.34
1023.61	1645.95
1023.77	1807.95
1023.93	1905.84
1024.09	1763.92
1024.25	1631.00
1024.42	1593.11
1024.58	1827.40
1024.74	1908.09
1024.90	1663.36
1025.06	1721.11
1025.22	1816.55
1025.38	2076.85
1025.54	1587.18
1025.71	1730.53
1025.87	1927.14
1026.03	1942.50
1026.19	1627.11
1026.35	1781.94
1026.51	1926.32
1026.67	1875.12
1026.83	1700.63
1026.99	1759.41
1027.16	1933.49
1027.32	2020.12
1027.48	1675.85
1027.64	1620.15
1027.80	1939.63
1027.96	1911.16
1028.12	1675.03
1028.28	1620.97
1028.44	1884.54
1028.60	2059.44
1028.77	1767.19
1028.93	1679.33
1029.09	1819.83
1029.25	1750.60
1029.41	1716.40
1029.57	1761.66
1029.73	1910.96
1029.89	2056.78
1030.05	1745.28
1030.21	1746.30
1030.37	2163.06
1030.53	1931.85
1030.69	1700.02
1030.85	1583.49
1031.02	1776.61
1031.18	1866.31
1031.34	1665.61
1031.50	1737.70
1031.66	1747.94
1031.82	2049.81
1031.98	1709.44
1032.14	1603.35
1032.30	1770.06
1032.46	1941.27
1032.62	1787.67
1032.78	1599.05
1032.94	1796.89
1033.10	1820.64
1033.26	1733.20
1033.42	1769.45
1033.58	2124.56
1033.74	1825.76
1033.90	1642.47
1034.06	1816.55
1034.22	2152.62
1034.38	2012.33
1034.54	1679.33
1034.70	1711.49
1034.86	2071.52
>>>>>End Processed Spectral Data<<<<<
