SpectraSuite Data File
++++++++++++++++++++++++++++++++++++
Date: Thu Mar 30 14:34:12 PDT 2017
User: UCSD _CER
Dark Spectrum Present: No
Reference Spectrum Present: No
Number of Sampled Component Spectra: 1
Spectrometers: USB4C00073
Integration Time (usec): 380000 (USB4C00073)
Spectra Averaged: 10 (USB4C00073)
Boxcar Smoothing: 0 (USB4C00073)
Correct for Electrical Dark: No (USB4C00073)
Strobe/Lamp Enabled: No (USB4C00073)
Correct for Detector Non-linearity: No (USB4C00073)
Correct for Stray Light: No (USB4C00073)
Number of Pixels in Processed Spectrum: 3648
>>>>>Begin Processed Spectral Data<<<<<
345.37	1253.36
345.58	1253.36
345.80	1253.36
346.01	1242.50
346.22	1283.46
346.43	2046.13
346.65	1936.35
346.86	2468.83
347.07	2431.35
347.28	1828.02
347.50	1827.81
347.71	2172.69
347.92	1921.61
348.13	1837.85
348.35	1816.14
348.56	2182.52
348.77	1963.59
348.98	1840.92
349.20	1690.80
349.41	2188.46
349.62	2320.35
349.83	1933.28
350.05	1803.65
350.26	2222.87
350.47	2387.32
350.68	1867.95
350.90	1763.51
351.11	2433.40
351.32	2394.08
351.53	1889.87
351.75	1811.43
351.96	2235.36
352.17	2144.02
352.38	1923.66
352.60	1922.43
352.81	2209.96
353.02	2452.24
353.23	1844.40
353.44	1840.30
353.66	2054.73
353.87	2105.31
354.08	1942.70
354.29	1833.14
354.51	2063.74
354.72	2111.25
354.93	1823.10
355.14	1783.17
355.35	1879.83
355.57	2302.53
355.78	1863.65
355.99	1924.68
356.20	2154.46
356.42	2121.70
356.63	1948.85
356.84	1822.08
357.05	2324.44
357.26	2533.54
357.48	1986.12
357.69	1882.08
357.90	2263.62
358.11	2094.05
358.32	1858.94
358.54	1906.04
358.75	2082.17
358.96	2285.74
359.17	1828.63
359.38	1892.94
359.60	2270.58
359.81	2141.36
360.02	1857.30
360.23	1809.18
360.44	2028.10
360.66	2351.68
360.87	1829.86
361.08	1816.75
361.29	2238.63
361.50	2191.53
361.72	1853.21
361.93	1899.90
362.14	2160.61
362.35	1887.82
362.56	2018.48
362.77	1738.73
362.99	2266.69
363.20	2146.89
363.41	1922.22
363.62	1735.45
363.83	2231.26
364.05	2327.72
364.26	1793.82
364.47	1838.67
364.68	2342.26
364.89	1994.11
365.10	1748.97
365.32	1867.13
365.53	2015.61
365.74	2055.96
365.95	1850.75
366.16	1705.55
366.37	2132.96
366.59	2114.53
366.80	1878.40
367.01	1752.24
367.22	2505.48
367.43	2646.79
367.64	1948.23
367.86	1874.71
368.07	2251.95
368.28	2374.41
368.49	1744.25
368.70	1884.75
368.91	2098.14
369.12	2127.02
369.34	1764.53
369.55	1766.17
369.76	2152.82
369.97	2105.11
370.18	1759.82
370.39	1837.23
370.60	1909.32
370.82	1968.71
371.03	1860.99
371.24	1795.86
371.45	2286.97
371.66	2258.30
371.87	1817.98
372.08	1883.93
372.30	1985.71
372.51	2323.22
372.72	1979.98
372.93	1838.46
373.14	2410.25
373.35	2021.75
373.56	1766.58
373.78	1876.76
373.99	2317.48
374.20	2687.14
374.41	1840.10
374.62	1821.26
374.83	2446.71
375.04	2109.00
375.25	1910.96
375.47	1875.94
375.68	2088.11
375.89	2282.87
376.10	1888.43
376.31	1931.44
376.52	2238.02
376.73	2203.82
376.94	1877.37
377.15	1802.83
377.37	2132.14
377.58	2084.01
377.79	1745.69
378.00	1802.62
378.21	2200.75
378.42	2249.90
378.63	1896.01
378.84	1948.44
379.05	2341.85
379.27	2201.98
379.48	1973.83
379.69	1827.20
379.90	2375.03
380.11	1804.06
380.32	1868.57
380.53	2002.91
380.74	2413.12
380.95	2160.61
381.16	1907.48
381.37	1904.82
381.59	2400.83
381.80	2340.01
382.01	1835.80
382.22	1782.55
382.43	2238.23
382.64	2162.45
382.85	1776.61
383.06	1943.52
383.27	2252.56
383.48	2079.51
383.69	1880.44
383.91	1790.95
384.12	2249.49
384.33	2254.40
384.54	1888.43
384.75	1797.91
384.96	2711.92
385.17	2349.02
385.38	1869.80
385.59	1841.74
385.80	2290.24
386.01	2421.52
386.22	1953.76
386.43	1849.52
386.64	2567.95
386.86	2137.46
387.07	1989.19
387.28	1788.29
387.49	2073.77
387.70	2377.90
387.91	2017.25
388.12	1866.72
388.33	2235.15
388.54	2085.45
388.75	1820.64
388.96	1935.54
389.17	2051.86
389.38	2110.84
389.59	1940.66
389.80	1966.05
390.01	2162.04
390.22	2094.05
390.43	1996.77
390.64	1736.88
390.86	2246.42
391.07	2363.15
391.28	1876.14
391.49	1924.89
391.70	1926.52
391.91	2027.28
392.12	1872.46
392.33	1950.28
392.54	2192.76
392.75	2128.86
392.96	1959.09
393.17	1869.59
393.38	2533.95
393.59	2324.03
393.80	1753.47
394.01	1888.02
394.22	2116.99
394.43	2469.85
394.64	1785.83
394.85	1903.59
395.06	2133.57
395.27	2166.96
395.48	1854.23
395.69	1762.69
395.90	2104.90
396.11	2164.29
396.32	1881.67
396.53	1948.23
396.74	2133.98
396.95	2342.88
397.16	1821.46
397.37	1743.85
397.58	2324.85
397.79	2167.98
398.00	1922.84
398.21	1874.71
398.42	2214.88
398.63	2531.70
398.84	1856.69
399.05	1843.79
399.26	2379.33
399.47	2226.55
399.68	1730.53
399.89	1788.08
400.10	1951.30
400.31	2092.61
400.52	1907.89
400.73	1827.40
400.94	1920.18
401.15	2226.96
401.36	1876.14
401.57	1907.68
401.78	2363.56
401.99	2322.60
402.20	1783.99
402.41	2020.12
402.62	2434.42
402.83	2104.49
403.04	1807.74
403.25	2050.63
403.46	2217.54
403.67	2388.34
403.88	1843.38
404.09	1827.61
404.30	2043.67
404.51	2036.91
404.72	1787.47
404.93	2016.84
405.14	2020.12
405.35	2129.27
405.56	1897.03
405.77	1816.96
405.98	2184.57
406.19	2122.11
406.40	1805.49
406.61	1857.71
406.82	2047.35
407.03	2600.92
407.24	1821.46
407.45	1891.91
407.66	2206.07
407.87	2330.59
408.08	1948.03
408.29	1940.04
408.49	2296.39
408.70	2149.75
408.91	1837.03
409.12	2006.80
409.33	2009.06
409.54	2380.15
409.75	1831.50
409.96	1852.80
410.17	2297.41
410.38	2104.70
410.59	1830.47
410.80	1982.23
411.01	2126.20
411.22	2126.82
411.43	1920.59
411.64	1849.73
411.85	1991.04
412.06	2003.53
412.27	1684.25
412.47	1823.72
412.68	2173.71
412.89	2216.31
413.10	1856.69
413.31	1757.16
413.52	2479.68
413.73	2510.60
413.94	1820.03
414.15	2021.35
414.36	2043.26
414.57	1974.24
414.78	1757.36
414.99	1797.50
415.19	2224.91
415.40	2184.77
415.61	1982.43
415.82	1942.50
416.03	2250.51
416.24	2238.23
416.45	1886.59
416.66	1780.91
416.87	1910.75
417.08	2256.66
417.29	1799.75
417.50	1905.23
417.70	2259.32
417.91	2204.02
418.12	1902.56
418.33	1844.20
418.54	2188.46
418.75	2343.49
418.96	1993.08
419.17	1942.50
419.38	2395.51
419.59	2243.55
419.79	1976.49
420.00	1896.42
420.21	2701.27
420.42	2150.78
420.63	1825.56
420.84	1889.05
421.05	2152.01
421.26	2196.04
421.47	1796.48
421.67	2235.97
421.88	2016.23
422.09	1962.98
422.30	2103.26
422.51	1860.78
422.72	2455.51
422.93	2293.93
423.14	1915.47
423.35	1758.18
423.55	1880.44
423.76	2045.72
423.97	1872.87
424.18	1748.15
424.39	2111.25
424.60	2307.24
424.81	1873.07
425.02	1956.22
425.22	2095.28
425.43	2100.60
425.64	2080.12
425.85	1881.47
426.06	2509.79
426.27	2309.70
426.48	1981.41
426.68	1948.03
426.89	2321.58
427.10	2507.12
427.31	1910.14
427.52	1841.74
427.73	2301.10
427.94	2220.41
428.14	2046.94
428.35	1934.51
428.56	2412.71
428.77	2328.13
428.98	1889.25
429.19	1907.07
429.40	2054.93
429.60	2102.65
429.81	2003.32
430.02	1947.62
430.23	2114.32
430.44	2319.94
430.65	1833.34
430.85	1869.80
431.06	2273.04
431.27	1891.91
431.48	1882.70
431.69	1923.86
431.90	2171.67
432.10	2142.99
432.31	1929.39
432.52	1833.75
432.73	2576.96
432.94	2442.41
433.15	2037.32
433.35	1828.63
433.56	2359.26
433.77	2142.79
433.98	2092.61
434.19	1993.70
434.40	2287.38
434.60	2251.13
434.81	2107.97
435.02	2015.41
435.23	2200.75
435.44	2123.95
435.64	1809.18
435.85	1832.73
436.06	2115.96
436.27	2081.35
436.48	1785.83
436.68	1855.25
436.89	2465.96
437.10	2311.34
437.31	1944.75
437.52	2063.33
437.73	2233.92
437.93	2219.79
438.14	1969.74
438.35	1797.50
438.56	2052.47
438.77	2134.19
438.97	2052.06
439.18	1855.87
439.39	2341.85
439.60	1950.90
439.80	1852.59
440.01	1888.02
440.22	2081.76
440.43	2284.51
440.64	1842.15
440.84	1931.23
441.05	1947.82
441.26	2652.12
441.47	1979.98
441.68	1911.78
441.88	2231.06
442.09	2179.24
442.30	2146.07
442.51	2152.01
442.71	2229.21
442.92	2304.37
443.13	1952.94
443.34	1902.15
443.55	2021.96
443.75	2266.49
443.96	1865.29
444.17	1789.31
444.38	2327.52
444.58	2003.94
444.79	1984.69
445.00	1947.00
445.21	2108.59
445.41	2090.16
445.62	1738.52
445.83	2024.42
446.04	2162.25
446.24	1926.11
446.45	1739.95
446.66	1886.79
446.87	2201.36
447.07	2093.02
447.28	2092.82
447.49	1899.70
447.70	2332.23
447.90	2343.08
448.11	1946.80
448.32	2027.08
448.53	2368.07
448.73	2398.99
448.94	1875.53
449.15	2055.55
449.36	2159.99
449.56	2221.02
449.77	1904.00
449.98	1811.43
450.19	2067.63
450.39	2070.29
450.60	1954.99
450.81	1983.87
451.02	2134.60
451.22	2406.57
451.43	1837.23
451.64	1867.13
451.84	2054.32
452.05	2346.56
452.26	1915.47
452.47	1958.68
452.67	2064.97
452.88	2428.48
453.09	1803.24
453.30	1798.12
453.50	2328.13
453.71	2464.12
453.92	1974.65
454.12	2126.00
454.33	2190.51
454.54	2179.45
454.75	1946.80
454.95	1903.79
455.16	2208.32
455.37	2215.29
455.57	1986.12
455.78	1929.80
455.99	2133.16
456.19	2170.85
456.40	1856.89
456.61	1902.15
456.82	2163.47
457.02	2307.65
457.23	2036.30
457.44	2151.19
457.64	2176.38
457.85	2343.70
458.06	2004.55
458.26	2095.89
458.47	2155.08
458.68	2333.66
458.89	1879.63
459.09	2037.11
459.30	2542.35
459.51	2188.66
459.71	1790.95
459.92	1887.00
460.13	2296.80
460.33	2561.80
460.54	1970.15
460.75	1993.49
460.95	2016.23
461.16	2276.73
461.37	1948.23
461.57	1896.21
461.78	2179.65
461.99	1940.04
462.19	2180.27
462.40	1864.47
462.61	2798.34
462.81	2349.84
463.02	1876.35
463.23	1870.82
463.43	2287.79
463.64	2046.54
463.85	3216.33
464.05	1864.68
464.26	2713.56
464.47	2369.50
464.67	2073.57
464.88	2043.46
465.09	2064.56
465.29	2256.45
465.50	2102.85
465.71	2038.14
465.91	2129.89
466.12	2167.57
466.33	1996.97
466.53	1871.43
466.74	2428.48
466.94	2126.82
467.15	1978.13
467.36	2100.60
467.56	1981.20
467.77	2196.86
467.98	1967.89
468.18	1923.25
468.39	2073.98
468.60	2489.92
468.80	1923.25
469.01	1854.85
469.21	2233.11
469.42	2375.23
469.63	1939.63
469.83	1877.99
470.04	2278.98
470.25	2397.76
470.45	2052.27
470.66	1901.95
470.86	2188.66
471.07	2080.74
471.28	1998.82
471.48	2001.89
471.69	2108.38
471.90	2891.94
472.10	2056.16
472.31	2050.84
472.51	2180.68
472.72	2176.79
472.93	1976.49
473.13	2093.64
473.34	2264.64
473.54	2214.67
473.75	2007.83
473.96	2158.35
474.16	2150.37
474.37	2271.61
474.57	2016.84
474.78	1858.94
474.99	2234.54
475.19	2174.53
475.40	1950.90
475.60	1883.93
475.81	2504.87
476.02	2265.05
476.22	2129.68
476.43	2191.53
476.63	2184.16
476.84	2405.75
477.05	1839.08
477.25	1913.21
477.46	2722.36
477.66	2173.51
477.87	1884.34
478.08	1930.62
478.28	2310.72
478.49	2106.34
478.69	1896.21
478.90	1899.90
479.10	2241.09
479.31	2478.66
479.52	2022.57
479.72	2060.67
479.93	2296.39
480.13	2113.09
480.34	1936.15
480.54	2034.04
480.75	2060.46
480.96	2379.53
481.16	1893.96
481.37	2047.35
481.57	2331.00
481.78	2213.85
481.98	2141.36
482.19	2031.58
482.40	2485.21
482.60	2293.52
482.81	2061.08
483.01	1850.75
483.22	2333.46
483.42	2315.43
483.63	2020.12
483.83	1978.95
484.04	2093.84
484.24	2264.03
484.45	2090.77
484.66	1909.73
484.86	2246.83
485.07	2042.23
485.27	1999.84
485.48	1882.29
485.68	2378.72
485.89	2039.57
486.09	2045.31
486.30	1933.28
486.50	2158.35
486.71	2141.77
486.91	2019.71
487.12	2158.76
487.33	2726.87
487.53	2781.35
487.74	2399.40
487.94	2302.12
488.15	2397.15
488.35	2353.73
488.56	2024.21
488.76	1953.76
488.97	2170.64
489.17	2315.02
489.38	2013.15
489.58	1964.00
489.79	2251.95
489.99	2238.23
490.20	1972.19
490.40	2081.15
490.61	2261.37
490.81	2052.88
491.02	2004.76
491.22	2003.32
491.43	2266.90
491.63	2155.28
491.84	2096.92
492.04	1836.82
492.25	2264.44
492.45	2127.43
492.66	1904.00
492.86	1871.43
493.07	2131.94
493.27	2562.83
493.48	1805.69
493.68	1901.13
493.89	2121.90
494.09	2296.39
494.30	1971.58
494.50	2193.99
494.71	2229.83
494.91	1911.57
495.12	1948.03
495.32	1982.43
495.53	2162.04
495.73	1929.19
495.94	2103.67
496.14	1938.20
496.35	2622.63
496.55	2222.25
496.76	1941.88
496.96	2032.40
497.17	2172.69
497.37	2230.44
497.58	1935.33
497.78	1859.15
497.98	2081.15
498.19	2101.63
498.39	1914.24
498.60	1967.69
498.80	1823.51
499.01	2263.82
499.21	1860.58
499.42	2025.65
499.62	2088.72
499.83	2523.10
500.03	1843.99
500.24	2048.79
500.44	2406.36
500.64	2319.94
500.85	1919.56
501.05	2045.31
501.26	1916.08
501.46	2378.51
501.67	1908.71
501.87	1860.17
502.08	2004.35
502.28	2126.20
502.48	1996.77
502.69	2033.63
502.89	1881.26
503.10	2020.32
503.30	2000.05
503.51	1992.88
503.71	1923.25
503.92	2244.57
504.12	2015.00
504.32	1909.73
504.53	2300.48
504.73	2230.03
504.94	2075.21
505.14	2175.97
505.35	2248.67
505.55	2241.09
505.75	1977.72
505.96	2112.48
506.16	2513.68
506.37	2044.90
506.57	1896.21
506.78	2035.48
506.98	2316.25
507.18	1927.75
507.39	1861.60
507.59	1914.44
507.80	2004.55
508.00	2132.75
508.20	2143.40
508.41	1951.92
508.61	2357.83
508.82	2312.57
509.02	2116.37
509.22	1871.43
509.43	1986.32
509.63	2045.10
509.84	1976.90
510.04	1810.20
510.24	2409.23
510.45	2245.39
510.65	1867.13
510.86	2007.01
511.06	1996.36
511.26	2270.79
511.47	2121.08
511.67	1927.34
511.88	2256.04
512.08	2322.40
512.28	1858.74
512.49	2021.35
512.69	2179.24
512.90	2206.69
513.10	1919.97
513.30	2014.59
513.51	2253.38
513.71	2424.80
513.91	2053.70
514.12	2039.57
514.32	2286.15
514.53	2031.58
514.73	2034.25
514.93	1960.73
515.14	2142.38
515.34	2364.79
515.54	1902.77
515.75	2020.94
515.95	2222.25
516.15	2379.53
516.36	1990.01
516.56	2008.65
516.77	1807.95
516.97	2222.87
517.17	1980.18
517.38	2050.84
517.58	2413.74
517.78	2066.81
517.99	2038.34
518.19	1945.57
518.39	2336.32
518.60	2013.56
518.80	1839.08
519.00	1971.58
519.21	2107.77
519.41	2449.17
519.61	1886.38
519.82	2059.85
520.02	2160.81
520.22	2120.88
520.43	1921.20
520.63	1990.42
520.83	2013.15
521.04	1866.72
521.24	2034.45
521.44	1941.88
521.65	1977.52
521.85	2242.73
522.05	1901.54
522.26	1898.26
522.46	2484.39
522.66	2345.13
522.87	2001.68
523.07	2150.98
523.27	2080.12
523.48	2357.21
523.68	1958.88
523.88	2019.09
524.09	2341.44
524.29	2192.76
524.49	1822.28
524.70	2049.81
524.90	2385.27
525.10	2220.20
525.31	1847.06
525.51	1868.57
525.71	2275.91
525.91	2252.36
526.12	1925.30
526.32	1890.68
526.52	2059.03
526.73	2036.70
526.93	2033.22
527.13	1837.44
527.34	2136.44
527.54	2148.52
527.74	1979.98
527.94	1856.48
528.15	1972.60
528.35	2154.87
528.55	2074.39
528.76	2013.15
528.96	1869.39
529.16	2337.96
529.36	2089.13
529.57	1869.18
529.77	2351.07
529.97	2008.24
530.18	2040.60
530.38	1931.03
530.58	2255.84
530.78	2145.86
530.99	1944.14
531.19	2029.13
531.39	2049.81
531.60	2161.02
531.80	2039.98
532.00	2146.07
532.20	2212.01
532.41	2051.86
532.61	1916.90
532.81	1904.20
533.01	2080.74
533.22	2207.30
533.42	2085.24
533.62	1823.72
533.82	2388.55
534.03	2103.47
534.23	2073.16
534.43	1905.84
534.63	2063.33
534.84	2199.11
535.04	2083.19
535.24	1976.29
535.44	2607.06
535.65	2063.33
535.85	1951.92
536.05	1894.37
536.25	2112.27
536.46	2003.73
536.66	2131.12
536.86	2014.38
537.06	2254.81
537.27	2372.57
537.47	2007.01
537.67	1968.71
537.87	2375.23
538.08	2128.86
538.28	1872.25
538.48	1848.50
538.68	2123.33
538.88	2253.18
539.09	1836.82
539.29	1973.22
539.49	2298.23
539.69	2209.14
539.90	2065.99
540.10	1879.83
540.30	2368.27
540.50	2033.22
540.70	1860.78
540.91	1909.73
541.11	2274.47
541.31	2420.08
541.51	2002.09
541.72	2043.26
541.92	2202.39
542.12	2034.66
542.32	2005.99
542.52	1945.37
542.73	2010.49
542.93	2235.56
543.13	1954.99
543.33	2060.26
543.53	2267.31
543.74	2240.89
543.94	1929.80
544.14	2050.02
544.34	2341.44
544.54	2112.89
544.75	2031.58
544.95	2129.07
545.15	2291.27
545.35	2463.30
545.55	2082.37
545.75	1992.67
545.96	2556.89
546.16	2034.04
546.36	1987.55
546.56	2024.42
546.76	2314.61
546.97	2463.09
547.17	1995.95
547.37	2071.32
547.57	2056.37
547.77	2260.96
547.97	2060.26
548.18	2072.34
548.38	2126.61
548.58	2362.54
548.78	1885.97
548.98	1981.00
549.18	2234.74
549.39	2394.89
549.59	2022.16
549.79	1999.64
549.99	2396.74
550.19	2302.53
550.39	2151.80
550.60	2002.71
550.80	2207.51
551.00	2249.49
551.20	1967.69
551.40	1971.99
551.60	2245.19
551.80	2193.78
552.01	2057.39
552.21	1985.30
552.41	2195.83
552.61	2477.63
552.81	2084.22
553.01	1901.74
553.21	2244.16
553.42	1973.83
553.62	1965.85
553.82	1899.08
554.02	2408.00
554.22	2290.45
554.42	1871.02
554.62	2103.06
554.83	2407.18
555.03	2366.22
555.23	2012.13
555.43	2212.83
555.63	2171.05
555.83	2136.44
556.03	2063.74
556.23	1875.94
556.44	2172.69
556.64	2320.14
556.84	1717.02
557.04	1973.01
557.24	2182.73
557.44	2150.37
557.64	2040.19
557.84	1914.85
558.04	2084.22
558.25	2259.52
558.45	1901.74
558.65	1991.85
558.85	2148.73
559.05	1851.16
559.25	1984.07
559.45	2052.88
559.65	2505.28
559.85	2978.98
560.05	1999.64
560.26	2064.56
560.46	2094.25
560.66	2037.32
560.86	1975.27
561.06	1908.91
561.26	2386.91
561.46	2231.26
561.66	1977.11
561.86	2105.11
562.06	2011.92
562.26	2115.96
562.47	2014.79
562.67	1891.30
562.87	2245.19
563.07	1910.75
563.27	2015.61
563.47	2011.72
563.67	2073.16
563.87	2257.68
564.07	1933.28
564.27	1953.35
564.47	2155.28
564.67	2195.22
564.87	1934.10
565.08	2030.77
565.28	2050.43
565.48	2233.72
565.68	2051.25
565.88	2123.13
566.08	2525.35
566.28	2140.13
566.48	1892.53
566.68	2008.44
566.88	2110.84
567.08	2300.69
567.28	2034.66
567.48	1995.95
567.68	2222.66
567.88	1920.99
568.08	1991.85
568.28	2129.68
568.48	2109.61
568.68	2377.69
568.89	2036.70
569.09	1866.52
569.29	2304.17
569.49	2288.40
569.69	1930.82
569.89	1917.31
570.09	1832.52
570.29	2033.63
570.49	1907.68
570.69	1972.40
570.89	2314.00
571.09	2514.29
571.29	1896.21
571.49	2140.54
571.69	2216.31
571.89	2244.57
572.09	1980.59
572.29	2061.69
572.49	2284.92
572.69	2292.70
572.89	2011.72
573.09	1728.69
573.29	2125.38
573.49	2156.51
573.69	1969.94
573.89	2032.20
574.09	2039.37
574.29	2359.06
574.49	2025.85
574.69	1895.19
574.89	1922.84
575.09	1976.09
575.29	1865.70
575.49	2011.11
575.69	2212.83
575.89	1950.28
576.09	1988.99
576.29	2035.68
576.49	1958.68
576.69	2123.95
576.89	1953.76
577.09	2017.25
577.29	1891.91
577.49	2482.75
577.69	1960.52
577.89	2138.28
578.09	2162.45
578.29	1860.17
578.49	2035.48
578.69	1916.69
578.89	2302.74
579.09	2147.30
579.29	1934.72
579.49	2122.31
579.69	2067.01
579.89	2462.07
580.09	1763.92
580.29	1853.41
580.49	2034.86
580.69	1957.24
580.89	1936.35
581.09	1987.35
581.29	2067.83
581.49	2118.01
581.69	1904.00
581.89	1945.16
582.09	2000.25
582.28	1987.76
582.48	2085.04
582.68	2146.68
582.88	2387.93
583.08	2096.51
583.28	1997.59
583.48	2002.71
583.68	1987.35
583.88	2153.03
584.08	2030.97
584.28	2054.73
584.48	2500.77
584.68	2265.26
584.88	1971.99
585.08	2175.76
585.28	2304.37
585.48	2329.97
585.68	2062.51
585.87	2130.71
586.07	2241.91
586.27	2126.41
586.47	2063.53
586.67	1988.78
586.87	2143.40
587.07	2069.06
587.27	1914.24
587.47	2078.89
587.67	2460.02
587.87	2615.67
588.07	2044.90
588.27	1951.92
588.46	2272.63
588.66	2291.06
588.86	1979.98
589.06	2052.88
589.26	2301.10
589.46	2270.79
589.66	1941.68
589.86	1891.50
590.06	2077.05
590.26	2222.05
590.46	1962.36
590.66	2039.16
590.85	1981.41
591.05	2150.78
591.25	1920.59
591.45	1981.82
591.65	2229.01
591.85	2147.50
592.05	1922.63
592.25	2043.05
592.45	2292.29
592.64	2066.20
592.84	2013.77
593.04	1908.30
593.24	2607.06
593.44	2054.73
593.64	2000.25
593.84	2061.08
594.04	2071.52
594.24	2413.33
594.43	1971.99
594.63	1984.89
594.83	2335.09
595.03	2306.42
595.23	1966.25
595.43	1883.11
595.63	2036.91
595.83	2296.59
596.02	1813.27
596.22	1982.02
596.42	2180.88
596.62	2110.02
596.82	1964.62
597.02	2044.69
597.22	2379.33
597.41	2167.16
597.61	1956.22
597.81	2112.68
598.01	2263.01
598.21	2084.83
598.41	1883.93
598.61	1919.77
598.80	2144.63
599.00	2179.24
599.20	2165.73
599.40	2010.08
599.60	2091.39
599.80	2295.36
599.99	2120.67
600.19	1953.56
600.39	2137.46
600.59	2224.91
600.79	2063.74
600.99	2014.38
601.19	2434.01
601.38	2471.28
601.58	2086.27
601.78	1767.19
601.98	2215.08
602.18	2197.68
602.37	2222.46
602.57	1993.70
602.77	2243.34
602.97	2168.80
603.17	2157.54
603.37	2055.96
603.56	2315.64
603.76	2235.15
603.96	2009.88
604.16	2024.62
604.36	2394.69
604.56	2319.12
604.75	1935.74
604.95	2064.76
605.15	2367.04
605.35	2308.47
605.55	1943.52
605.74	1928.78
605.94	2339.80
606.14	2148.52
606.34	1989.19
606.54	2065.79
606.73	2064.76
606.93	2263.21
607.13	1938.20
607.33	2076.64
607.53	2418.45
607.72	2393.05
607.92	2080.94
608.12	2164.91
608.32	2107.36
608.51	2258.30
608.71	1920.18
608.91	2060.46
609.11	2244.16
609.31	2081.35
609.50	1951.10
609.70	2216.93
609.90	2313.39
610.10	2292.29
610.29	1950.69
610.49	1871.64
610.69	2267.31
610.89	2140.13
611.09	1960.52
611.28	2159.79
611.48	2328.54
611.68	2125.38
611.88	1962.16
612.07	1914.03
612.27	2273.45
612.47	2024.21
612.67	2026.47
612.86	2101.01
613.06	2162.25
613.26	1898.47
613.46	1927.55
613.65	2056.16
613.85	2649.66
614.05	2255.63
614.25	2094.66
614.44	1993.08
614.64	2107.16
614.84	2049.61
615.04	1943.93
615.23	1975.68
615.43	2229.83
615.63	2239.04
615.83	1938.81
616.02	1858.94
616.22	2272.84
616.42	1912.60
616.62	1857.30
616.81	1961.13
617.01	2141.56
617.21	2085.65
617.41	1857.51
617.60	2037.93
617.80	2233.72
618.00	2237.41
618.19	2098.96
618.39	1977.31
618.59	2250.51
618.79	2149.96
618.98	1846.24
619.18	2005.17
619.38	2518.39
619.57	2090.36
619.77	1998.00
619.97	1983.46
620.17	2044.49
620.36	1933.08
620.56	2181.50
620.76	1884.34
620.95	1909.94
621.15	2060.67
621.35	1893.76
621.54	1978.13
621.74	2132.35
621.94	2039.78
622.14	1852.59
622.33	1870.21
622.53	2099.78
622.73	2071.52
622.92	1878.19
623.12	2004.35
623.32	2493.40
623.51	2269.56
623.71	1872.87
623.91	2164.70
624.10	1957.24
624.30	2179.45
624.50	1842.56
624.69	1834.37
624.89	2818.62
625.09	2089.13
625.29	1760.23
625.48	1874.30
625.68	2158.97
625.88	2338.99
626.07	2037.73
626.27	1922.02
626.47	2092.61
626.66	1890.89
626.86	2017.25
627.06	1984.89
627.25	2126.82
627.45	2440.56
627.64	1989.60
627.84	2154.26
628.04	2001.07
628.23	2503.44
628.43	1871.64
628.63	1906.86
628.82	2049.61
629.02	2461.66
629.22	2011.31
629.41	2144.02
629.61	2142.79
629.81	2483.98
630.00	1961.95
630.20	1887.82
630.40	2129.48
630.59	2198.70
630.79	1985.51
630.98	1921.40
631.18	2106.75
631.38	2123.95
631.57	2093.23
631.77	1836.41
631.97	2173.92
632.16	2197.47
632.36	2010.70
632.56	2017.25
632.75	2167.37
632.95	2324.65
633.14	1880.65
633.34	2157.94
633.54	1863.24
633.73	2059.85
633.93	1953.56
634.12	1827.61
634.32	2614.85
634.52	2137.46
634.71	1830.27
634.91	2017.66
635.11	1945.16
635.30	2051.45
635.50	2024.42
635.69	1885.56
635.89	2477.43
636.09	2267.92
636.28	1895.19
636.48	1878.19
636.67	2223.07
636.87	2231.88
637.07	2046.33
637.26	1942.70
637.46	2167.77
637.65	2296.39
637.85	2043.87
638.04	1923.45
638.24	2027.69
638.44	2192.56
638.63	2021.55
638.83	1976.70
639.02	2203.00
639.22	2251.74
639.42	1923.86
639.61	1961.13
639.81	2150.57
640.00	2147.09
640.20	2118.62
640.39	2003.53
640.59	2463.71
640.79	2257.48
640.98	2029.13
641.18	1913.21
641.37	2079.30
641.57	2005.99
641.76	2027.69
641.96	1762.48
642.15	2126.61
642.35	2029.33
642.55	2035.07
642.74	1841.33
642.94	2250.31
643.13	2368.27
643.33	1945.57
643.52	1923.66
643.72	2041.21
643.91	2129.07
644.11	1879.63
644.31	1944.55
644.50	2014.79
644.70	2353.73
644.89	2031.18
645.09	2101.22
645.28	2143.40
645.48	2227.99
645.67	1919.15
645.87	1831.70
646.06	2061.08
646.26	2190.10
646.45	1746.51
646.65	1755.11
646.84	2429.91
647.04	2073.98
647.24	1843.79
647.43	1943.73
647.63	2172.49
647.82	2404.52
648.02	1891.50
648.21	1960.11
648.41	2381.99
648.60	2064.35
648.80	2097.12
648.99	2007.21
649.19	2049.40
649.38	1878.81
649.58	1985.30
649.77	2052.88
649.97	2350.66
650.16	2235.36
650.36	1743.44
650.55	2147.09
650.75	2191.53
650.94	2426.02
651.14	1991.24
651.33	2026.87
651.53	2453.47
651.72	2008.44
651.92	1955.40
652.11	1827.40
652.31	2247.03
652.50	2191.94
652.70	1982.23
652.89	1836.00
653.09	2383.63
653.28	2073.98
653.48	1777.43
653.67	1805.49
653.87	2683.66
654.06	2147.70
654.25	2203.00
654.45	1919.97
654.64	2066.20
654.84	2121.29
655.03	1804.26
655.23	2120.88
655.42	2261.57
655.62	2455.51
655.81	2082.17
656.01	1916.28
656.20	2315.84
656.40	2434.63
656.59	2042.64
656.79	2134.80
656.98	2182.32
657.17	2310.52
657.37	1971.78
657.56	1981.00
657.76	2204.84
657.95	2352.09
658.15	1689.16
658.34	2005.17
658.54	2128.25
658.73	1924.68
658.92	1980.39
659.12	2013.97
659.31	2255.84
659.51	1957.24
659.70	2033.02
659.90	1909.12
660.09	2281.85
660.29	2112.89
660.48	1885.77
660.67	2151.19
660.87	2027.08
661.06	2208.12
661.26	2036.30
661.45	2093.02
661.65	2199.52
661.84	2057.18
662.03	1915.47
662.23	1907.27
662.42	2493.20
662.62	1963.18
662.81	1850.13
663.00	1940.25
663.20	2179.24
663.39	2259.32
663.59	2064.56
663.78	1951.51
663.97	2081.56
664.17	2287.17
664.36	1846.45
664.56	1916.49
664.75	2286.76
664.94	2241.30
665.14	2048.99
665.33	1988.17
665.53	2135.01
665.72	2081.56
665.91	2093.02
666.11	1988.58
666.30	2173.92
666.50	2092.61
666.69	2033.84
666.88	1909.73
667.08	2158.15
667.27	2075.41
667.47	1974.65
667.66	1956.42
667.85	2303.35
668.05	2146.27
668.24	1897.24
668.43	2194.19
668.63	2038.14
668.82	2314.82
669.02	2066.81
669.21	1953.76
669.40	1902.56
669.60	2473.54
669.79	1834.37
669.98	2618.12
670.18	1973.22
670.37	1946.80
670.56	1988.99
670.76	2037.52
670.95	2104.70
671.15	2296.39
671.34	2006.19
671.53	2001.68
671.73	2038.75
671.92	1980.18
672.11	1890.68
672.31	1937.38
672.50	2202.80
672.69	1943.73
672.89	1742.82
673.08	1952.33
673.27	2251.95
673.47	2187.44
673.66	1995.95
673.85	1844.61
674.05	2138.08
674.24	2118.42
674.43	1841.12
674.63	2045.51
674.82	2518.59
675.01	1765.35
675.21	2061.08
675.40	1956.01
675.59	2031.79
675.79	2385.27
675.98	1924.07
676.17	2118.42
676.37	2162.04
676.56	2049.20
676.75	1944.75
676.95	1990.01
677.14	2064.76
677.33	2308.47
677.52	1855.66
677.72	1919.97
677.91	2184.36
678.10	1885.36
678.30	1872.46
678.49	1879.83
678.68	2511.42
678.88	1857.92
679.07	2108.38
679.26	1956.01
679.45	2458.18
679.65	2354.55
679.84	1787.06
680.03	1813.07
680.23	2057.18
680.42	2593.34
680.61	1860.78
680.81	1915.67
681.00	2123.95
681.19	2214.88
681.38	2083.40
681.58	2037.93
681.77	2054.11
681.96	2273.86
682.15	1872.46
682.35	2021.96
682.54	2197.88
682.73	1953.35
682.93	1860.37
683.12	1884.34
683.31	2284.30
683.50	2610.34
683.70	1879.01
683.89	2041.62
684.08	1967.69
684.27	2301.71
684.47	1829.86
684.66	1933.49
684.85	2486.85
685.04	2352.50
685.24	1889.66
685.43	1907.48
685.62	1855.46
685.81	2150.78
686.01	2055.75
686.20	1891.30
686.39	1889.66
686.58	2456.74
686.78	1982.43
686.97	1966.05
687.16	2291.68
687.35	2183.13
687.55	1950.28
687.74	1997.18
687.93	1923.25
688.12	2060.67
688.32	1974.24
688.51	1785.62
688.70	2177.61
688.89	1918.54
689.08	1814.50
689.28	1892.53
689.47	2127.02
689.66	2123.95
689.85	2040.80
690.05	1850.13
690.24	2009.06
690.43	2154.67
690.62	2010.29
690.81	1919.77
691.01	2117.80
691.20	2074.59
691.39	1813.27
691.58	1991.85
691.77	2432.17
691.97	2134.39
692.16	2026.67
692.35	1976.49
692.54	2013.36
692.73	2175.15
692.93	1982.23
693.12	2003.12
693.31	2189.28
693.50	2148.32
693.69	2080.33
693.89	1891.50
694.08	2339.39
694.27	2346.56
694.46	1922.43
694.65	1956.83
694.85	2230.44
695.04	2222.05
695.23	1920.38
695.42	2195.83
695.61	2375.85
695.80	2511.83
696.00	2484.19
696.19	2544.60
696.38	2330.59
696.57	2412.71
696.76	2285.74
696.95	2124.15
697.15	2539.89
697.34	2493.81
697.53	2069.27
697.72	2145.66
697.91	2140.54
698.10	2440.56
698.30	1978.75
698.49	1959.70
698.68	2189.07
698.87	2073.77
699.06	1891.50
699.25	1985.92
699.45	2317.69
699.64	2151.80
699.83	2150.16
700.02	1939.43
700.21	2210.99
700.40	2016.84
700.59	1914.03
700.79	1993.70
700.98	2224.50
701.17	1995.13
701.36	1908.50
701.55	1904.61
701.74	2282.05
701.93	1884.54
702.12	1909.32
702.32	1852.18
702.51	2252.56
702.70	2203.82
702.89	1980.80
703.08	1928.57
703.27	2302.53
703.46	2183.75
703.65	1850.54
703.85	1833.14
704.04	2003.32
704.23	2262.39
704.42	1866.11
704.61	1865.70
704.80	2379.33
704.99	2013.15
705.18	2043.46
705.37	1973.63
705.57	2238.63
705.76	2494.02
705.95	2106.13
706.14	2506.71
706.33	2676.29
706.52	2959.31
706.71	2285.53
706.90	2149.34
707.09	2388.14
707.28	2311.54
707.47	1972.60
707.67	2172.28
707.86	2056.78
708.05	2373.39
708.24	1986.53
708.43	2031.38
708.62	2084.42
708.81	1962.16
709.00	1874.71
709.19	1904.00
709.38	2276.73
709.57	1945.37
709.76	1985.10
709.96	1886.59
710.15	2350.04
710.34	2096.71
710.53	2046.74
710.72	1947.21
710.91	2304.17
711.10	2233.92
711.29	2027.90
711.48	1905.23
711.67	1924.27
711.86	2170.23
712.05	1807.33
712.24	1845.63
712.43	2228.39
712.62	2369.91
712.81	1983.05
713.00	2153.03
713.19	1953.76
713.39	2202.80
713.58	1843.58
713.77	2016.84
713.96	2214.67
714.15	2080.53
714.34	1926.32
714.53	1809.59
714.72	2472.31
714.91	1935.74
715.10	2038.34
715.29	1850.54
715.48	2613.41
715.67	2220.41
715.86	1956.42
716.05	1930.21
716.24	2077.46
716.43	2044.49
716.62	1840.51
716.81	1816.75
717.00	2047.56
717.19	2381.17
717.38	1939.02
717.57	1926.93
717.76	1876.96
717.95	2291.06
718.14	1946.18
718.33	2000.66
718.52	1855.05
718.71	1874.10
718.90	1868.36
719.09	1879.42
719.28	2128.04
719.47	2292.09
719.66	2023.60
719.85	2065.58
720.04	2007.83
720.23	2123.95
720.42	1867.54
720.61	2036.70
720.80	1891.09
720.99	2176.17
721.18	1881.47
721.37	1859.97
721.56	2049.40
721.75	2252.97
721.94	1868.77
722.13	1921.20
722.32	2044.08
722.51	2258.91
722.70	1981.00
722.89	2042.44
723.08	2122.11
723.27	2284.10
723.46	2034.04
723.65	2014.38
723.84	2033.84
724.03	2365.20
724.22	1839.08
724.41	1935.33
724.60	2050.43
724.79	2265.46
724.98	2009.67
725.16	1927.14
725.35	2233.51
725.54	1936.97
725.73	1981.61
725.92	1995.95
726.11	2088.11
726.30	2265.05
726.49	1896.21
726.68	1942.91
726.87	2205.46
727.06	2387.52
727.25	1944.96
727.44	2051.45
727.63	2132.35
727.82	2075.21
728.01	2017.45
728.20	2038.96
728.38	2362.95
728.57	2065.79
728.76	1918.54
728.95	2081.76
729.14	1918.95
729.33	1931.85
729.52	1703.91
729.71	1854.44
729.90	1953.56
730.09	2001.89
730.28	1892.12
730.47	1894.58
730.66	2266.28
730.84	2095.69
731.03	1951.71
731.22	1996.97
731.41	2108.79
731.60	2199.11
731.79	1768.22
731.98	1857.10
732.17	2211.60
732.36	2172.69
732.55	1895.60
732.73	1810.81
732.92	2332.64
733.11	2193.99
733.30	1887.41
733.49	1808.77
733.68	2234.33
733.87	2145.86
734.06	1790.33
734.25	1827.20
734.43	1979.98
734.62	2120.67
734.81	1903.18
735.00	1851.77
735.19	2010.90
735.38	2183.13
735.57	1804.06
735.76	2002.71
735.94	2182.11
736.13	2468.62
736.32	1984.69
736.51	1937.99
736.70	2422.34
736.89	2433.81
737.08	2132.35
737.27	2349.63
737.45	2799.98
737.64	2656.01
737.83	2692.26
738.02	2719.50
738.21	2881.70
738.40	2849.54
738.59	2322.40
738.77	2358.03
738.96	2266.49
739.15	2367.86
739.34	2276.11
739.53	2209.76
739.72	2460.02
739.90	2425.61
740.09	1965.03
740.28	2027.08
740.47	2272.22
740.66	2256.86
740.85	1844.20
741.03	1930.01
741.22	1942.91
741.41	2090.57
741.60	1781.94
741.79	1992.06
741.98	2324.65
742.16	2430.94
742.35	1947.62
742.54	1972.40
742.73	2459.82
742.92	2012.33
743.10	1797.71
743.29	1902.15
743.48	2500.98
743.67	2002.30
743.86	1773.54
744.05	1821.46
744.23	1936.56
744.42	1966.25
744.61	1990.01
744.80	1815.73
744.99	2019.71
745.17	1803.03
745.36	1790.95
745.55	2035.07
745.74	2086.06
745.93	1979.98
746.11	1865.70
746.30	1819.42
746.49	2268.33
746.68	1962.57
746.86	1932.87
747.05	1906.04
747.24	2222.46
747.43	2241.09
747.62	1851.57
747.80	1841.12
747.99	2331.00
748.18	2242.94
748.37	1959.91
748.56	2012.74
748.74	2268.94
748.93	2150.16
749.12	2206.48
749.31	2733.01
749.49	3209.58
749.68	3534.18
749.87	3758.64
750.06	3580.46
750.24	3704.57
750.43	3610.36
750.62	3510.63
750.81	3676.31
750.99	3866.77
751.18	3859.19
751.37	3300.92
751.56	3220.64
751.74	3605.04
751.93	3592.55
752.12	2617.71
752.31	2490.13
752.49	2555.05
752.68	2801.62
752.87	2261.57
753.06	2166.34
753.24	2250.31
753.43	2433.60
753.62	1976.90
753.81	1966.05
753.99	2430.94
754.18	2208.32
754.37	1900.72
754.55	1967.89
754.74	2433.60
754.93	1820.64
755.12	1890.48
755.30	1814.09
755.49	2274.47
755.68	2122.92
755.86	2034.45
756.05	1815.32
756.24	2374.01
756.43	1894.99
756.61	1881.88
756.80	1987.14
756.99	2353.73
757.17	2098.55
757.36	1883.11
757.55	1910.14
757.74	2205.25
757.92	2118.21
758.11	1830.68
758.30	1778.46
758.48	2072.34
758.67	1901.33
758.86	1978.34
759.04	1829.25
759.23	2045.31
759.42	2086.47
759.60	1888.23
759.79	1972.81
759.98	2030.97
760.16	1954.79
760.35	1906.66
760.54	1852.39
760.73	2137.87
760.91	1870.41
761.10	1903.59
761.29	1999.84
761.47	2106.54
761.66	2499.34
761.85	1987.96
762.03	2113.30
762.22	2513.68
762.41	3236.41
762.59	3885.41
762.78	4272.68
762.97	5170.10
763.15	5224.98
763.34	4793.68
763.52	3910.39
763.71	3937.83
763.90	3915.10
764.08	3404.54
764.27	3336.76
764.46	3506.74
764.64	3036.32
764.83	2877.81
765.02	2702.09
765.20	2742.84
765.39	2687.14
765.58	2128.45
765.76	2133.98
765.95	2275.29
766.13	2190.71
766.32	1945.16
766.51	1937.79
766.69	2898.69
766.88	2181.91
767.07	1841.53
767.25	1701.04
767.44	2296.59
767.62	2311.34
767.81	1849.93
768.00	1913.62
768.18	2094.66
768.37	2024.21
768.56	1742.41
768.74	1884.95
768.93	1891.30
769.11	2164.50
769.30	2017.04
769.49	1903.38
769.67	2060.46
769.86	2010.70
770.04	1927.75
770.23	1867.54
770.42	2345.13
770.60	2119.03
770.79	1832.11
770.97	1875.53
771.16	2372.98
771.35	2326.08
771.53	2314.41
771.72	2408.00
771.90	2776.02
772.09	3025.67
772.27	2712.74
772.46	2392.64
772.65	2766.60
772.83	2572.04
773.02	2443.64
773.20	2184.57
773.39	2497.50
773.58	2483.98
773.76	2050.02
773.95	2027.08
774.13	2290.65
774.32	2137.87
774.50	1946.18
774.69	2007.21
774.87	2097.12
775.06	2526.78
775.25	1908.50
775.43	1949.26
775.62	2182.11
775.80	2223.27
775.99	1991.44
776.17	1914.44
776.36	2125.59
776.54	2341.44
776.73	1909.73
776.92	1993.49
777.10	2313.59
777.29	2175.15
777.47	1865.90
777.66	1948.03
777.84	2152.82
778.03	2090.57
778.21	1875.94
778.40	1999.84
778.58	2185.59
778.77	2273.04
778.95	1830.68
779.14	1889.25
779.32	2435.65
779.51	2281.23
779.70	1897.03
779.88	1813.27
780.07	2048.17
780.25	2580.03
780.44	1964.62
780.62	2037.93
780.81	2224.50
780.99	2180.47
781.18	1890.07
781.36	1870.00
781.55	2065.79
781.73	2393.67
781.92	1794.64
782.10	1807.13
782.29	2188.87
782.47	2378.31
782.66	1884.95
782.84	1807.54
783.03	1951.92
783.21	2321.78
783.40	1875.32
783.58	1856.89
783.77	1996.56
783.95	2075.00
784.14	1864.68
784.32	1966.66
784.51	2304.99
784.69	1983.66
784.88	1815.73
785.06	1904.20
785.24	1891.71
785.43	2237.20
785.61	1967.07
785.80	1845.02
785.98	2202.39
786.17	2098.14
786.35	1823.10
786.54	2000.25
786.72	2231.47
786.91	2270.58
787.09	1917.72
787.28	1812.04
787.46	2106.75
787.65	2253.79
787.83	1773.34
788.01	1914.44
788.20	1905.43
788.38	2089.13
788.57	1877.78
788.75	1845.42
788.94	2415.78
789.12	2300.69
789.31	1968.10
789.49	2037.73
789.67	2002.71
789.86	2132.96
790.04	1860.78
790.23	1779.68
790.41	2473.13
790.60	2049.81
790.78	1869.80
790.96	1901.54
791.15	2197.88
791.33	2059.85
791.52	1949.05
791.70	1815.73
791.89	2078.69
792.07	2245.39
792.25	1928.98
792.44	1781.94
792.62	2276.11
792.81	2006.19
792.99	1924.07
793.17	1873.89
793.36	1950.08
793.54	2422.95
793.73	2189.07
793.91	2206.89
794.10	2691.44
794.28	2870.02
794.46	2533.13
794.65	2553.20
794.83	2387.52
795.01	2469.85
795.20	2413.94
795.38	2307.24
795.57	2469.24
795.75	2402.88
795.93	2139.92
796.12	2141.36
796.30	2375.64
796.49	2289.42
796.67	1925.30
796.85	2081.15
797.04	2181.91
797.22	2259.73
797.40	1868.36
797.59	1962.77
797.77	2143.40
797.96	1963.59
798.14	1854.44
798.32	1874.10
798.51	2228.19
798.69	2423.36
798.87	1924.68
799.06	1904.61
799.24	1893.14
799.42	2303.76
799.61	2099.99
799.79	2124.36
799.98	2708.03
800.16	2364.79
800.34	2498.32
800.53	2719.29
800.71	2848.52
800.89	3410.07
801.08	3094.48
801.26	3082.19
801.44	2905.86
801.63	2698.20
801.81	2571.02
801.99	2420.49
802.18	2537.43
802.36	2538.66
802.54	2400.83
802.73	2142.18
802.91	2353.94
803.09	2359.87
803.28	2210.17
803.46	2124.15
803.64	2498.52
803.83	2004.14
804.01	1890.48
804.19	1847.27
804.38	2232.29
804.56	2165.11
804.74	1935.54
804.92	1962.98
805.11	1923.45
805.29	2274.88
805.47	1877.78
805.66	1808.77
805.84	1889.46
806.02	2273.86
806.21	1866.93
806.39	2097.12
806.57	2258.09
806.76	2248.06
806.94	1933.08
807.12	1875.32
807.30	1956.22
807.49	2111.66
807.67	1974.45
807.85	2030.77
808.04	2245.60
808.22	2516.95
808.40	1815.73
808.58	1774.56
808.77	2197.47
808.95	2344.92
809.13	1965.23
809.31	2462.07
809.50	2835.00
809.68	3049.43
809.86	2805.72
810.05	2986.96
810.23	3619.58
810.41	4088.97
810.59	6001.78
810.78	7163.59
810.96	8299.60
811.14	8990.17
811.32	8324.17
811.51	6944.87
811.69	6106.63
811.87	6167.87
812.05	5336.39
812.24	5022.03
812.42	5094.94
812.60	4816.62
812.78	4000.50
812.97	3636.37
813.15	3888.48
813.33	3422.36
813.51	3092.02
813.70	2650.07
813.88	2555.05
814.06	2527.19
814.24	2230.65
814.42	1998.41
814.61	2249.08
814.79	2502.82
814.97	1841.74
815.15	1917.72
815.34	2176.58
815.52	2260.75
815.70	1842.76
815.88	1949.46
816.06	1950.08
816.25	2041.82
816.43	1871.84
816.61	2024.62
816.79	2309.90
816.98	1842.56
817.16	1801.39
817.34	1845.83
817.52	2122.92
817.70	2380.76
817.89	1947.00
818.07	1826.58
818.25	2085.04
818.43	2125.59
818.61	1908.30
818.80	1869.80
818.98	2384.86
819.16	2122.51
819.34	1810.40
819.52	2164.09
819.70	1939.43
819.89	2088.93
820.07	1786.44
820.25	1787.06
820.43	2167.37
820.61	2258.50
820.80	1915.67
820.98	1799.14
821.16	1823.51
821.34	1885.97
821.52	1919.97
821.70	2058.82
821.89	2107.56
822.07	2063.12
822.25	1981.61
822.43	1859.56
822.61	2388.14
822.79	2135.83
822.98	1932.26
823.16	1782.96
823.34	2161.84
823.52	2302.33
823.70	1966.46
823.88	1745.28
824.06	2195.01
824.25	2099.58
824.43	2027.08
824.61	1838.26
824.79	2090.36
824.97	2139.51
825.15	2018.27
825.33	2210.37
825.52	2448.76
825.70	2300.69
825.88	2223.27
826.06	2297.21
826.24	2460.84
826.42	2517.36
826.60	2196.86
826.78	2227.99
826.97	2259.52
827.15	2441.18
827.33	2002.91
827.51	2076.23
827.69	2070.50
827.87	2243.14
828.05	2094.25
828.23	1921.40
828.41	2332.43
828.60	2264.03
828.78	1825.56
828.96	2046.13
829.14	2016.02
829.32	2066.61
829.50	1942.91
829.68	1924.27
829.86	2013.36
830.04	2200.75
830.22	2050.84
830.41	1827.20
830.59	2090.16
830.77	2208.12
830.95	1858.12
831.13	1870.41
831.31	1952.33
831.49	2259.73
831.67	2067.83
831.85	2036.50
832.03	2036.30
832.21	2229.42
832.39	1795.25
832.57	1840.10
832.76	2239.25
832.94	2062.30
833.12	1752.65
833.30	1893.76
833.48	2296.80
833.66	2137.46
833.84	1905.63
834.02	1945.98
834.20	2308.68
834.38	2255.63
834.56	1778.25
834.74	1833.96
834.92	1911.37
835.10	2419.06
835.28	1923.25
835.46	1962.98
835.64	2070.70
835.82	2013.36
836.01	2209.35
836.19	2117.39
836.37	2004.96
836.55	1944.75
836.73	1871.23
836.91	1827.61
837.09	2186.00
837.27	2353.12
837.45	1784.60
837.63	1786.85
837.81	1888.43
837.99	2064.15
838.17	2018.68
838.35	1823.72
838.53	2472.10
838.71	2187.44
838.89	1847.88
839.07	1848.50
839.25	2098.14
839.43	2242.73
839.61	1954.58
839.79	2254.40
839.97	2636.96
840.15	2771.52
840.33	2614.23
840.51	2878.62
840.69	2796.91
840.87	2634.10
841.05	2492.38
841.23	2472.51
841.41	2829.06
841.59	3439.15
841.77	3327.54
841.95	3549.95
842.13	4063.17
842.31	3723.21
842.49	3160.02
842.67	3066.22
842.85	3187.46
843.03	2819.44
843.21	2662.56
843.39	2776.84
843.57	2760.25
843.75	2668.71
843.93	2358.24
844.11	2352.91
844.29	2429.91
844.47	2315.84
844.65	2288.20
844.83	2116.17
845.01	2193.78
845.19	2361.72
845.36	2058.41
845.54	2026.47
845.72	2150.98
845.90	2237.00
846.08	1898.06
846.26	1988.17
846.44	2201.98
846.62	2195.63
846.80	2025.24
846.98	1870.00
847.16	2063.33
847.34	2143.61
847.52	1860.17
847.70	1797.50
847.88	2052.88
848.06	2374.01
848.24	2034.45
848.41	1820.23
848.59	2286.56
848.77	2170.23
848.95	1914.44
849.13	1869.80
849.31	2233.11
849.49	2171.26
849.67	1865.29
849.85	1848.09
850.03	2164.91
850.21	2151.60
850.39	1854.85
850.57	2040.60
850.74	2372.98
850.92	2334.89
851.10	2088.11
851.28	2067.42
851.46	2381.17
851.64	2777.25
851.82	2213.85
852.00	2299.87
852.18	2635.74
852.36	2471.90
852.53	2120.67
852.71	2182.73
852.89	2344.72
853.07	2321.78
853.25	2004.14
853.43	1895.80
853.61	2217.13
853.79	2217.13
853.97	1927.96
854.14	1944.75
854.32	2354.96
854.50	2235.15
854.68	1942.70
854.86	1911.57
855.04	1976.90
855.22	2218.15
855.40	1783.78
855.57	1854.44
855.75	2243.55
855.93	2172.28
856.11	1785.83
856.29	1894.17
856.47	1989.19
856.65	2154.05
856.82	1857.30
857.00	1799.35
857.18	2103.67
857.36	2034.04
857.54	1984.69
857.72	2054.11
857.89	2250.31
858.07	2152.21
858.25	2112.07
858.43	1834.37
858.61	2055.34
858.79	2121.49
858.97	1852.59
859.14	2011.92
859.32	2083.60
859.50	2037.93
859.68	1964.00
859.86	1865.70
860.03	2112.89
860.21	2190.10
860.39	1849.93
860.57	2030.56
860.75	2194.40
860.93	2406.77
861.10	2070.09
861.28	1847.27
861.46	2159.99
861.64	2163.47
861.82	1883.52
861.99	1991.24
862.17	2261.57
862.35	2250.92
862.53	1931.03
862.71	1948.03
862.88	2139.31
863.06	2232.49
863.24	1885.97
863.42	1855.05
863.60	2062.92
863.77	2196.24
863.95	1758.80
864.13	1919.36
864.31	2058.62
864.49	2241.30
864.66	1850.95
864.84	1860.99
865.02	2168.18
865.20	2521.66
865.37	1963.18
865.55	1838.87
865.73	1894.37
865.91	2247.24
866.09	2044.28
866.26	1982.23
866.44	2250.72
866.62	2101.83
866.80	1864.06
866.97	1912.19
867.15	2052.47
867.33	2144.84
867.51	1966.66
867.68	1947.21
867.86	2027.49
868.04	1990.83
868.22	1729.51
868.39	1896.21
868.57	2176.17
868.75	2355.37
868.93	1809.79
869.10	1868.36
869.28	2438.72
869.46	2310.11
869.64	1912.80
869.81	1884.34
869.99	2149.14
870.17	2125.59
870.35	1843.17
870.52	1922.84
870.70	2255.43
870.88	1980.39
871.05	1820.85
871.23	1749.17
871.41	2093.64
871.59	2101.22
871.76	1908.91
871.94	1831.70
872.12	2102.24
872.29	1872.46
872.47	1922.22
872.65	1807.74
872.83	2125.59
873.00	2338.17
873.18	1896.01
873.36	1869.39
873.53	2229.62
873.71	1867.13
873.89	1823.72
874.06	1891.71
874.24	2166.96
874.42	2355.37
874.60	2037.32
874.77	1988.99
874.95	1999.43
875.13	2251.33
875.30	1978.13
875.48	1808.15
875.66	2338.99
875.83	1949.05
876.01	1839.08
876.19	1984.28
876.36	1905.63
876.54	2103.47
876.72	1798.94
876.89	1981.61
877.07	2230.03
877.25	1802.21
877.42	1940.45
877.60	1876.76
877.78	2437.29
877.95	2026.67
878.13	1831.91
878.31	2031.58
878.48	2278.16
878.66	2235.36
878.84	1887.41
879.01	1897.24
879.19	2160.61
879.37	2222.46
879.54	1899.49
879.72	1771.08
879.90	1803.24
880.07	2250.72
880.25	1670.94
880.42	2033.63
880.60	2144.43
880.78	2209.55
880.95	1883.93
881.13	1942.91
881.31	2090.36
881.48	2010.49
881.66	1843.79
881.83	2015.00
882.01	1995.95
882.19	1906.86
882.36	1925.71
882.54	1862.83
882.72	2225.53
882.89	2102.24
883.07	1859.15
883.24	1887.61
883.42	2275.09
883.60	2101.63
883.77	1795.86
883.95	1915.87
884.12	2280.21
884.30	2143.20
884.48	2029.95
884.65	1920.38
884.83	2118.21
885.00	2142.99
885.18	1784.19
885.36	1875.53
885.53	2200.54
885.71	2303.56
885.88	1791.77
886.06	1875.53
886.23	2219.59
886.41	2041.82
886.59	1860.99
886.76	1805.28
886.94	2190.71
887.11	2609.93
887.29	1898.26
887.47	1822.28
887.64	2319.32
887.82	2328.34
887.99	1740.36
888.17	1923.66
888.34	2065.38
888.52	1920.38
888.69	1888.64
888.87	1814.91
889.05	2046.74
889.22	2044.90
889.40	1862.22
889.57	2123.95
889.75	2361.10
889.92	2018.07
890.10	1801.60
890.27	1952.94
890.45	1989.19
890.62	1838.05
890.80	1797.30
890.98	1723.98
891.15	2364.99
891.33	2242.12
891.50	1842.76
891.68	1770.47
891.85	2226.76
892.03	2233.31
892.20	1826.58
892.38	1822.49
892.55	2219.18
892.73	2233.11
892.90	1726.23
893.08	1834.37
893.25	1983.25
893.43	2026.87
893.60	1951.92
893.78	1682.00
893.95	2179.86
894.13	2089.13
894.30	1824.54
894.48	1897.24
894.65	2250.72
894.83	2150.98
895.00	1741.80
895.18	1722.96
895.35	2246.42
895.53	2216.31
895.70	1746.10
895.88	1987.96
896.05	2180.88
896.23	1877.37
896.40	1855.66
896.58	1944.34
896.75	2233.31
896.93	2353.53
897.10	1909.53
897.28	1737.50
897.45	2154.67
897.63	2208.73
897.80	1964.41
897.98	1848.09
898.15	2164.29
898.33	1982.23
898.50	1905.84
898.67	1888.64
898.85	2024.01
899.02	2167.77
899.20	2069.06
899.37	1896.42
899.55	2099.99
899.72	2308.27
899.90	1864.47
900.07	1826.79
900.25	2181.70
900.42	2304.37
900.59	1863.86
900.77	1993.70
900.94	2171.05
901.12	2160.81
901.29	1870.41
901.47	2034.25
901.64	2205.05
901.82	2111.46
901.99	1665.41
902.16	1833.34
902.34	2298.23
902.51	2150.37
902.69	1838.26
902.86	1897.85
903.03	2722.16
903.21	2111.46
903.38	1858.74
903.56	1845.02
903.73	2281.23
903.91	2027.69
904.08	1803.65
904.25	1708.21
904.43	1967.69
904.60	2236.79
904.78	1856.28
904.95	1814.91
905.12	2059.23
905.30	2371.34
905.47	1931.03
905.65	2028.31
905.82	2079.10
905.99	2179.04
906.17	1867.34
906.34	1845.83
906.52	1946.80
906.69	2174.33
906.86	1941.68
907.04	1927.55
907.21	2232.70
907.38	2229.21
907.56	1819.62
907.73	1814.71
907.91	2355.16
908.08	2303.96
908.25	1860.58
908.43	1739.14
908.60	2166.96
908.77	2140.13
908.95	1899.08
909.12	1783.78
909.30	2211.40
909.47	1845.83
909.64	1905.63
909.82	2061.49
909.99	2052.27
910.16	2126.41
910.34	1806.10
910.51	1860.78
910.68	2146.07
910.86	2062.92
911.03	1781.73
911.20	1888.23
911.38	2391.62
911.55	2858.55
911.72	2790.97
911.90	2730.76
912.07	3163.29
912.24	3339.83
912.42	2643.93
912.59	2314.20
912.76	2638.40
912.94	2446.30
913.11	2100.19
913.28	2000.66
913.46	2051.04
913.63	2284.51
913.80	2304.58
913.98	1915.47
914.15	2313.39
914.32	2366.84
914.49	2007.42
914.67	1836.41
914.84	2151.60
915.01	2219.59
915.19	1998.20
915.36	1857.92
915.53	2302.12
915.71	2199.11
915.88	1963.59
916.05	1851.98
916.22	2262.60
916.40	2123.13
916.57	1771.90
916.74	2030.97
916.92	2392.64
917.09	1953.35
917.26	1788.29
917.43	1757.98
917.61	2026.06
917.78	1831.91
917.95	1813.07
918.13	1790.33
918.30	2467.19
918.47	2130.71
918.64	1818.19
918.82	1778.87
918.99	2052.06
919.16	2385.06
919.33	1868.36
919.51	1866.52
919.68	2077.05
919.85	2298.84
920.02	1762.07
920.20	1902.77
920.37	2378.92
920.54	2263.62
920.71	1809.79
920.89	1880.65
921.06	2404.32
921.23	1961.34
921.40	1758.80
921.58	1967.48
921.75	2673.83
921.92	2066.20
922.09	2002.71
922.27	1960.11
922.44	2158.56
922.61	2248.87
922.78	1875.73
922.96	1850.75
923.13	2066.81
923.30	2238.43
923.47	1774.16
923.64	1809.79
923.82	2171.87
923.99	2145.45
924.16	1957.45
924.33	1797.71
924.50	2095.69
924.68	2389.16
924.85	1831.50
925.02	1867.13
925.19	2232.08
925.36	2116.78
925.54	1879.01
925.71	1921.20
925.88	2642.49
926.05	2040.39
926.22	1822.28
926.40	1964.00
926.57	2131.73
926.74	2234.13
926.91	1839.69
927.08	2013.77
927.26	2275.91
927.43	2143.40
927.60	1863.86
927.77	1906.86
927.94	2390.59
928.11	2335.71
928.29	1745.89
928.46	1921.20
928.63	1969.94
928.80	2043.05
928.97	1929.39
929.14	1813.48
929.32	2449.58
929.49	2122.72
929.66	1833.34
929.83	1793.82
930.00	2010.29
930.17	2163.68
930.35	1797.09
930.52	1837.03
930.69	2375.23
930.86	1954.99
931.03	1896.21
931.20	1685.48
931.37	2305.40
931.55	2085.04
931.72	1960.11
931.89	1769.44
932.06	1945.78
932.23	2412.71
932.40	1951.92
932.57	2009.06
932.74	2299.25
932.92	2312.57
933.09	2030.77
933.26	1605.61
933.43	1996.77
933.60	2166.14
933.77	1923.04
933.94	1957.86
934.11	2086.88
934.29	2111.66
934.46	1787.26
934.63	1927.55
934.80	1892.53
934.97	2075.41
935.14	1892.53
935.31	1731.35
935.48	1962.16
935.65	2138.08
935.82	1906.25
936.00	1783.37
936.17	2389.37
936.34	2091.39
936.51	1939.84
936.68	1785.42
936.85	2189.28
937.02	2147.50
937.19	1954.58
937.36	1872.66
937.53	2168.59
937.70	2236.18
937.87	1851.77
938.05	1965.85
938.22	2127.84
938.39	1937.79
938.56	1880.04
938.73	1778.05
938.90	2046.13
939.07	1979.16
939.24	1953.56
939.41	1732.17
939.58	2184.98
939.75	2184.77
939.92	1824.94
940.09	2121.49
940.26	2085.65
940.43	2292.91
940.60	1912.39
940.77	1865.90
940.95	2143.81
941.12	2238.63
941.29	1864.06
941.46	1895.40
941.63	2296.80
941.80	2378.10
941.97	1763.51
942.14	1753.47
942.31	2217.75
942.48	2082.17
942.65	1994.52
942.82	1904.61
942.99	2179.65
943.16	2122.92
943.33	1788.70
943.50	1810.61
943.67	2237.41
943.84	2297.00
944.01	1865.70
944.18	1838.46
944.35	2361.92
944.52	1961.13
944.69	1936.56
944.86	1766.17
945.03	2208.32
945.20	2542.96
945.37	1697.36
945.54	1905.63
945.71	2327.31
945.88	2400.01
946.05	1805.69
946.22	1756.75
946.39	2320.96
946.56	2074.59
946.73	1733.40
946.90	1801.39
947.07	2000.66
947.24	2065.99
947.41	1713.13
947.58	1934.10
947.75	2255.22
947.92	2162.25
948.09	1683.84
948.26	1727.46
948.43	2147.70
948.60	2436.47
948.77	1782.35
948.94	1872.46
949.11	2225.12
949.27	2178.63
949.44	1823.31
949.61	1756.34
949.78	2195.01
949.95	2302.12
950.12	1750.81
950.29	1713.74
950.46	2007.62
950.63	2292.70
950.80	1805.49
950.97	1850.13
951.14	2290.86
951.31	2052.88
951.48	1793.41
951.65	1756.34
951.82	2417.42
951.99	2146.48
952.15	1772.31
952.32	1843.79
952.49	2000.87
952.66	2009.67
952.83	1815.73
953.00	1806.10
953.17	2092.00
953.34	2278.37
953.51	1897.85
953.68	1889.66
953.85	2291.27
954.02	2319.53
954.18	1896.42
954.35	1834.98
954.52	1978.75
954.69	2154.46
954.86	1712.72
955.03	1914.85
955.20	2219.18
955.37	2088.31
955.54	1835.18
955.71	1799.55
955.87	2158.76
956.04	2394.69
956.21	1835.39
956.38	1818.80
956.55	2144.63
956.72	2572.86
956.89	1918.54
957.06	1786.03
957.23	2006.39
957.39	2320.35
957.56	1878.60
957.73	1753.47
957.90	1755.72
958.07	2418.04
958.24	1892.73
958.41	1856.28
958.57	2232.08
958.74	2098.14
958.91	1765.76
959.08	1795.86
959.25	2214.06
959.42	2045.92
959.59	1875.94
959.75	1879.42
959.92	2334.07
960.09	2275.50
960.26	1785.01
960.43	1921.20
960.60	2133.37
960.76	2051.04
960.93	1737.29
961.10	1930.82
961.27	2227.78
961.44	2062.92
961.61	1753.88
961.77	1744.87
961.94	2133.78
962.11	2268.13
962.28	1829.25
962.45	1756.75
962.62	2035.89
962.78	2255.22
962.95	1726.85
963.12	1821.26
963.29	2209.14
963.46	2624.27
963.62	1917.10
963.79	1820.44
963.96	2563.44
964.13	2058.00
964.30	1940.66
964.46	1821.05
964.63	1966.25
964.80	2567.13
964.97	1674.83
965.14	1969.53
965.30	2175.15
965.47	2271.61
965.64	2039.78
965.81	1959.09
965.98	2362.74
966.14	2148.93
966.31	1820.64
966.48	1833.34
966.65	2304.58
966.81	2166.14
966.98	1869.18
967.15	1847.68
967.32	2091.39
967.49	1978.54
967.65	1699.81
967.82	1691.83
967.99	2105.11
968.16	1837.64
968.32	1979.57
968.49	1801.19
968.66	2061.49
968.83	2357.21
968.99	1917.51
969.16	1764.94
969.33	2318.51
969.50	2215.70
969.66	1971.58
969.83	2107.56
970.00	2238.84
970.17	2187.44
970.33	1878.60
970.50	1759.21
970.67	2418.65
970.84	2333.66
971.00	1783.78
971.17	1715.58
971.34	2233.11
971.50	2113.71
971.67	1960.11
971.84	1855.46
972.01	1893.76
972.17	1757.57
972.34	1749.58
972.51	2008.65
972.67	2315.64
972.84	2149.14
973.01	1817.16
973.18	1810.20
973.34	2250.72
973.51	1969.33
973.68	1848.09
973.84	1877.58
974.01	2037.52
974.18	2382.61
974.34	1912.80
974.51	1927.55
974.68	1995.95
974.85	2466.98
975.01	1951.92
975.18	1840.71
975.35	2139.10
975.51	1960.52
975.68	1754.09
975.85	2023.39
976.01	1993.70
976.18	2347.59
976.35	1856.28
976.51	1876.14
976.68	2387.11
976.85	2270.79
977.01	1875.12
977.18	1913.62
977.35	2205.66
977.51	1929.39
977.68	1681.18
977.85	1759.61
978.01	2263.42
978.18	2200.95
978.35	1851.77
978.51	1900.72
978.68	2261.37
978.85	2445.27
979.01	1888.84
979.18	1875.12
979.34	2066.20
979.51	2141.15
979.68	1793.20
979.84	1916.08
980.01	2579.42
980.18	2129.68
980.34	1776.41
980.51	1910.55
980.67	2259.73
980.84	2250.92
981.01	1805.08
981.17	1923.04
981.34	1834.57
981.51	2207.51
981.67	1787.67
981.84	1906.45
982.00	2197.27
982.17	2086.47
982.34	1665.20
982.50	1585.54
982.67	2392.23
982.83	2011.51
983.00	1739.75
983.17	1646.16
983.33	2322.19
983.50	1847.47
983.66	1740.98
983.83	1616.05
984.00	2021.96
984.16	2118.01
984.33	1666.02
984.49	1587.79
984.66	1950.08
984.83	2253.79
984.99	1702.48
985.16	1608.47
985.32	2208.12
985.49	2231.06
985.65	1766.37
985.82	1621.58
985.99	2365.20
986.15	2150.78
986.32	1744.87
986.48	1682.61
986.65	2031.99
986.81	2228.39
986.98	1645.54
987.14	1705.14
987.31	2126.82
987.48	1829.66
987.64	1594.75
987.81	1630.59
987.97	2490.33
988.14	1957.45
988.30	1633.46
988.47	1509.35
988.63	2147.50
988.80	1940.45
988.96	1701.66
989.13	1736.27
989.30	2040.19
989.46	2243.14
989.63	1590.86
989.79	1595.37
989.96	2121.29
990.12	2355.98
990.29	1658.24
990.45	1727.87
990.62	2101.42
990.78	2309.08
990.95	1763.30
991.11	1690.80
991.28	2031.99
991.44	2152.01
991.61	1565.06
991.77	1749.78
991.94	2148.32
992.10	2287.58
992.27	1705.34
992.43	1719.06
992.60	2190.71
992.76	2045.92
992.93	1874.10
993.09	1615.64
993.26	2305.40
993.42	2422.13
993.59	1660.70
993.75	1592.91
993.92	1994.93
994.08	1962.98
994.25	1743.44
994.41	1629.36
994.58	2231.26
994.74	2378.51
994.91	1631.21
995.07	1765.76
995.24	2069.68
995.40	2074.80
995.56	1793.00
995.73	1754.70
995.89	2407.39
996.06	2076.03
996.22	1665.00
996.39	1593.93
996.55	2069.47
996.72	2176.99
996.88	1606.02
997.05	1636.33
997.21	2453.47
997.37	2199.72
997.54	1759.21
997.70	1698.99
997.87	2129.89
998.03	2096.92
998.20	1563.83
998.36	1583.08
998.52	2228.39
998.69	2282.46
998.85	1602.95
999.02	1672.78
999.18	2275.50
999.35	2243.96
999.51	1701.04
999.67	1693.47
999.84	1933.90
1000.00	2224.91
1000.17	1745.69
1000.33	1637.35
1000.49	2008.24
1000.66	2105.93
1000.82	1654.76
1000.99	1724.59
1001.15	2307.65
1001.31	2037.93
1001.48	1678.11
1001.64	1752.24
1001.81	2071.32
1001.97	2481.93
1002.13	1703.71
1002.30	1704.93
1002.46	2347.59
1002.63	2055.14
1002.79	1778.46
1002.95	1642.06
1003.12	2265.87
1003.28	2178.42
1003.45	1653.73
1003.61	1610.73
1003.77	2093.23
1003.94	1911.57
1004.10	1665.20
1004.26	1759.61
1004.43	2182.52
1004.59	2402.68
1004.75	1649.23
1004.92	1639.60
1005.08	1998.41
1005.25	2133.16
1005.41	1661.52
1005.57	1734.42
1005.74	2319.94
1005.90	2005.37
1006.06	1825.76
1006.23	1651.48
1006.39	2206.48
1006.55	2599.69
1006.72	1787.06
1006.88	1581.03
1007.04	1935.33
1007.21	2059.85
1007.37	1709.03
1007.53	1655.99
1007.70	2369.30
1007.86	2243.75
1008.02	1762.89
1008.19	1624.65
1008.35	2156.31
1008.51	1974.45
1008.68	1671.55
1008.84	1636.94
1009.00	1927.55
1009.17	2289.63
1009.33	1851.16
1009.49	1749.99
1009.65	1969.94
1009.82	2165.73
1009.98	1746.51
1010.14	1568.54
1010.31	2209.96
1010.47	2170.85
1010.63	1738.73
1010.80	1721.52
1010.96	2211.60
1011.12	2086.47
1011.28	1683.23
1011.45	1662.54
1011.61	2603.99
1011.77	1932.87
1011.94	1648.21
1012.10	1628.75
1012.26	1961.34
1012.42	2025.65
1012.59	1720.70
1012.75	1725.00
1012.91	2072.54
1013.07	2248.46
1013.24	1624.86
1013.40	1632.64
1013.56	2141.56
1013.72	2088.72
1013.89	1712.92
1014.05	1772.52
1014.21	2466.78
1014.37	2551.97
1014.54	1724.39
1014.70	1601.72
1014.86	2077.25
1015.02	1930.62
1015.19	1675.24
1015.35	1617.90
1015.51	2065.17
1015.67	2017.86
1015.84	1669.30
1016.00	1706.16
1016.16	2314.00
1016.32	2234.33
1016.49	1672.99
1016.65	1607.66
1016.81	2083.19
1016.97	2185.18
1017.14	1824.13
1017.30	1685.27
1017.46	2030.15
1017.62	2161.84
1017.78	1751.63
1017.95	1657.83
1018.11	2231.88
1018.27	2541.53
1018.43	1822.69
1018.59	1746.51
1018.76	2228.60
1018.92	2563.85
1019.08	1628.14
1019.24	1694.69
1019.40	2369.70
1019.57	2125.59
1019.73	1773.75
1019.89	1702.48
1020.05	2114.53
1020.21	2438.11
1020.38	1648.82
1020.54	1859.97
1020.70	2238.43
1020.86	2245.39
1021.02	1674.01
1021.18	1665.82
1021.35	2018.68
1021.51	2171.05
1021.67	1857.51
1021.83	1731.15
1021.99	2102.85
1022.15	2132.75
1022.32	1730.94
1022.48	1711.90
1022.64	2353.73
1022.80	2377.28
1022.96	1751.22
1023.12	1605.81
1023.29	2293.72
1023.45	2187.03
1023.61	1668.68
1023.77	1898.67
1023.93	2120.67
1024.09	1941.88
1024.25	1673.40
1024.42	1605.20
1024.58	2052.88
1024.74	2166.96
1024.90	1678.72
1025.06	1747.12
1025.22	2004.14
1025.38	2373.39
1025.54	1598.44
1025.71	1795.25
1025.87	2198.70
1026.03	2168.80
1026.19	1637.76
1026.35	1859.35
1026.51	2182.73
1026.67	2099.37
1026.83	1752.04
1026.99	1847.27
1027.16	2191.94
1027.32	2070.70
1027.48	1695.10
1027.64	1660.70
1027.80	2215.29
1027.96	2146.48
1028.12	1706.37
1028.28	1688.96
1028.44	2153.64
1028.60	2368.07
1028.77	1830.27
1028.93	1738.11
1029.09	2026.87
1029.25	1942.09
1029.41	1722.14
1029.57	1800.16
1029.73	2164.91
1029.89	2371.75
1030.05	1798.32
1030.21	1743.64
1030.37	2509.99
1030.53	2219.38
1030.69	1709.64
1030.85	1641.24
1031.02	1929.39
1031.18	2117.19
1031.34	1680.77
1031.50	1783.58
1031.66	1953.97
1031.82	2370.52
1031.98	1729.51
1032.14	1640.63
1032.30	1954.79
1032.46	2240.68
1032.62	1822.90
1032.78	1607.04
1032.94	2019.50
1033.10	2042.44
1033.26	1759.21
1033.42	1829.86
1033.58	2493.61
1033.74	2020.32
1033.90	1677.70
1034.06	1878.81
1034.22	2510.20
1034.38	2311.75
1034.54	1746.30
1034.70	1745.48
1034.86	2419.88
>>>>>End Processed Spectral Data<<<<<
