SpectraSuite Data File
++++++++++++++++++++++++++++++++++++
Date: Thu Mar 30 14:07:48 PDT 2017
User: UCSD _CER
Dark Spectrum Present: No
Reference Spectrum Present: No
Number of Sampled Component Spectra: 1
Spectrometers: USB4C00073
Integration Time (usec): 380000 (USB4C00073)
Spectra Averaged: 10 (USB4C00073)
Boxcar Smoothing: 0 (USB4C00073)
Correct for Electrical Dark: No (USB4C00073)
Strobe/Lamp Enabled: No (USB4C00073)
Correct for Detector Non-linearity: No (USB4C00073)
Correct for Stray Light: No (USB4C00073)
Number of Pixels in Processed Spectrum: 3648
>>>>>Begin Processed Spectral Data<<<<<
345.37	1212.40
345.58	1212.40
345.80	1212.40
346.01	1187.82
346.22	1197.65
346.43	1975.06
346.65	1836.82
346.86	2306.63
347.07	2251.13
347.28	1755.72
347.50	1777.64
347.71	2056.57
347.92	1767.40
348.13	1778.05
348.35	1742.00
348.56	2026.87
348.77	1834.57
348.98	1768.83
349.20	1627.93
349.41	2029.13
349.62	2176.17
349.83	1884.13
350.05	1766.99
350.26	2078.69
350.47	2242.73
350.68	1787.26
350.90	1701.86
351.11	2266.28
351.32	2246.21
351.53	1841.53
351.75	1754.70
351.96	2104.29
352.17	2069.68
352.38	1870.61
352.60	1872.87
352.81	2075.00
353.02	2343.90
353.23	1780.71
353.44	1806.51
353.66	1963.80
353.87	2008.85
354.08	1874.10
354.29	1797.09
354.51	1939.43
354.72	2001.28
354.93	1775.79
355.14	1772.72
355.35	1793.61
355.57	2212.42
355.78	1834.37
355.99	1901.54
356.20	2075.82
356.42	2011.72
356.63	1894.37
356.84	1785.21
357.05	2209.96
357.26	2421.31
357.48	1925.91
357.69	1881.88
357.90	2115.55
358.11	1988.37
358.32	1830.27
358.54	1861.40
358.75	1985.71
358.96	2135.01
359.17	1806.72
359.38	1807.95
359.60	2143.81
359.81	2024.21
360.02	1802.01
360.23	1757.98
360.44	1921.20
360.66	2158.56
360.87	1741.39
361.08	1745.89
361.29	2109.41
361.50	2035.27
361.72	1771.29
361.93	1863.04
362.14	2039.57
362.35	1824.54
362.56	1956.22
362.77	1700.84
362.99	2124.56
363.20	2011.51
363.41	1870.41
363.62	1673.19
363.83	2141.15
364.05	2183.13
364.26	1739.95
364.47	1780.50
364.68	2207.51
364.89	1912.60
365.10	1680.15
365.32	1820.64
365.53	1898.06
365.74	1952.94
365.95	1784.60
366.16	1672.99
366.37	2010.90
366.59	1975.68
366.80	1800.98
367.01	1659.88
367.22	2367.04
367.43	2481.93
367.64	1815.52
367.86	1801.39
368.07	2107.36
368.28	2201.77
368.49	1720.50
368.70	1823.31
368.91	1989.60
369.12	1983.25
369.34	1696.95
369.55	1684.66
369.76	2018.89
369.97	1924.48
370.18	1722.34
370.39	1740.77
370.60	1793.82
370.82	1865.90
371.03	1803.03
371.24	1759.00
371.45	2154.87
371.66	2120.88
371.87	1802.42
372.08	1809.59
372.30	1898.67
372.51	2221.84
372.72	1941.47
372.93	1809.99
373.14	2300.48
373.35	1934.10
373.56	1735.24
373.78	1795.04
373.99	2163.68
374.20	2489.51
374.41	1785.42
374.62	1754.90
374.83	2305.40
375.04	1962.57
375.25	1816.55
375.47	1812.45
375.68	1979.16
375.89	2154.26
376.10	1815.32
376.31	1893.55
376.52	2138.90
376.73	2089.95
376.94	1823.72
377.15	1752.04
377.37	2022.57
377.58	2018.48
377.79	1720.09
378.00	1736.88
378.21	2077.46
378.42	2148.32
378.63	1846.04
378.84	1875.94
379.05	2187.64
379.27	2070.91
379.48	1870.21
379.69	1748.97
379.90	2232.49
380.11	1742.82
380.32	1825.56
380.53	1948.23
380.74	2296.59
380.95	2070.70
381.16	1864.68
381.37	1851.36
381.59	2284.92
381.80	2203.41
382.01	1813.27
382.22	1740.77
382.43	2139.31
382.64	2046.94
382.85	1769.85
383.06	1895.80
383.27	2125.18
383.48	2011.11
383.69	1860.78
383.91	1764.94
384.12	2185.39
384.33	2167.98
384.54	1902.77
384.75	1795.45
384.96	2607.88
385.17	2263.82
385.38	1865.09
385.59	1836.21
385.80	2228.39
386.01	2337.76
386.22	1933.69
386.43	1866.72
386.64	2433.60
386.86	2078.07
387.07	1965.23
387.28	1773.13
387.49	1981.82
387.70	2315.84
387.91	1944.55
388.12	1842.35
388.33	2123.13
388.54	1981.20
388.75	1796.48
388.96	1900.31
389.17	1980.80
389.38	2008.44
389.59	1893.76
389.80	1865.09
390.01	2032.20
390.22	1966.25
390.43	1942.70
390.64	1710.05
390.86	2120.88
391.07	2226.76
391.28	1794.43
391.49	1874.10
391.70	1821.26
391.91	1939.63
392.12	1825.56
392.33	1887.20
392.54	2088.93
392.75	2037.73
392.96	1948.23
393.17	1791.56
393.38	2438.31
393.59	2215.08
393.80	1727.67
394.01	1890.89
394.22	2058.21
394.43	2398.58
394.64	1786.65
394.85	1974.24
395.06	2074.39
395.27	2059.03
395.48	1807.95
395.69	1715.17
395.90	2035.27
396.11	2031.79
396.32	1795.86
396.53	1923.25
396.74	2007.01
396.95	2207.71
397.16	1778.46
397.37	1681.79
397.58	2178.22
397.79	2037.11
398.00	1863.65
398.21	1821.67
398.42	2075.21
398.63	2369.50
398.84	1772.72
399.05	1766.99
399.26	2233.31
399.47	2095.07
399.68	1661.52
399.89	1771.70
400.10	1844.20
400.31	2010.08
400.52	1899.08
400.73	1844.61
400.94	1906.04
401.15	2164.29
401.36	1897.65
401.57	1926.52
401.78	2264.64
401.99	2198.70
402.20	1758.18
402.41	1964.41
402.62	2301.30
402.83	1995.95
403.04	1800.98
403.25	2005.78
403.46	2148.73
403.67	2342.47
403.88	1925.50
404.09	1900.52
404.30	2057.18
404.51	2037.93
404.72	1820.85
404.93	2000.46
405.14	1951.30
405.35	2056.16
405.56	1848.70
405.77	1773.95
405.98	2058.00
406.19	2058.21
406.40	1802.42
406.61	1863.24
406.82	2044.08
407.03	2490.33
407.24	1815.93
407.45	1919.97
407.66	2169.62
407.87	2238.63
408.08	1898.26
408.29	1911.37
408.49	2140.13
408.70	2014.79
408.91	1795.66
409.12	1935.33
409.33	1913.21
409.54	2252.56
409.75	1796.48
409.96	1837.85
410.17	2207.51
410.38	2059.03
410.59	1802.83
410.80	1901.33
411.01	2037.73
411.22	2014.18
411.43	1884.95
411.64	1757.57
411.85	1910.35
412.06	1886.38
412.27	1625.27
412.47	1797.30
412.68	2062.30
412.89	2114.53
413.10	1825.15
413.31	1739.34
413.52	2367.45
413.73	2370.32
413.94	1787.47
414.15	1954.38
414.36	1942.91
414.57	1905.63
414.78	1795.86
414.99	1985.10
415.19	2510.81
415.40	2559.35
415.61	2504.05
415.82	2388.14
416.03	2540.30
416.24	2379.33
416.45	2018.27
416.66	1823.72
416.87	1878.81
417.08	2156.51
417.29	1816.34
417.50	1941.06
417.70	2252.56
417.91	2220.82
418.12	2007.62
418.33	2035.68
418.54	2343.49
418.75	2500.98
418.96	2411.48
419.17	2586.58
419.38	3208.55
419.59	3101.85
419.79	2890.91
420.00	2666.66
420.21	3066.63
420.42	2438.11
420.63	2026.87
420.84	1996.77
421.05	2096.92
421.26	2068.45
421.47	1757.98
421.67	2164.70
421.88	1937.58
422.09	1922.63
422.30	2095.48
422.51	1908.50
422.72	2425.20
422.93	2218.97
423.14	1891.50
423.35	1752.04
423.55	1845.63
423.76	1949.46
423.97	1851.57
424.18	1728.28
424.39	2017.45
424.60	2219.59
424.81	1908.50
425.02	2100.19
425.22	2312.77
425.43	2348.61
425.64	2453.67
425.85	2428.89
426.06	2897.26
426.27	2652.53
426.48	2465.75
426.68	2386.09
426.89	2579.01
427.10	2705.57
427.31	2157.54
427.52	1944.75
427.73	2324.85
427.94	2207.10
428.14	2023.39
428.35	1907.07
428.56	2316.25
428.77	2207.92
428.98	1906.86
429.19	1979.36
429.40	2152.62
429.60	2195.63
429.81	2181.09
430.02	2087.70
430.23	2157.54
430.44	2251.13
430.65	1858.33
430.85	1868.98
431.06	2151.39
431.27	1815.52
431.48	1840.71
431.69	1865.49
431.90	2074.39
432.10	2089.95
432.31	2010.90
432.52	2070.09
432.73	2798.55
432.94	2731.58
433.15	2399.60
433.35	2200.34
433.56	2521.66
433.77	2392.44
433.98	2854.66
434.19	3059.26
434.40	3478.68
434.60	3461.68
434.81	3246.03
435.02	2704.55
435.23	2610.34
435.44	2431.76
435.64	2013.56
435.85	1917.92
436.06	2099.78
436.27	2072.34
436.48	1914.03
436.68	1966.05
436.89	2560.58
437.10	2407.18
437.31	2133.16
437.52	2188.87
437.73	2321.99
437.93	2274.88
438.14	2028.10
438.35	1780.91
438.56	2071.11
438.77	2047.97
438.97	2017.04
439.18	1937.99
439.39	2510.60
439.60	2220.41
439.80	2155.08
440.01	2228.39
440.22	2262.60
440.43	2334.27
440.64	1911.78
440.84	1958.06
441.05	1947.21
441.26	2522.89
441.47	1959.70
441.68	2040.39
441.88	2494.63
442.09	2623.45
442.30	2757.18
442.51	2826.20
442.71	2756.57
442.92	2632.46
443.13	2274.06
443.34	2109.20
443.55	2089.95
443.75	2234.74
443.96	1882.90
444.17	1794.23
444.38	2202.18
444.58	1914.24
444.79	1922.43
445.00	1883.31
445.21	2015.61
445.41	2006.19
445.62	1667.87
445.83	1951.92
446.04	2057.80
446.24	1857.10
446.45	1690.60
446.66	1862.42
446.87	2108.79
447.07	1976.09
447.28	2088.31
447.49	1912.80
447.70	2281.64
447.90	2277.14
448.11	1972.40
448.32	1990.63
448.53	2307.86
448.73	2292.91
448.94	1859.15
449.15	1999.02
449.36	2059.44
449.56	2105.72
449.77	1826.58
449.98	1750.19
450.19	2040.19
450.39	2128.45
450.60	2072.75
450.81	2078.69
451.02	2208.12
451.22	2400.42
451.43	1919.77
451.64	1911.37
451.84	2050.43
452.05	2293.93
452.26	1920.38
452.47	1868.16
452.67	1974.04
452.88	2263.42
453.09	1781.32
453.30	1777.43
453.50	2178.22
453.71	2441.18
453.92	2006.60
454.12	2188.46
454.33	2174.74
454.54	2207.30
454.75	1908.91
454.95	1884.34
455.16	2142.99
455.37	2192.35
455.57	1947.41
455.78	1878.60
455.99	2048.17
456.19	2040.60
456.40	1798.94
456.61	1881.47
456.82	2068.45
457.02	2241.71
457.23	2087.29
457.44	2251.95
457.64	2227.37
457.85	2340.01
458.06	2094.87
458.26	2197.88
458.47	2211.40
458.68	2388.96
458.89	2039.37
459.09	2162.86
459.30	2500.77
459.51	2171.87
459.71	1813.68
459.92	1905.84
460.13	2379.53
460.33	2707.21
460.54	2172.69
460.75	2200.95
460.95	2167.57
461.16	2292.29
461.37	1965.23
461.57	1965.23
461.78	2142.58
461.99	1956.01
462.19	2158.56
462.40	1847.68
462.61	2636.35
462.81	2246.83
463.02	1811.84
463.23	1870.41
463.43	2187.44
463.64	1962.16
463.85	3008.06
464.05	1843.17
464.26	2591.50
464.47	2249.08
464.67	2041.01
464.88	2044.49
465.09	2111.87
465.29	2283.69
465.50	2235.97
465.71	2110.23
465.91	2133.37
466.12	2116.78
466.33	1988.17
466.53	1854.03
466.74	2319.53
466.94	2040.19
467.15	1944.14
467.36	2088.52
467.56	1903.59
467.77	2087.49
467.98	1892.94
468.18	1832.32
468.39	1976.29
468.60	2332.23
468.80	1870.82
469.01	1799.96
469.21	2152.82
469.42	2295.16
469.63	1919.15
469.83	1892.12
470.04	2211.60
470.25	2360.49
470.45	1997.79
470.66	1883.72
470.86	2135.83
471.07	2002.30
471.28	1974.45
471.48	1970.97
471.69	2120.88
471.90	2808.99
472.10	2150.57
472.31	2155.90
472.51	2276.52
472.72	2401.86
472.93	2261.98
473.13	2435.85
473.34	2576.55
473.54	2520.84
473.75	2232.29
473.96	2238.02
474.16	2167.77
474.37	2198.90
474.57	2039.37
474.78	1883.31
474.99	2190.71
475.19	2116.58
475.40	1884.34
475.60	1919.36
475.81	2521.87
476.02	2319.73
476.22	2269.56
476.43	2315.02
476.63	2227.37
476.84	2346.56
477.05	1813.07
477.25	1887.41
477.46	2630.41
477.66	2114.12
477.87	1841.12
478.08	1878.60
478.28	2199.72
478.49	2009.06
478.69	1847.68
478.90	1851.77
479.10	2121.08
479.31	2328.95
479.52	1990.01
479.72	2398.38
479.93	2955.63
480.13	2968.12
480.34	2886.61
480.54	2989.22
480.75	2595.39
480.96	2595.60
481.16	2065.38
481.37	2196.86
481.57	2377.49
481.78	2330.38
481.98	2243.14
482.19	2097.53
482.40	2439.95
482.60	2194.40
482.81	2119.65
483.01	1797.91
483.22	2181.29
483.42	2189.28
483.63	1961.13
483.83	1996.77
484.04	2164.09
484.24	2424.80
484.45	2268.94
484.66	2093.64
484.86	2320.55
485.07	2067.83
485.27	2019.50
485.48	1919.56
485.68	2308.06
485.89	1969.94
486.09	2021.14
486.30	1912.19
486.50	2133.57
486.71	2094.66
486.91	2027.08
487.12	2530.27
487.33	3298.25
487.53	3497.93
487.74	3186.23
487.94	3144.45
488.15	2835.41
488.35	2619.56
488.56	2226.35
488.76	2146.89
488.97	2268.74
489.17	2313.39
489.38	2109.82
489.58	2050.43
489.79	2261.57
489.99	2214.06
490.20	1957.24
490.40	2073.57
490.61	2156.10
490.81	1978.13
491.02	1959.50
491.22	1946.59
491.43	2182.73
491.63	2055.55
491.84	2037.32
492.04	1801.80
492.25	2156.31
492.45	2084.42
492.66	1952.33
492.86	1898.88
493.07	2169.00
493.27	2522.07
493.48	1826.79
493.68	1921.20
493.89	2013.56
494.09	2200.54
494.30	1913.62
494.50	2135.62
494.71	2146.07
494.91	1843.58
495.12	1920.59
495.32	1975.47
495.53	2100.60
495.73	1971.99
495.94	2119.65
496.14	2015.61
496.35	2642.49
496.55	2300.48
496.76	2016.23
496.96	2058.41
497.17	2123.95
497.37	2175.56
497.58	1920.18
497.78	1825.35
497.98	2040.39
498.19	2041.62
498.39	1908.91
498.60	1951.92
498.80	1781.32
499.01	2170.44
499.21	1819.01
499.42	1948.64
499.62	2013.15
499.83	2423.16
500.03	1907.48
500.24	2177.81
500.44	2526.17
500.64	2512.04
500.85	2170.44
501.05	2235.15
501.26	1995.13
501.46	2400.63
501.67	1978.13
501.87	1904.41
502.08	1965.03
502.28	2040.39
502.48	2016.84
502.69	2069.68
502.89	1880.85
503.10	1953.97
503.30	1971.58
503.51	1936.35
503.71	1845.83
503.92	2151.80
504.12	1949.26
504.32	1855.66
504.53	2182.32
504.73	2164.91
504.94	2062.71
505.14	2152.62
505.35	2271.61
505.55	2301.30
505.75	2126.20
505.96	2281.64
506.16	2598.05
506.37	2121.29
506.57	1951.10
506.78	2049.20
506.98	2270.17
507.18	1923.45
507.39	1861.40
507.59	1951.30
507.80	1985.51
508.00	2114.94
508.20	2139.72
508.41	1931.85
508.61	2287.99
508.82	2210.99
509.02	2067.42
509.22	1861.40
509.43	1914.03
509.63	1975.27
509.84	1933.08
510.04	1765.14
510.24	2306.22
510.45	2169.21
510.65	1830.27
510.86	1958.68
511.06	1880.65
511.26	2185.80
511.47	2078.48
511.67	1836.41
511.88	2163.06
512.08	2195.63
512.28	1824.74
512.49	2004.96
512.69	2071.11
512.90	2081.97
513.10	1908.30
513.30	1981.82
513.51	2185.59
513.71	2434.63
513.91	2120.67
514.12	2108.59
514.32	2346.56
514.53	2077.87
514.73	2058.21
514.93	1977.11
515.14	2120.06
515.34	2287.58
515.54	1934.31
515.75	2062.30
515.95	2225.94
516.15	2341.65
516.36	2003.32
516.56	2020.12
516.77	1773.75
516.97	2149.96
517.17	1938.40
517.38	2019.91
517.58	2317.89
517.78	1996.97
517.99	2037.93
518.19	1991.65
518.39	2301.92
518.60	2084.01
518.80	1866.31
519.00	1999.43
519.21	2043.26
519.41	2332.84
519.61	1842.15
519.82	2023.39
520.02	2057.59
520.22	2054.11
520.43	1922.43
520.63	1937.58
520.83	1977.72
521.04	1801.60
521.24	1982.02
521.44	1896.83
521.65	1934.51
521.85	2157.74
522.05	1892.32
522.26	1883.72
522.46	2349.22
522.66	2174.53
522.87	1907.68
523.07	2064.76
523.27	1983.66
523.48	2264.85
523.68	1934.51
523.88	1974.45
524.09	2202.80
524.29	2096.92
524.49	1773.75
524.70	2025.65
524.90	2260.14
525.10	2147.30
525.31	1822.08
525.51	1814.71
525.71	2183.95
525.91	2148.52
526.12	1906.04
526.32	1825.56
526.52	1965.03
526.73	1939.22
526.93	1986.32
527.13	1796.89
527.34	2020.53
527.54	2040.19
527.74	1926.73
527.94	1810.20
528.15	1893.35
528.35	2081.97
528.55	2003.12
528.76	1960.32
528.96	1789.31
529.16	2203.41
529.36	2036.70
529.57	1820.44
529.77	2230.03
529.97	1905.84
530.18	2020.12
530.38	1888.43
530.58	2107.16
530.78	2035.68
530.99	1881.06
531.19	1976.49
531.39	1933.49
531.60	2058.21
531.80	1923.04
532.00	2054.32
532.20	2080.53
532.41	1913.01
532.61	1896.01
532.81	1886.79
533.01	1993.90
533.22	2123.54
533.42	2075.82
533.62	1803.24
533.82	2273.45
534.03	2025.65
534.23	2022.78
534.43	1863.65
534.63	2011.92
534.84	2107.16
535.04	2037.52
535.24	1957.45
535.44	2486.03
535.65	1998.00
535.85	1903.38
536.05	1893.76
536.25	2071.11
536.46	1935.13
536.66	2082.37
536.86	1989.60
537.06	2160.20
537.27	2290.24
537.47	1992.26
537.67	1918.33
537.87	2274.47
538.08	2062.92
538.28	1843.17
538.48	1838.46
538.68	2040.39
538.88	2175.97
539.09	1795.66
539.29	1916.28
539.49	2202.39
539.69	2092.20
539.90	1991.85
540.10	1848.91
540.30	2253.18
540.50	1994.52
540.70	1825.15
540.91	1899.70
541.11	2198.70
541.31	2327.11
541.51	2013.97
541.72	2021.96
541.92	2106.54
542.12	1990.22
542.32	1975.88
542.52	1917.10
542.73	1970.35
542.93	2147.09
543.13	1933.08
543.33	2046.74
543.53	2195.83
543.74	2146.07
543.94	1927.55
544.14	2052.06
544.34	2296.39
544.54	2091.59
544.75	2077.05
544.95	2205.25
545.15	2259.32
545.35	2394.89
545.55	2101.22
545.75	1973.42
545.96	2446.91
546.16	1951.71
546.36	1986.73
546.56	1993.70
546.76	2258.70
546.97	2347.59
547.17	1979.98
547.37	2048.79
547.57	2015.82
547.77	2184.16
547.97	2016.84
548.18	2000.46
548.38	2038.55
548.58	2342.67
548.78	1932.46
548.98	2043.87
549.18	2288.20
549.39	2443.02
549.59	2110.23
549.79	2037.11
549.99	2371.14
550.19	2233.11
550.39	2140.54
550.60	1979.57
550.80	2139.51
551.00	2164.09
551.20	1946.80
551.40	1956.83
551.60	2143.61
551.80	2127.43
552.01	2068.24
552.21	1968.71
552.41	2126.00
552.61	2372.98
552.81	2027.08
553.01	1865.70
553.21	2150.37
553.42	1926.32
553.62	1913.83
553.82	1856.28
554.02	2312.16
554.22	2182.52
554.42	1861.40
554.62	2055.96
554.83	2376.87
555.03	2379.53
555.23	2068.24
555.43	2343.08
555.63	2238.63
555.83	2212.01
556.03	2130.91
556.23	1902.97
556.44	2158.97
556.64	2319.53
556.84	1759.21
557.04	2012.13
557.24	2116.37
557.44	2092.82
557.64	2028.92
557.84	1882.90
558.04	2018.48
558.25	2181.91
558.45	1894.58
558.65	1968.71
558.85	2065.99
559.05	1825.56
559.25	1960.11
559.45	2007.83
559.65	2448.14
559.85	2968.33
560.05	2107.16
560.26	2203.61
560.46	2205.05
560.66	2103.26
560.86	2000.05
561.06	1920.38
561.26	2306.63
561.46	2170.85
561.66	1973.01
561.86	2075.41
562.06	1945.37
562.26	2020.32
562.47	1972.40
562.67	1835.39
562.87	2157.33
563.07	1850.75
563.27	1959.70
563.47	1933.49
563.67	1991.65
563.87	2160.20
564.07	1916.90
564.27	1979.77
564.47	2141.77
564.67	2163.47
564.87	1964.00
565.08	2046.94
565.28	2000.66
565.48	2191.12
565.68	2045.72
565.88	2073.57
566.08	2372.57
566.28	2064.15
566.48	1840.10
566.68	1953.15
566.88	2038.34
567.08	2211.19
567.28	1977.72
567.48	1990.83
567.68	2132.96
567.88	1875.73
568.08	1984.69
568.28	2104.08
568.48	2037.93
568.68	2247.44
568.89	2029.13
569.09	1826.38
569.29	2180.88
569.49	2190.51
569.69	1865.70
569.89	1901.95
570.09	1752.04
570.29	1971.37
570.49	1820.23
570.69	1917.31
570.89	2185.80
571.09	2368.68
571.29	1840.71
571.49	2110.64
571.69	2144.63
571.89	2113.09
572.09	1923.86
572.29	1997.18
572.49	2216.11
572.69	2137.46
572.89	1997.79
573.09	1702.68
573.29	2075.82
573.49	2132.55
573.69	1983.46
573.89	2056.78
574.09	2012.95
574.29	2299.25
574.49	1972.19
574.69	1887.61
574.89	1874.10
575.09	1899.70
575.29	1841.12
575.49	1952.74
575.69	2103.26
575.89	1883.11
576.09	1990.01
576.29	1993.70
576.49	1897.03
576.69	2080.74
576.89	1911.98
577.09	1984.69
577.29	1844.81
577.49	2366.84
577.69	1912.19
577.89	2089.34
578.09	2086.27
578.29	1823.72
578.49	1992.06
578.69	1906.45
578.89	2240.89
579.09	2078.07
579.29	1871.64
579.49	2079.10
579.69	2038.75
579.89	2342.26
580.09	1744.87
580.29	1812.04
580.49	1978.54
580.69	1902.15
580.89	1890.07
581.09	1942.09
581.29	1960.52
581.49	2032.20
581.69	1862.83
581.89	1885.36
582.09	1910.55
582.28	1909.32
582.48	2046.13
582.68	2119.03
582.88	2270.79
583.08	2016.23
583.28	1946.39
583.48	1973.01
583.68	1946.59
583.88	2050.43
584.08	1991.44
584.28	2020.94
584.48	2390.39
584.68	2143.81
584.88	1922.22
585.08	2156.31
585.28	2220.61
585.48	2275.29
585.68	2061.08
585.87	2105.52
586.07	2148.32
586.27	2044.49
586.47	2045.10
586.67	1971.99
586.87	2051.04
587.07	2024.21
587.27	1896.62
587.47	2058.21
587.67	2390.39
587.87	2618.12
588.07	2139.31
588.27	2084.22
588.46	2358.03
588.66	2346.56
588.86	2056.16
589.06	2087.90
589.26	2254.20
589.46	2237.00
589.66	1914.85
589.86	1887.20
590.06	2042.64
590.26	2250.92
590.46	2022.16
590.66	2154.26
590.85	2110.43
591.05	2239.25
591.25	1984.28
591.45	2049.40
591.65	2195.01
591.85	2149.34
592.05	1997.38
592.25	2099.58
592.45	2292.09
592.64	2089.75
592.84	2043.87
593.04	1909.73
593.24	2516.54
593.44	2009.06
593.64	2004.35
593.84	2062.71
594.04	2028.31
594.24	2309.08
594.43	1962.36
594.63	1977.93
594.83	2209.96
595.03	2212.63
595.23	1869.59
595.43	1814.50
595.63	1964.82
595.83	2199.72
596.02	1745.28
596.22	1963.80
596.42	2096.51
596.62	2030.56
596.82	1925.30
597.02	2028.51
597.22	2295.98
597.41	2105.52
597.61	1912.39
597.81	2062.30
598.01	2202.18
598.21	2019.30
598.41	1899.49
598.61	1880.04
598.80	2111.05
599.00	2142.79
599.20	2113.50
599.40	1982.23
599.60	2071.52
599.80	2206.89
599.99	2141.97
600.19	1955.40
600.39	2097.12
600.59	2176.58
600.79	2042.44
600.99	2000.87
601.19	2391.82
601.38	2415.37
601.58	2066.61
601.78	1778.46
601.98	2204.84
602.18	2356.19
602.37	2505.48
602.57	2370.52
602.77	2624.88
602.97	2579.83
603.17	2548.70
603.37	2460.43
603.56	2618.94
603.76	2513.88
603.96	2326.49
604.16	2296.18
604.36	2546.85
604.56	2416.19
604.75	2075.62
604.95	2157.54
605.15	2434.83
605.35	2345.74
605.55	2079.92
605.74	2028.51
605.94	2328.95
606.14	2141.97
606.34	2050.22
606.54	2035.89
606.73	2025.24
606.93	2191.94
607.13	1910.55
607.33	2012.74
607.53	2299.25
607.72	2243.14
607.92	2052.27
608.12	2114.53
608.32	2013.56
608.51	2178.01
608.71	1845.63
608.91	2042.44
609.11	2185.59
609.31	2040.60
609.50	2023.60
609.70	2246.83
609.90	2269.76
610.10	2271.40
610.29	2003.32
610.49	1899.49
610.69	2239.45
610.89	2127.23
611.09	2053.91
611.28	2204.84
611.48	2297.00
611.68	2110.02
611.88	1971.37
612.07	1909.12
612.27	2227.99
612.47	1965.03
612.67	2009.47
612.86	2082.99
613.06	2075.62
613.26	1832.11
613.46	1912.39
613.65	2020.73
613.85	2546.65
614.05	2188.05
614.25	2045.31
614.44	1965.03
614.64	2081.35
614.84	2008.85
615.04	1904.41
615.23	1957.86
615.43	2167.16
615.63	2148.52
615.83	1895.40
616.02	1830.68
616.22	2208.32
616.42	1907.68
616.62	1932.26
616.81	2073.77
617.01	2172.89
617.21	2105.52
617.41	1887.20
617.60	1995.75
617.80	2154.87
618.00	2142.99
618.19	2052.47
618.39	1967.48
618.59	2135.83
618.79	2041.82
618.98	1804.47
619.18	1936.15
619.38	2393.05
619.57	2008.44
619.77	1930.42
619.97	1913.42
620.17	1938.40
620.36	1869.18
620.56	2109.41
620.76	1867.34
620.95	1906.45
621.15	2002.91
621.35	1884.34
621.54	1930.42
621.74	2085.24
621.94	1954.38
622.14	1837.85
622.33	1798.32
622.53	2014.79
622.73	1997.38
622.92	1790.33
623.12	1954.79
623.32	2354.14
623.51	2180.47
623.71	1819.01
623.91	2138.49
624.10	1896.83
624.30	2078.48
624.50	1829.25
624.69	1812.45
624.89	2689.80
625.09	1988.17
625.29	1737.29
625.48	1814.91
625.68	2084.63
625.88	2216.52
626.07	1993.08
626.27	1872.87
626.47	1946.59
626.66	1816.55
626.86	1935.54
627.06	1952.53
627.25	2058.00
627.45	2297.62
627.64	1939.43
627.84	2108.79
628.04	1918.13
628.23	2345.74
628.43	1857.51
628.63	1863.24
628.82	1968.71
629.02	2377.28
629.22	2026.67
629.41	2102.04
629.61	2077.87
629.81	2391.21
630.00	1946.80
630.20	1872.05
630.40	2115.14
630.59	2167.57
630.79	1961.34
630.98	1946.80
631.18	2047.56
631.38	2058.62
631.57	2062.30
631.77	1831.91
631.97	2081.76
632.16	2128.86
632.36	1956.83
632.56	1982.02
632.75	2075.21
632.95	2202.39
633.14	1824.94
633.34	2103.88
633.54	1782.96
633.73	1953.97
633.93	1904.20
634.12	1788.70
634.32	2465.75
634.52	2033.63
634.71	1796.07
634.91	2001.68
635.11	1883.93
635.30	1947.00
635.50	1959.91
635.69	1868.77
635.89	2348.20
636.09	2197.47
636.28	1882.29
636.48	1876.55
636.67	2152.01
636.87	2167.37
637.07	2017.66
637.26	1930.42
637.46	2118.42
637.65	2238.84
637.85	2055.14
638.04	1937.17
638.24	2025.85
638.44	2146.27
638.63	2002.71
638.83	1967.69
639.02	2135.62
639.22	2161.22
639.42	1968.92
639.61	1980.80
639.81	2100.60
640.00	2046.33
640.20	2058.82
640.39	2015.41
640.59	2498.52
640.79	2373.39
640.98	2255.02
641.18	2219.59
641.37	2293.32
641.57	2183.95
641.76	2144.22
641.96	1918.95
642.15	2194.81
642.35	2091.80
642.55	2078.07
642.74	1901.33
642.94	2221.43
643.13	2324.44
643.33	1952.33
643.52	1911.98
643.72	2024.01
643.91	2087.08
644.11	1892.12
644.31	1896.01
644.50	1960.52
644.70	2269.15
644.89	1993.90
645.09	2089.34
645.28	2093.84
645.48	2150.98
645.67	1884.54
645.87	1814.30
646.06	1996.56
646.26	2119.85
646.45	1735.45
646.65	1743.85
646.84	2364.99
647.04	2021.75
647.24	1845.83
647.43	1931.85
647.63	2104.49
647.82	2315.23
648.02	1871.84
648.21	1916.69
648.41	2277.75
648.60	2029.74
648.80	2106.54
648.99	1987.55
649.19	1989.81
649.38	1837.44
649.58	1971.17
649.77	2015.00
649.97	2240.48
650.16	2142.58
650.36	1746.30
650.55	2118.83
650.75	2118.62
650.94	2333.87
651.14	1983.25
651.33	2037.52
651.53	2359.06
651.72	2000.66
651.92	1954.38
652.11	1769.65
652.31	2141.97
652.50	2121.08
652.70	2007.42
652.89	1864.68
653.09	2340.42
653.28	2078.28
653.48	1781.32
653.67	1795.86
653.87	2587.81
654.06	2072.34
654.25	2181.91
654.45	1912.60
654.64	2025.65
654.84	2000.87
655.03	1745.48
655.23	2087.08
655.42	2214.88
655.62	2336.32
655.81	2059.44
656.01	1880.24
656.20	2243.34
656.40	2349.43
656.59	1974.24
656.79	2093.23
656.98	2122.92
657.17	2195.63
657.37	1974.24
657.56	1918.54
657.76	2140.13
657.95	2231.67
658.15	1646.98
658.34	1989.40
658.54	2062.92
658.73	1881.67
658.92	1941.47
659.12	1973.22
659.31	2164.09
659.51	1941.47
659.70	2022.37
659.90	1923.86
660.09	2255.84
660.29	2078.28
660.48	1900.51
660.67	2111.66
660.87	1992.88
661.06	2128.86
661.26	2025.85
661.45	2093.02
661.65	2115.55
661.84	1954.79
662.03	1876.14
662.23	1897.03
662.42	2387.93
662.62	1885.56
662.81	1847.88
663.00	1952.33
663.20	2137.06
663.39	2255.84
663.59	2202.59
663.78	2107.77
663.97	2167.98
664.17	2356.60
664.36	1940.86
664.56	1986.53
664.75	2284.51
664.94	2220.20
665.14	2065.17
665.33	2053.91
665.53	2146.68
665.72	2107.77
665.91	2127.02
666.11	1991.44
666.30	2118.21
666.50	2110.84
666.69	2094.87
666.88	2046.13
667.08	2243.75
667.27	2232.08
667.47	2186.00
667.66	2110.43
667.85	2383.43
668.05	2217.95
668.24	2012.54
668.43	2244.78
668.63	2100.19
668.82	2335.50
669.02	2105.52
669.21	2015.00
669.40	1917.31
669.60	2401.86
669.79	1866.31
669.98	2545.01
670.18	1923.86
670.37	1883.11
670.56	1936.97
670.76	2023.39
670.95	2019.09
671.15	2180.06
671.34	1968.30
671.53	1953.56
671.73	1939.43
671.92	1944.75
672.11	1822.49
672.31	1901.74
672.50	2120.88
672.69	1843.99
672.89	1715.99
673.08	1943.52
673.27	2152.82
673.47	2076.64
673.66	1994.11
673.85	1820.23
674.05	2151.80
674.24	2299.05
674.43	2208.94
674.63	2485.82
674.82	3003.55
675.01	2298.44
675.21	2472.10
675.40	2295.16
675.59	2302.74
675.79	2597.03
675.98	2176.38
676.17	2306.22
676.37	2300.89
676.56	2148.32
676.75	2048.38
676.95	2052.06
677.14	2050.02
677.33	2256.25
677.52	1847.06
677.72	1891.09
677.91	2119.85
678.10	1855.05
678.30	1859.15
678.49	1823.51
678.68	2389.98
678.88	1776.41
679.07	2067.83
679.26	1906.86
679.45	2349.02
679.65	2237.61
679.84	1757.16
680.03	1775.79
680.23	1986.73
680.42	2434.83
680.61	1800.16
680.81	1866.93
681.00	2028.51
681.19	2082.17
681.38	2038.55
681.58	1989.60
681.77	1991.04
681.96	2155.69
682.15	1854.44
682.35	2006.39
682.54	2124.97
682.73	1875.12
682.93	1842.97
683.12	1838.46
683.31	2154.67
683.50	2476.61
683.70	1844.61
683.89	1963.18
684.08	1875.53
684.27	2183.34
684.47	1816.96
684.66	1924.07
684.85	2340.01
685.04	2227.99
685.24	1883.31
685.43	1934.10
685.62	1785.42
685.81	2148.52
686.01	2166.14
686.20	2128.04
686.39	2225.94
686.58	2781.14
686.78	2432.58
686.97	2373.80
687.16	2499.55
687.35	2364.99
687.55	2152.62
687.74	2188.05
687.93	2073.16
688.12	2193.99
688.32	2134.80
688.51	1925.50
688.70	2198.29
688.89	1921.61
689.08	1834.16
689.28	1891.91
689.47	2071.73
689.66	2064.35
689.85	2027.08
690.05	1852.80
690.24	1948.03
690.43	2059.85
690.62	1965.44
690.81	1860.99
691.01	2052.06
691.20	1991.85
691.39	1814.71
691.58	1967.07
691.77	2347.79
691.97	2065.58
692.16	1996.77
692.35	1920.38
692.54	1966.05
692.73	2192.35
692.93	2076.64
693.12	2148.52
693.31	2303.76
693.50	2236.18
693.69	2151.39
693.89	1991.85
694.08	2339.39
694.27	2339.80
694.46	1976.90
694.65	2014.79
694.85	2238.23
695.04	2237.61
695.23	2350.66
695.42	3871.68
695.61	5170.71
695.80	6077.76
696.00	6798.44
696.19	7139.22
696.38	6218.25
696.57	5278.64
696.76	4957.31
696.95	4541.99
697.15	4586.02
697.34	4302.99
697.53	3626.95
697.72	3494.04
697.91	3178.04
698.10	3122.13
698.30	2480.91
698.49	2269.97
698.68	2297.21
698.87	2092.41
699.06	1916.08
699.25	1994.31
699.45	2232.70
699.64	2081.15
699.83	2084.01
700.02	1878.19
700.21	2107.36
700.40	1948.23
700.59	1902.36
700.79	1933.08
700.98	2122.72
701.17	1953.35
701.36	1862.22
701.55	1892.32
701.74	2241.50
701.93	2034.45
702.12	2158.35
702.32	2146.07
702.51	2585.56
702.70	2508.76
702.89	2276.52
703.08	2134.19
703.27	2443.02
703.46	2302.74
703.65	2041.21
703.85	1964.82
704.04	2082.58
704.23	2356.39
704.42	1930.21
704.61	1913.83
704.80	2324.85
704.99	1933.28
705.18	2024.62
705.37	2174.74
705.57	3245.62
705.76	4615.71
705.95	4973.49
706.14	6002.60
706.33	6548.38
706.52	6348.50
706.71	4817.64
706.90	4494.68
707.09	4414.60
707.28	4110.68
707.47	3661.56
707.67	3579.23
707.86	3254.22
708.05	3313.00
708.24	2764.96
708.43	2558.12
708.62	2382.61
708.81	2125.79
709.00	1958.68
709.19	1959.29
709.38	2234.13
709.57	1944.14
709.76	2002.50
709.96	1903.79
710.15	2290.65
710.34	2076.85
710.53	2074.59
710.72	1947.21
710.91	2235.97
711.10	2144.22
711.29	2041.62
711.48	1895.80
711.67	1900.52
711.86	2128.04
712.05	1812.86
712.24	1870.61
712.43	2156.92
712.62	2266.49
712.81	1950.28
713.00	2101.22
713.19	1890.28
713.39	2160.81
713.58	1949.87
713.77	2224.71
713.96	2469.44
714.15	2440.56
714.34	2392.44
714.53	2205.66
714.72	2618.33
714.91	2155.69
715.10	2241.71
715.29	2043.67
715.48	2711.31
715.67	2342.88
715.86	2119.03
716.05	2055.34
716.24	2100.81
716.43	2007.62
716.62	1868.36
716.81	1811.63
717.00	1985.30
717.19	2302.94
717.38	1899.08
717.57	1899.70
717.76	1815.73
717.95	2188.25
718.14	1921.61
718.33	1942.29
718.52	1780.30
718.71	1812.25
718.90	1803.85
719.09	1868.36
719.28	2019.71
719.47	2174.33
719.66	2042.03
719.85	2062.92
720.04	2078.48
720.23	2123.13
720.42	1943.11
720.61	2059.44
720.80	1889.25
720.99	2119.03
721.18	1913.62
721.37	1888.23
721.56	2005.37
721.75	2165.52
721.94	1856.07
722.13	1923.04
722.32	2009.67
722.51	2191.74
722.70	1967.89
722.89	1995.13
723.08	2034.66
723.27	2195.42
723.46	2007.62
723.65	1957.45
723.84	1962.36
724.03	2251.13
724.22	1817.37
724.41	1945.16
724.60	1995.54
724.79	2174.12
724.98	1978.75
725.16	1924.27
725.35	2155.28
725.54	1885.56
725.73	1951.10
725.92	2018.48
726.11	2306.83
726.30	2794.45
726.49	2659.90
726.68	2956.65
726.87	3232.72
727.06	3317.50
727.25	2669.53
727.44	2675.26
727.63	2671.58
727.82	2551.56
728.01	2490.13
728.20	2479.07
728.38	2637.37
728.57	2331.61
728.76	2205.87
728.95	2237.82
729.14	2003.94
729.33	1976.49
729.52	1763.92
729.71	1884.34
729.90	1938.40
730.09	2039.57
730.28	1952.12
730.47	1995.95
730.66	2352.71
730.84	2193.58
731.03	2090.36
731.22	2054.52
731.41	2184.77
731.60	2222.46
731.79	1817.16
731.98	1916.08
732.17	2186.21
732.36	2148.73
732.55	1935.13
732.73	1856.07
732.92	2281.23
733.11	2147.09
733.30	1905.02
733.49	1832.32
733.68	2174.53
733.87	2131.73
734.06	1902.15
734.25	1948.03
734.43	2130.09
734.62	2262.19
734.81	2133.98
735.00	2100.40
735.19	2181.09
735.38	2280.21
735.57	1948.03
735.76	2143.81
735.94	2269.97
736.13	2737.72
736.32	2472.31
736.51	2452.85
736.70	2970.37
736.89	3045.74
737.08	3194.83
737.27	4978.00
737.45	7329.68
737.64	8221.37
737.83	9531.86
738.02	10021.12
738.21	9362.70
738.40	7568.06
738.59	6723.48
738.77	6207.19
738.96	5820.12
739.15	5535.25
739.34	5106.00
739.53	4631.07
739.72	4566.77
739.90	4061.74
740.09	3266.92
740.28	2983.69
740.47	2833.57
740.66	2600.92
740.85	2119.03
741.03	2117.80
741.22	2034.04
741.41	2118.01
741.60	1876.35
741.79	2099.78
741.98	2341.03
742.16	2476.40
742.35	2064.97
742.54	2128.66
742.73	2537.84
742.92	2187.23
743.10	2015.82
743.29	2123.33
743.48	2619.35
743.67	2132.96
743.86	1928.37
744.05	1971.37
744.23	2008.44
744.42	2056.78
744.61	2075.00
744.80	1942.50
744.99	2055.14
745.17	1861.40
745.36	1865.90
745.55	2127.23
745.74	2178.83
745.93	2048.99
746.11	1984.07
746.30	1939.63
746.49	2318.71
746.68	2023.60
746.86	2064.15
747.05	2008.65
747.24	2259.73
747.43	2259.93
747.62	1924.48
747.80	2011.92
747.99	2380.56
748.18	2341.65
748.37	2124.15
748.56	2190.30
748.74	2395.71
748.93	2529.45
749.12	4128.50
749.31	9004.10
749.49	13055.60
749.68	15820.15
749.87	18185.96
750.06	19207.08
750.24	17986.08
750.43	17072.28
750.62	18566.27
750.81	19053.28
750.99	19733.41
751.18	19105.71
751.37	15793.53
751.56	13349.89
751.74	12861.86
751.93	11621.20
752.12	9423.32
752.31	8099.51
752.49	7050.54
752.68	6333.96
752.87	5156.17
753.06	4509.22
753.24	3941.32
753.43	3579.44
753.62	2736.50
753.81	2435.24
753.99	2707.01
754.18	2359.87
754.37	2064.35
754.55	2086.27
754.74	2454.29
754.93	1910.55
755.12	1959.91
755.30	1944.75
755.49	2281.03
755.68	2141.56
755.86	2088.31
756.05	1881.26
756.24	2339.80
756.43	1949.26
756.61	1919.56
756.80	2058.41
756.99	2333.05
757.17	2084.01
757.36	1917.72
757.55	1988.37
757.74	2193.58
757.92	2115.76
758.11	1906.66
758.30	1840.51
758.48	2071.73
758.67	1934.31
758.86	2049.61
759.04	1927.96
759.23	2156.51
759.42	2182.11
759.60	2002.09
759.79	2021.55
759.98	2081.97
760.16	1987.55
760.35	1948.85
760.54	1905.02
760.73	2135.42
760.91	1929.39
761.10	1995.13
761.29	2070.91
761.47	2116.78
761.66	2514.50
761.85	2112.48
762.03	2595.19
762.22	5191.81
762.41	13317.74
762.59	22002.97
762.78	26411.63
762.97	32026.34
763.15	34354.47
763.34	30497.53
763.52	22095.33
763.71	20688.99
763.90	18753.05
764.08	17514.43
764.27	16028.02
764.46	14755.21
764.64	12875.37
764.83	11478.66
765.02	9981.59
765.20	8527.95
765.39	6883.43
765.58	5017.73
765.76	4046.38
765.95	3404.13
766.13	2853.03
766.32	2436.88
766.51	2262.60
766.69	3015.63
766.88	2301.92
767.07	1952.12
767.25	1826.58
767.44	2290.65
767.62	2330.79
767.81	1906.25
768.00	1991.65
768.18	2093.64
768.37	1990.63
768.56	1793.20
768.74	1916.90
768.93	1867.34
769.11	2129.27
769.30	1982.02
769.49	1886.18
769.67	2004.76
769.86	1990.42
770.04	1908.91
770.23	1912.60
770.42	2291.27
770.60	2068.04
770.79	1905.02
770.97	2035.68
771.16	3215.52
771.35	5139.99
771.53	6800.08
771.72	7923.39
771.90	9335.05
772.09	9934.08
772.27	8546.38
772.46	6553.30
772.65	6651.60
772.83	6063.22
773.02	5733.49
773.20	5145.73
773.39	5117.05
773.58	4677.97
773.76	4002.14
773.95	3731.60
774.13	3606.68
774.32	3068.88
774.50	2596.01
774.69	2461.45
774.87	2287.17
775.06	2603.17
775.25	2019.91
775.43	1972.40
775.62	2133.57
775.80	2148.52
775.99	2010.90
776.17	1939.02
776.36	2126.82
776.54	2277.55
776.73	1988.17
776.92	2067.22
777.10	2264.64
777.29	2173.30
777.47	1910.75
777.66	1935.74
777.84	2107.36
778.03	2078.89
778.21	1873.89
778.40	1976.49
778.58	2132.55
778.77	2237.20
778.95	1824.94
779.14	1862.63
779.32	2359.46
779.51	2193.37
779.70	1877.99
779.88	1791.56
780.07	2001.07
780.25	2465.96
780.44	1914.03
780.62	2016.23
780.81	2149.34
780.99	2084.01
781.18	1859.35
781.36	1847.68
781.55	2017.25
781.73	2256.86
781.92	1825.15
782.10	1825.76
782.29	2112.68
782.47	2284.10
782.66	1923.04
782.84	1782.35
783.03	1948.03
783.21	2253.18
783.40	1915.06
783.58	1893.35
783.77	1948.85
783.95	2021.96
784.14	1849.32
784.32	1950.69
784.51	2225.32
784.69	1946.80
784.88	1795.25
785.06	1918.54
785.24	1845.83
785.43	2166.75
785.61	2015.41
785.80	1843.17
785.98	2157.74
786.17	2039.16
786.35	1822.08
786.54	2029.74
786.72	2196.24
786.91	2233.51
787.09	1950.69
787.28	1820.64
787.46	2062.10
787.65	2233.11
787.83	1816.14
788.01	1976.49
788.20	1914.85
788.38	2112.68
788.57	1945.57
788.75	1956.42
788.94	2456.95
789.12	2309.49
789.31	1994.31
789.49	2100.40
789.67	2004.35
789.86	2138.49
790.04	1882.29
790.23	1824.74
790.41	2458.79
790.60	2042.03
790.78	1948.85
790.96	1975.88
791.15	2202.80
791.33	2041.21
791.52	1972.19
791.70	1854.85
791.89	2070.91
792.07	2216.11
792.25	1966.87
792.44	1816.14
792.62	2261.37
792.81	2034.66
792.99	1991.44
793.17	1953.97
793.36	2130.50
793.54	3003.14
793.73	4355.42
793.91	6124.04
794.10	7382.52
794.28	8581.60
794.46	8788.65
794.65	8370.46
794.83	6585.45
795.01	6118.31
795.20	5886.68
795.38	5532.18
795.57	5258.98
795.75	5025.92
795.93	4490.58
796.12	4133.82
796.30	4019.55
796.49	3779.94
796.67	3164.11
796.85	3090.38
797.04	2850.77
797.22	2690.01
797.40	2249.28
797.59	2277.14
797.77	2342.88
797.96	2138.08
798.14	2046.74
798.32	2058.82
798.51	2325.06
798.69	2516.75
798.87	2068.65
799.06	2044.69
799.24	2055.96
799.42	2922.66
799.61	3895.24
799.79	4717.70
799.98	5768.51
800.16	6283.58
800.34	7953.90
800.53	9893.53
800.71	10514.27
800.89	12286.58
801.08	12375.67
801.26	12283.51
801.44	10165.50
801.63	8466.92
801.81	8168.12
801.99	7390.30
802.18	6948.14
802.36	6596.51
802.54	5904.70
802.73	5129.75
802.91	4770.54
803.09	4351.32
803.28	3886.02
803.46	3497.32
803.64	3435.88
803.83	2687.75
804.01	2394.08
804.19	2210.17
804.38	2474.97
804.56	2332.64
804.74	2156.92
804.92	2140.13
805.11	2033.02
805.29	2357.01
805.47	2011.11
805.66	1926.73
805.84	2001.28
806.02	2309.49
806.21	2011.11
806.39	2215.70
806.57	2293.52
806.76	2308.27
806.94	2065.58
807.12	2077.46
807.30	2184.36
807.49	2329.15
807.67	2244.16
807.85	2300.69
808.04	2359.26
808.22	2530.88
808.40	1966.05
808.58	1910.35
808.77	2257.07
808.95	2591.09
809.13	3115.98
809.31	5990.51
809.50	8973.38
809.68	10584.11
809.86	11984.30
810.05	13111.71
810.23	15415.88
810.41	24178.93
810.59	41689.27
810.78	51678.24
810.96	60427.16
811.14	64533.95
811.32	63604.58
811.51	51270.69
811.69	40795.54
811.87	40216.58
812.05	34994.46
812.24	32678.00
812.42	30044.73
812.60	26633.22
812.78	22621.45
812.97	19207.90
813.15	17003.26
813.33	14354.01
813.51	11920.00
813.70	9261.94
813.88	7237.73
814.06	5631.30
814.24	4293.36
814.42	3294.77
814.61	3106.97
814.79	3043.90
814.97	2299.25
815.15	2251.95
815.34	2391.00
815.52	2403.70
815.70	2034.04
815.88	2057.80
816.06	2033.43
816.25	2096.51
816.43	1982.23
816.61	2112.48
816.79	2354.34
816.98	1847.06
817.16	1880.24
817.34	1852.18
817.52	2088.31
817.70	2309.90
817.89	1947.00
818.07	1838.26
818.25	2031.99
818.43	2099.17
818.61	1921.81
818.80	1861.40
818.98	2323.42
819.16	2035.07
819.34	1806.92
819.52	2124.36
819.70	1924.89
819.89	2018.68
820.07	1745.07
820.25	1752.04
820.43	2043.05
820.61	2184.57
820.80	1879.22
820.98	1790.33
821.16	1775.79
821.34	1846.86
821.52	1854.03
821.70	1971.58
821.89	2024.21
822.07	1965.44
822.25	1946.80
822.43	1820.23
822.61	2273.04
822.79	2075.41
822.98	1895.40
823.16	1749.99
823.34	2065.17
823.52	2227.37
823.70	1969.12
823.88	1766.17
824.06	2139.31
824.25	2000.87
824.43	1976.70
824.61	1810.20
824.79	2015.82
824.97	2097.94
825.15	2196.24
825.33	3000.68
825.52	4327.36
825.70	4883.18
825.88	5359.74
826.06	5900.20
826.24	6069.97
826.42	5409.91
826.60	4377.74
826.78	4436.31
826.97	4044.74
827.15	4168.23
827.33	3597.26
827.51	3550.97
827.69	3309.72
827.87	3164.32
828.05	2921.02
828.23	2637.78
828.41	2837.87
828.60	2686.32
828.78	2169.41
828.96	2262.60
829.14	2104.90
829.32	2097.32
829.50	1952.12
829.68	1962.16
829.86	2001.68
830.04	2140.95
830.22	2005.37
830.41	1836.82
830.59	2036.91
830.77	2126.20
830.95	1820.03
831.13	1828.63
831.31	1893.96
831.49	2152.82
831.67	2047.35
831.85	2031.79
832.03	1971.17
832.21	2148.11
832.39	1774.97
832.57	1814.91
832.76	2151.19
832.94	1986.53
833.12	1734.42
833.30	1865.29
833.48	2200.75
833.66	2074.18
833.84	1839.69
834.02	1888.02
834.20	2168.80
834.38	2151.39
834.56	1733.61
834.74	1805.69
834.92	1831.09
835.10	2289.01
835.28	1901.33
835.46	1914.65
835.64	2023.60
835.82	1909.12
836.01	2181.09
836.19	2094.46
836.37	1934.31
836.55	1870.41
836.73	1854.85
836.91	1823.31
837.09	2152.01
837.27	2246.62
837.45	1749.58
837.63	1819.01
837.81	1883.72
837.99	2023.60
838.17	1934.92
838.35	1829.86
838.53	2413.53
838.71	2159.17
838.89	1908.09
839.07	1872.66
839.25	2110.84
839.43	2311.54
839.61	2606.04
839.79	4556.12
839.97	6772.84
840.15	7877.10
840.33	8913.58
840.51	9519.98
840.69	9198.25
840.87	7384.57
841.05	6588.32
841.23	7315.75
841.41	9670.30
841.59	13753.75
841.77	15518.28
841.95	17205.60
842.13	18420.25
842.31	17475.32
842.49	13831.57
842.67	11521.26
842.85	11469.24
843.03	9882.88
843.21	9227.94
843.39	8484.32
843.57	7668.21
843.75	6841.24
843.93	5742.09
844.11	5106.00
844.29	4759.89
844.47	4286.60
844.65	3978.18
844.83	3450.01
845.01	3133.19
845.19	2957.68
845.36	2445.27
845.54	2310.11
845.72	2230.85
845.90	2255.63
846.08	1902.77
846.26	2002.09
846.44	2136.85
846.62	2133.57
846.80	2005.17
846.98	1844.81
847.16	1990.63
847.34	2080.94
847.52	1822.28
847.70	1768.22
847.88	2002.91
848.06	2259.52
848.24	2017.04
848.41	1772.93
848.59	2185.39
848.77	2071.52
848.95	1872.87
849.13	1844.20
849.31	2185.39
849.49	2073.36
849.67	1805.28
849.85	1765.55
850.03	2055.34
850.21	2058.21
850.39	1775.18
850.57	1985.51
850.74	2278.37
850.92	2460.02
851.10	2837.46
851.28	3662.38
851.46	4430.99
851.64	5215.97
851.82	4971.44
852.00	5008.72
852.18	4656.88
852.36	4023.03
852.53	3733.04
852.71	3560.19
852.89	3575.55
853.07	3443.66
853.25	3038.78
853.43	2790.15
853.61	2897.06
853.79	2757.59
853.97	2390.80
854.14	2320.55
854.32	2635.94
854.50	2429.91
854.68	2135.21
854.86	2026.47
855.04	1993.90
855.22	2196.04
855.40	1773.54
855.57	1834.37
855.75	2128.04
855.93	2085.04
856.11	1719.06
856.29	1821.26
856.47	1885.97
856.65	2037.73
856.82	1780.30
857.00	1748.97
857.18	1995.95
857.36	1893.35
857.54	1928.16
857.72	1995.34
857.89	2100.40
858.07	1987.76
858.25	2048.38
858.43	1731.76
858.61	1968.71
858.79	1966.46
858.97	1791.36
859.14	1925.91
859.32	1956.83
859.50	1923.04
859.68	1936.97
859.86	1802.42
860.03	2038.75
860.21	2107.16
860.39	1823.10
860.57	2021.14
860.75	2075.21
860.93	2320.14
861.10	2067.01
861.28	1830.06
861.46	2074.59
861.64	2077.87
861.82	1856.07
861.99	1958.27
862.17	2166.14
862.35	2145.04
862.53	1869.80
862.71	1861.19
862.88	2080.12
863.06	2123.54
863.24	1855.05
863.42	1812.66
863.60	1980.80
863.77	2077.25
863.95	1724.18
864.13	1829.25
864.31	1903.18
864.49	2118.62
864.66	1744.46
864.84	1799.55
865.02	2012.74
865.20	2438.11
865.37	1935.33
865.55	1815.93
865.73	1950.49
865.91	2361.31
866.09	2322.19
866.26	2322.19
866.44	2603.79
866.62	2473.74
866.80	2221.43
866.97	2195.01
867.15	2276.52
867.33	2268.33
867.51	2216.93
867.68	2127.02
867.86	2124.36
868.04	2082.58
868.22	1833.75
868.39	1944.96
868.57	2178.63
868.75	2314.61
868.93	1800.16
869.10	1855.46
869.28	2358.24
869.46	2238.63
869.64	1877.17
869.81	1837.85
869.99	2036.70
870.17	2014.38
870.35	1787.67
870.52	1825.15
870.70	2150.57
870.88	1932.67
871.05	1769.85
871.23	1674.01
871.41	1981.82
871.59	2012.33
871.76	1839.08
871.94	1771.70
872.12	2012.13
872.29	1778.46
872.47	1820.85
872.65	1763.51
872.83	2015.41
873.00	2212.83
873.18	1811.84
873.36	1800.98
873.53	2076.85
873.71	1777.84
873.89	1757.36
874.06	1826.99
874.24	2050.02
874.42	2189.48
874.60	1948.03
874.77	1928.37
874.95	1880.44
875.13	2125.38
875.30	1798.73
875.48	1796.27
875.66	2266.49
875.83	1896.62
876.01	1803.65
876.19	1954.99
876.36	1823.72
876.54	2024.21
876.72	1756.95
876.89	1923.25
877.07	2118.21
877.25	1711.08
877.42	1876.14
877.60	1851.77
877.78	2280.82
877.95	1957.45
878.13	1765.96
878.31	1941.68
878.48	2105.11
878.66	2090.77
878.84	1820.85
879.01	1832.11
879.19	2048.58
879.37	2094.05
879.54	1838.46
879.72	1707.39
879.90	1704.32
880.07	2087.70
880.25	1596.80
880.42	1963.59
880.60	2007.21
880.78	2111.87
880.95	1820.64
881.13	1833.34
881.31	1992.88
881.48	1906.66
881.66	1774.36
881.83	1937.38
882.01	1887.82
882.19	1808.15
882.36	1867.54
882.54	1823.92
882.72	2103.26
882.89	1987.35
883.07	1764.33
883.24	1822.90
883.42	2107.56
883.60	1990.63
883.77	1761.25
883.95	1834.37
884.12	2137.67
884.30	2034.45
884.48	1971.78
884.65	1869.18
884.83	2006.60
885.00	2023.60
885.18	1723.78
885.36	1800.98
885.53	2094.46
885.71	2165.11
885.88	1712.72
886.06	1811.02
886.23	2069.27
886.41	1941.68
886.59	1803.44
886.76	1779.28
886.94	2077.25
887.11	2456.74
887.29	1859.97
887.47	1707.39
887.64	2180.68
887.82	2179.65
887.99	1680.97
888.17	1865.29
888.34	1923.86
888.52	1828.22
888.69	1821.87
888.87	1743.23
889.05	1918.54
889.22	1921.20
889.40	1804.67
889.57	2029.95
889.75	2182.73
889.92	1925.71
890.10	1721.11
890.27	1875.73
890.45	1904.41
890.62	1750.60
890.80	1738.11
890.98	1679.54
891.15	2217.75
891.33	2113.71
891.50	1783.17
891.68	1714.15
891.85	2121.49
892.03	2074.59
892.20	1779.28
892.38	1737.09
892.55	2084.01
892.73	2099.58
892.90	1715.99
893.08	1791.36
893.25	1880.24
893.43	1890.28
893.60	1888.43
893.78	1648.00
893.95	2034.66
894.13	1955.61
894.30	1769.45
894.48	1823.72
894.65	2091.80
894.83	2003.53
895.00	1659.67
895.18	1635.30
895.35	2089.34
895.53	2078.48
895.70	1708.62
895.88	1949.46
896.05	2041.21
896.23	1757.57
896.40	1792.18
896.58	1864.06
896.75	2111.05
896.93	2184.77
897.10	1781.12
897.28	1706.98
897.45	2018.48
897.63	2081.56
897.80	1914.65
897.98	1771.90
898.15	2017.45
898.33	1934.10
898.50	1848.50
898.67	1803.44
898.85	1929.39
899.02	2063.94
899.20	2033.84
899.37	1815.52
899.55	1997.18
899.72	2186.41
899.90	1783.17
900.07	1790.95
900.25	2061.69
900.42	2151.60
900.59	1787.26
900.77	1920.18
900.94	2057.59
901.12	2019.71
901.29	1810.61
901.47	1958.88
901.64	2085.04
901.82	1973.01
901.99	1620.97
902.16	1753.68
902.34	2162.04
902.51	2012.13
902.69	1794.02
902.86	1845.42
903.03	2568.97
903.21	1994.72
903.38	1816.14
903.56	1774.16
903.73	2157.33
903.91	1952.94
904.08	1748.76
904.25	1652.10
904.43	1880.04
904.60	2114.53
904.78	1808.36
904.95	1712.10
905.12	1917.51
905.30	2269.15
905.47	1917.10
905.65	1967.69
905.82	1970.35
905.99	2076.23
906.17	1822.08
906.34	1777.64
906.52	1867.95
906.69	2079.92
906.86	1906.25
907.04	1878.60
907.21	2111.25
907.38	2158.97
907.56	1789.92
907.73	1778.87
907.91	2246.01
908.08	2193.37
908.25	1833.96
908.43	1742.62
908.60	2089.54
908.77	2025.85
908.95	1854.64
909.12	1778.25
909.30	2119.44
909.47	1800.78
909.64	1851.36
909.82	2007.01
909.99	1950.28
910.16	2010.29
910.34	1789.11
910.51	1799.55
910.68	2060.87
910.86	2018.07
911.03	1951.51
911.20	2714.99
911.38	5100.88
911.55	8235.09
911.72	9682.39
911.90	10717.43
912.07	11723.19
912.24	11313.59
912.42	8624.41
912.59	6117.28
912.76	5853.71
912.94	4827.68
913.11	4240.11
913.28	3781.37
913.46	3597.46
913.63	3551.79
913.80	3539.30
913.98	3074.62
914.15	3242.34
914.32	3244.80
914.49	2867.77
914.67	2702.50
914.84	2958.09
915.01	2998.02
915.19	2691.65
915.36	2482.34
915.53	2668.30
915.71	2454.49
915.88	2142.38
916.05	1989.40
916.22	2282.26
916.40	2108.59
916.57	1772.72
916.74	1994.11
916.92	2278.37
917.09	1907.89
917.26	1780.30
917.43	1739.54
917.61	1941.47
917.78	1761.66
917.95	1746.71
918.13	1735.65
918.30	2358.24
918.47	2001.68
918.64	1797.09
918.82	1759.00
918.99	1986.53
919.16	2317.28
919.33	1866.72
919.51	1875.94
919.68	2002.30
919.85	2164.70
920.02	1722.14
920.20	1845.42
920.37	2258.09
920.54	2124.77
920.71	1778.46
920.89	1830.88
921.06	2293.52
921.23	1890.07
921.40	1953.35
921.58	2567.33
921.75	3606.68
921.92	3208.35
922.09	3399.01
922.27	3362.36
922.44	3298.05
922.61	2966.69
922.78	2371.96
922.96	2314.61
923.13	2357.01
923.30	2473.74
923.47	1987.76
923.64	2029.13
923.82	2324.03
923.99	2271.81
924.16	2104.70
924.33	1941.88
924.50	2158.97
924.68	2401.04
924.85	1906.45
925.02	1953.76
925.19	2268.74
925.36	2150.37
925.54	1986.94
925.71	1972.81
925.88	2557.30
926.05	1992.47
926.22	1769.24
926.40	1931.85
926.57	2015.00
926.74	2081.56
926.91	1791.15
927.08	1965.23
927.26	2163.06
927.43	2005.78
927.60	1771.08
927.77	1849.11
927.94	2253.38
928.11	2169.62
928.29	1694.28
928.46	1868.57
928.63	1876.76
928.80	1942.09
928.97	1905.02
929.14	1772.31
929.32	2298.84
929.49	2021.35
929.66	1757.77
929.83	1688.96
930.00	1918.95
930.17	2042.85
930.35	1723.57
930.52	1770.67
930.69	2237.41
930.86	1802.42
931.03	1824.74
931.20	1630.39
931.37	2143.20
931.55	1973.42
931.72	1899.29
931.89	1703.91
932.06	1822.08
932.23	2240.07
932.40	1904.82
932.57	1917.10
932.74	2172.49
932.92	2130.30
933.09	1969.12
933.26	1547.65
933.43	1911.37
933.60	2033.22
933.77	1846.04
933.94	1877.17
934.11	1927.55
934.29	2001.89
934.46	1740.77
934.63	1904.82
934.80	1863.45
934.97	2025.24
935.14	1878.19
935.31	1740.36
935.48	1900.52
935.65	2052.88
935.82	1859.97
936.00	1711.90
936.17	2240.89
936.34	1962.77
936.51	1901.33
936.68	1717.84
936.85	2022.78
937.02	2033.22
937.19	1867.75
937.36	1823.31
937.53	2024.21
937.70	2118.42
937.87	1785.21
938.05	1934.92
938.22	1993.90
938.39	1806.31
938.56	1784.60
938.73	1713.74
938.90	1942.50
939.07	1875.73
939.24	1864.06
939.41	1679.74
939.58	2022.37
939.75	2030.36
939.92	1744.87
940.09	2031.59
940.26	1929.19
940.43	2109.00
940.60	1828.02
940.77	1782.55
940.95	2019.91
941.12	2064.15
941.29	1807.54
941.46	1807.33
941.63	2174.94
941.80	2196.86
941.97	1668.07
942.14	1674.42
942.31	2077.87
942.48	1938.20
942.65	1866.31
942.82	1813.68
942.99	2062.51
943.16	1982.23
943.33	1710.67
943.50	1747.12
943.67	2088.93
943.84	2154.05
944.01	1783.78
944.18	1744.87
944.35	2176.58
944.52	1844.40
944.69	1842.56
944.86	1682.20
945.03	2070.70
945.20	2372.98
945.37	1646.98
945.54	1813.07
945.71	2182.11
945.88	2248.06
946.05	1751.83
946.22	1710.46
946.39	2188.87
946.56	1947.82
946.73	1675.03
946.90	1715.58
947.07	1862.42
947.24	1948.64
947.41	1634.69
947.58	1865.90
947.75	2087.08
947.92	2019.71
948.09	1599.26
948.26	1672.58
948.43	1985.30
948.60	2278.77
948.77	1740.77
948.94	1793.61
949.11	2080.74
949.27	2037.73
949.44	1775.38
949.61	1689.16
949.78	2008.65
949.95	2133.98
950.12	1666.84
950.29	1647.18
950.46	1924.07
950.63	2101.01
950.80	1735.65
950.97	1782.96
951.14	2127.23
951.31	1917.51
951.48	1714.15
951.65	1669.50
951.82	2299.66
951.99	2039.37
952.15	1723.16
952.32	1774.56
952.49	1879.01
952.66	1889.66
952.83	1760.02
953.00	1712.72
953.17	1966.25
953.34	2125.79
953.51	1802.21
953.68	1813.27
953.85	2169.21
954.02	2145.04
954.18	1812.25
954.35	1779.89
954.52	1862.63
954.69	1994.31
954.86	1638.58
955.03	1813.48
955.20	2072.75
955.37	1977.31
955.54	1770.06
955.71	1730.94
955.87	2034.45
956.04	2260.34
956.21	1764.33
956.38	1714.97
956.55	1988.99
956.72	2389.16
956.89	1807.33
957.06	1760.02
957.23	1876.96
957.39	2180.06
957.56	1783.99
957.73	1712.92
957.90	1656.40
958.07	2274.88
958.24	1817.16
958.41	1788.29
958.57	2140.74
958.74	1951.92
958.91	1708.21
959.08	1725.21
959.25	2106.13
959.42	1938.81
959.59	1799.55
959.75	1797.09
959.92	2177.81
960.09	2129.07
960.26	1747.53
960.43	1812.66
960.60	2004.96
960.76	1949.67
960.93	1657.63
961.10	1824.33
961.27	2108.79
961.44	1941.88
961.61	1668.68
961.77	1666.02
961.94	1992.06
962.11	2097.53
962.28	1747.53
962.45	1679.33
962.62	1933.49
962.78	2120.06
962.95	1676.26
963.12	1734.22
963.29	2120.47
963.46	2431.96
963.62	1832.52
963.79	1767.81
963.96	2380.35
964.13	1927.55
964.30	1836.21
964.46	1790.95
964.63	1880.85
964.80	2539.28
964.97	1902.36
965.14	2327.52
965.30	2604.40
965.47	2707.21
965.64	2540.10
965.81	2458.59
965.98	2660.11
966.14	2328.95
966.31	2010.70
966.48	2013.15
966.65	2402.88
966.81	2247.85
966.98	1978.34
967.15	1949.87
967.32	2119.03
967.49	2014.79
967.65	1794.23
967.82	1728.28
967.99	2041.42
968.16	1850.75
968.32	2028.10
968.49	1867.75
968.66	2038.34
968.83	2313.39
968.99	1964.62
969.16	1780.71
969.33	2266.69
969.50	2118.62
969.66	1941.88
969.83	2061.28
970.00	2118.42
970.17	2077.25
970.33	1812.25
970.50	1707.19
970.67	2227.58
970.84	2203.82
971.00	1752.45
971.17	1688.96
971.34	2078.28
971.50	1982.23
971.67	1882.70
971.84	1799.55
972.01	1793.00
972.17	1671.35
972.34	1689.57
972.51	1894.58
972.67	2130.91
972.84	2016.63
973.01	1730.12
973.18	1761.87
973.34	2149.14
973.51	1820.23
973.68	1798.32
973.84	1817.98
974.01	1942.70
974.18	2212.63
974.34	1847.06
974.51	1862.63
974.68	1851.16
974.85	2282.46
975.01	1856.69
975.18	1771.29
975.35	1977.31
975.51	1849.93
975.68	1667.46
975.85	1909.12
976.01	1895.60
976.18	2183.34
976.35	1772.31
976.51	1776.20
976.68	2252.77
976.85	2175.15
977.01	1811.43
977.18	1850.34
977.35	2083.19
977.51	1820.23
977.68	1649.43
977.85	1725.41
978.01	2186.62
978.18	2137.46
978.35	1872.05
978.51	1890.89
978.68	2183.75
978.85	2277.75
979.01	1846.45
979.18	1845.22
979.34	1983.87
979.51	2049.40
979.68	1760.02
979.84	1860.37
980.01	2406.16
980.18	2029.74
980.34	1736.27
980.51	1841.12
980.67	2124.15
980.84	2116.58
981.01	1788.49
981.17	1845.22
981.34	1714.35
981.51	2105.31
981.67	1728.90
981.84	1871.43
982.00	2055.55
982.17	2006.19
982.34	1639.60
982.50	1522.66
982.67	2199.52
982.83	1893.96
983.00	1679.33
983.17	1557.07
983.33	2130.09
983.50	1737.50
983.66	1664.18
983.83	1557.89
984.00	1902.97
984.16	1989.40
984.33	1594.34
984.49	1555.02
984.66	1823.31
984.83	2103.26
984.99	1612.78
985.16	1557.07
985.32	2067.22
985.49	2113.30
985.65	1684.45
985.82	1577.14
985.99	2209.14
986.15	1984.89
986.32	1670.73
986.48	1633.66
986.65	1897.85
986.81	2085.04
986.98	1577.14
987.14	1671.14
987.31	1986.94
987.48	1747.12
987.64	1487.85
987.81	1534.13
987.97	2305.81
988.14	1815.93
988.30	1605.81
988.47	1452.83
988.63	2025.24
988.80	1809.99
988.96	1681.79
989.13	1665.00
989.30	1940.66
989.46	2109.82
989.63	1498.91
989.79	1553.18
989.96	1936.76
990.12	2209.76
990.29	1629.57
990.45	1659.88
990.62	1960.52
990.78	2140.74
990.95	1691.42
991.11	1615.64
991.28	1906.66
991.44	2005.78
991.61	1512.63
991.77	1665.00
991.94	2012.13
992.10	2150.98
992.27	1660.29
992.43	1627.73
992.60	2051.66
992.76	1888.84
992.93	1784.40
993.09	1543.55
993.26	2122.11
993.42	2246.42
993.59	1602.33
993.75	1527.38
993.92	1837.23
994.08	1866.72
994.25	1706.16
994.41	1549.90
994.58	2054.52
994.74	2226.35
994.91	1559.12
995.07	1666.64
995.24	1945.98
995.40	1968.92
995.56	1735.24
995.73	1687.53
995.89	2236.18
996.06	1940.86
996.22	1565.47
996.39	1524.71
996.55	1948.23
996.72	2028.51
996.88	1522.26
997.05	1561.17
997.21	2315.64
997.37	2051.66
997.54	1680.15
997.70	1629.16
997.87	2017.86
998.03	1954.58
998.20	1484.78
998.36	1519.59
998.52	2059.64
998.69	2109.00
998.85	1529.22
999.02	1634.89
999.18	2122.51
999.35	2093.02
999.51	1637.56
999.67	1640.83
999.84	1779.28
1000.00	2080.74
1000.17	1678.52
1000.33	1577.55
1000.49	1872.87
1000.66	1915.26
1000.82	1573.66
1000.99	1668.89
1001.15	2163.88
1001.31	1905.43
1001.48	1599.67
1001.64	1698.59
1001.81	1951.30
1001.97	2279.59
1002.13	1597.83
1002.30	1633.87
1002.46	2171.87
1002.63	1907.07
1002.79	1700.63
1002.95	1601.72
1003.12	2117.19
1003.28	2051.04
1003.45	1577.35
1003.61	1553.79
1003.77	2020.73
1003.94	1756.34
1004.10	1604.79
1004.26	1685.48
1004.43	2063.12
1004.59	2236.18
1004.75	1632.64
1004.92	1558.30
1005.08	1925.09
1005.25	2010.70
1005.41	1597.62
1005.57	1669.71
1005.74	2137.06
1005.90	1898.67
1006.06	1728.28
1006.23	1594.96
1006.39	2088.31
1006.55	2403.91
1006.72	1725.82
1006.88	1563.83
1007.04	1852.39
1007.21	1928.57
1007.37	1632.23
1007.53	1580.01
1007.70	2205.05
1007.86	2103.67
1008.02	1657.22
1008.19	1546.01
1008.35	2015.41
1008.51	1856.48
1008.68	1596.80
1008.84	1559.12
1009.00	1826.99
1009.17	2138.69
1009.33	1772.11
1009.49	1709.44
1009.65	1855.66
1009.82	2006.19
1009.98	1685.89
1010.14	1522.26
1010.31	2114.32
1010.47	2055.34
1010.63	1677.90
1010.80	1662.34
1010.96	2043.87
1011.12	1930.01
1011.28	1618.10
1011.45	1570.79
1011.61	2430.53
1011.77	1818.80
1011.94	1570.79
1012.10	1555.02
1012.26	1804.67
1012.42	1904.61
1012.59	1669.91
1012.75	1637.56
1012.91	1961.34
1013.07	2107.97
1013.24	1549.08
1013.40	1584.10
1013.56	1984.89
1013.72	1945.57
1013.89	1669.71
1014.05	1702.48
1014.21	2298.84
1014.37	2401.45
1014.54	1648.00
1014.70	1573.04
1014.86	1932.87
1015.02	1806.51
1015.19	1612.37
1015.35	1575.71
1015.51	1947.41
1015.67	1927.96
1015.84	1603.76
1016.00	1626.09
1016.16	2129.27
1016.32	2110.23
1016.49	1601.92
1016.65	1577.76
1016.81	1943.52
1016.97	2058.21
1017.14	1723.37
1017.30	1626.09
1017.46	1891.09
1017.62	2018.48
1017.78	1668.68
1017.95	1603.97
1018.11	2090.57
1018.27	2371.34
1018.43	1755.52
1018.59	1668.48
1018.76	2104.90
1018.92	2377.28
1019.08	1575.50
1019.24	1619.33
1019.40	2166.55
1019.57	2016.63
1019.73	1723.78
1019.89	1620.76
1020.05	2011.72
1020.21	2322.19
1020.38	1593.73
1020.54	1748.15
1020.70	2065.58
1020.86	2092.20
1021.02	1600.69
1021.18	1606.02
1021.35	1883.72
1021.51	2027.28
1021.67	1763.10
1021.83	1648.00
1021.99	1960.52
1022.15	2017.04
1022.32	1684.04
1022.48	1651.69
1022.64	2172.89
1022.80	2222.66
1022.96	1687.94
1023.12	1563.42
1023.29	2109.00
1023.45	2046.74
1023.61	1610.93
1023.77	1821.46
1023.93	2000.46
1024.09	1841.94
1024.25	1603.15
1024.42	1522.46
1024.58	1893.14
1024.74	2009.06
1024.90	1623.22
1025.06	1676.88
1025.22	1866.31
1025.38	2226.96
1025.54	1543.96
1025.71	1694.49
1025.87	2044.69
1026.03	2053.70
1026.19	1544.99
1026.35	1781.12
1026.51	2075.82
1026.67	1976.29
1026.83	1670.12
1026.99	1751.01
1027.16	2055.96
1027.32	2167.37
1027.48	1626.50
1027.64	1586.77
1027.80	2073.36
1027.96	1989.40
1028.12	1609.29
1028.28	1611.14
1028.44	2024.62
1028.60	2201.16
1028.77	1743.44
1028.93	1666.84
1029.09	1907.07
1029.25	1845.42
1029.41	1640.42
1029.57	1693.06
1029.73	1999.64
1029.89	2188.66
1030.05	1709.44
1030.21	1704.32
1030.37	2341.24
1030.53	2069.27
1030.69	1633.46
1030.85	1563.21
1031.02	1833.75
1031.18	1982.23
1031.34	1622.20
1031.50	1703.50
1031.66	1857.30
1031.82	2203.20
1031.98	1647.39
1032.14	1564.24
1032.30	1819.62
1032.46	2073.98
1032.62	1740.57
1032.78	1544.17
1032.94	1863.04
1033.10	1933.49
1033.26	1667.46
1033.42	1761.66
1033.58	2333.05
1033.74	1899.70
1033.90	1611.14
1034.06	1788.70
1034.22	2319.12
1034.38	2149.96
1034.54	1654.35
1034.70	1675.24
1034.86	2280.41
>>>>>End Processed Spectral Data<<<<<
