SpectraSuite Data File
++++++++++++++++++++++++++++++++++++
Date: Thu Mar 30 14:26:10 PDT 2017
User: UCSD _CER
Dark Spectrum Present: No
Reference Spectrum Present: No
Number of Sampled Component Spectra: 1
Spectrometers: USB4C00073
Integration Time (usec): 380000 (USB4C00073)
Spectra Averaged: 10 (USB4C00073)
Boxcar Smoothing: 0 (USB4C00073)
Correct for Electrical Dark: No (USB4C00073)
Strobe/Lamp Enabled: No (USB4C00073)
Correct for Detector Non-linearity: No (USB4C00073)
Correct for Stray Light: No (USB4C00073)
Number of Pixels in Processed Spectrum: 3648
>>>>>Begin Processed Spectral Data<<<<<
345.37	1245.37
345.58	1245.37
345.80	1245.37
346.01	1245.98
346.22	1231.03
346.43	2034.25
346.65	1910.14
346.86	2425.00
347.07	2347.79
347.28	1857.30
347.50	1845.83
347.71	2118.62
347.92	1869.18
348.13	1800.78
348.35	1803.03
348.56	2143.20
348.77	1930.42
348.98	1842.15
349.20	1679.13
349.41	2150.98
349.62	2296.18
349.83	1915.06
350.05	1811.63
350.26	2196.45
350.47	2380.15
350.68	1810.81
350.90	1720.09
351.11	2367.66
351.32	2332.02
351.53	1870.21
351.75	1812.04
351.96	2199.52
352.17	2106.13
352.38	1892.73
352.60	1884.34
352.81	2155.49
353.02	2440.15
353.23	1783.58
353.44	1837.44
353.66	2047.76
353.87	2092.41
354.08	1922.84
354.29	1819.83
354.51	2043.87
354.72	2128.86
354.93	1859.76
355.14	1850.95
355.35	1931.85
355.57	2326.90
355.78	1898.26
355.99	1958.47
356.20	2196.65
356.42	2137.87
356.63	1983.46
356.84	1864.47
357.05	2296.18
357.26	2551.56
357.48	1965.85
357.69	1897.85
357.90	2186.62
358.11	2052.88
358.32	1835.18
358.54	1871.64
358.75	2026.26
358.96	2211.81
359.17	1832.32
359.38	1873.89
359.60	2244.98
359.81	2109.20
360.02	1861.19
360.23	1802.21
360.44	2044.69
360.66	2336.73
360.87	1802.62
361.08	1807.33
361.29	2178.01
361.50	2135.01
361.72	1828.22
361.93	1913.21
362.14	2150.16
362.35	1886.59
362.56	2026.26
362.77	1748.97
362.99	2261.37
363.20	2160.40
363.41	1931.64
363.62	1713.54
363.83	2235.15
364.05	2284.51
364.26	1794.02
364.47	1853.21
364.68	2371.75
364.89	2000.66
365.10	1765.76
365.32	1871.23
365.53	1962.36
365.74	2029.54
365.95	1839.08
366.16	1700.02
366.37	2100.81
366.59	2072.95
366.80	1863.45
367.01	1734.42
367.22	2496.68
367.43	2621.20
367.64	1902.56
367.86	1827.20
368.07	2200.75
368.28	2360.49
368.49	1747.12
368.70	1893.76
368.91	2098.14
369.12	2118.83
369.34	1773.34
369.55	1727.87
369.76	2146.68
369.97	2016.84
370.18	1722.14
370.39	1787.06
370.60	1869.59
370.82	1945.16
371.03	1872.25
371.24	1790.33
371.45	2244.57
371.66	2226.55
371.87	1822.08
372.08	1843.17
372.30	1911.57
372.51	2247.03
372.72	1926.93
372.93	1800.57
373.14	2367.04
373.35	1995.34
373.56	1772.72
373.78	1848.50
373.99	2261.37
374.20	2621.60
374.41	1833.14
374.62	1835.59
374.83	2385.68
375.04	2033.43
375.25	1871.23
375.47	1866.93
375.68	2039.57
375.89	2246.62
376.10	1859.15
376.31	1911.37
376.52	2211.19
376.73	2196.04
376.94	1898.06
377.15	1802.62
377.37	2115.55
377.58	2114.94
377.79	1720.70
378.00	1775.38
378.21	2180.27
378.42	2241.91
378.63	1866.93
378.84	1918.74
379.05	2298.64
379.27	2134.39
379.48	1944.96
379.69	1776.82
379.90	2358.65
380.11	1773.75
380.32	1817.57
380.53	1961.95
380.74	2353.53
380.95	2145.04
381.16	1887.61
381.37	1843.38
381.59	2375.85
381.80	2275.09
382.01	1826.58
382.22	1746.30
382.43	2193.58
382.64	2156.72
382.85	1824.54
383.06	1956.63
383.27	2263.42
383.48	2123.74
383.69	1887.00
383.91	1765.14
384.12	2224.30
384.33	2213.85
384.54	1840.92
384.75	1735.45
384.96	2606.25
385.17	2267.10
385.38	1833.55
385.59	1795.25
385.80	2248.26
386.01	2384.65
386.22	1926.52
386.43	1821.05
386.64	2528.42
386.86	2085.24
387.07	1939.22
387.28	1739.54
387.49	2030.77
387.70	2366.22
387.91	1965.03
388.12	1847.27
388.33	2187.44
388.54	2040.39
388.75	1775.38
388.96	1928.37
389.17	2034.66
389.38	2092.20
389.59	1924.68
389.80	1932.46
390.01	2109.41
390.22	2037.32
390.43	1959.29
390.64	1724.59
390.86	2204.23
391.07	2281.44
391.28	1835.80
391.49	1867.54
391.70	1918.13
391.91	1978.54
392.12	1816.14
392.33	1895.60
392.54	2140.74
392.75	2067.22
392.96	1902.77
393.17	1803.24
393.38	2518.80
393.59	2334.48
393.80	1809.59
394.01	2005.99
394.22	2242.53
394.43	2676.90
394.64	1997.79
394.85	2153.23
395.06	2317.48
395.27	2270.17
395.48	1904.82
395.69	1746.92
395.90	2080.94
396.11	2147.91
396.32	1851.16
396.53	1920.79
396.74	2102.65
396.95	2292.29
397.16	1817.78
397.37	1710.46
397.58	2269.15
397.79	2130.30
398.00	1872.25
398.21	1902.15
398.42	2195.01
398.63	2505.08
398.84	1818.19
399.05	1800.37
399.26	2351.48
399.47	2170.03
399.68	1671.55
399.89	1783.99
400.10	1914.85
400.31	2056.98
400.52	1907.07
400.73	1831.91
400.94	1879.83
401.15	2179.04
401.36	1843.99
401.57	1865.70
401.78	2333.66
401.99	2279.80
402.20	1794.43
402.41	1966.05
402.62	2363.36
402.83	2052.06
403.04	1782.96
403.25	2054.93
403.46	2275.29
403.67	2551.77
403.88	2147.50
404.09	2107.16
404.30	2347.79
404.51	2256.66
404.72	1987.76
404.93	2123.33
405.14	2080.94
405.35	2153.85
405.56	1900.31
405.77	1806.92
405.98	2178.42
406.19	2086.06
406.40	1779.68
406.61	1823.10
406.82	2017.86
407.03	2513.06
407.24	1749.37
407.45	1858.94
407.66	2165.52
407.87	2299.05
408.08	1900.11
408.29	1896.83
408.49	2224.50
408.70	2095.28
408.91	1814.09
409.12	1949.46
409.33	1972.40
409.54	2353.73
409.75	1820.85
409.96	1848.09
410.17	2261.57
410.38	2078.48
410.59	1821.26
410.80	1933.08
411.01	2127.63
411.22	2064.97
411.43	1935.74
411.64	1823.72
411.85	1966.66
412.06	1957.86
412.27	1651.07
412.47	1800.98
412.68	2127.63
412.89	2160.20
413.10	1837.03
413.31	1755.72
413.52	2451.83
413.73	2471.69
413.94	1827.20
414.15	2034.45
414.36	2035.48
414.57	2022.98
414.78	1975.47
414.99	2670.96
415.19	3641.90
415.40	3874.96
415.61	4035.73
415.82	3823.97
416.03	3645.59
416.24	3213.47
416.45	2593.34
416.66	2143.40
416.87	2050.63
417.08	2317.48
417.29	1955.61
417.50	2155.08
417.70	2500.37
417.91	2528.01
418.12	2414.35
418.33	2585.15
418.54	2965.05
418.75	3224.94
418.96	3211.21
419.17	3880.08
419.38	4889.32
419.59	4917.79
419.79	4632.91
420.00	4379.79
420.21	4302.37
420.42	3196.47
420.63	2568.36
420.84	2287.58
421.05	2213.65
421.26	2168.39
421.47	1768.63
421.67	2205.05
421.88	1952.12
422.09	1916.28
422.30	2035.27
422.51	1842.76
422.72	2399.20
422.93	2224.50
423.14	1886.59
423.35	1726.23
423.55	1865.90
423.76	1980.18
423.97	1876.96
424.18	1769.65
424.39	2160.81
424.60	2404.72
424.81	2005.37
425.02	2322.19
425.22	2674.44
425.43	2720.11
425.64	2864.08
425.85	2945.80
426.06	3424.00
426.27	3300.71
426.48	3211.01
426.68	3179.06
426.89	3372.59
427.10	3396.56
427.31	2615.26
427.52	2208.32
427.73	2491.97
427.94	2370.11
428.14	2084.63
428.35	1926.93
428.56	2375.23
428.77	2291.27
428.98	2002.30
429.19	2300.89
429.40	2652.53
429.60	2770.49
429.81	2706.80
430.02	2573.89
430.23	2474.77
430.44	2507.53
430.65	2037.32
430.85	1967.07
431.06	2248.06
431.27	1874.71
431.48	1864.47
431.69	1905.43
431.90	2152.21
432.10	2146.48
432.31	1984.07
432.52	2224.09
432.73	3209.99
432.94	3258.93
433.15	2885.59
433.35	2744.28
433.56	3030.38
433.77	2651.91
433.98	2475.99
434.19	2283.28
434.40	2447.94
434.60	2298.44
434.81	2033.02
435.02	1999.02
435.23	2182.52
435.44	2032.61
435.64	1783.37
435.85	1837.64
436.06	2098.14
436.27	2076.85
436.48	1787.47
436.68	1811.63
436.89	2414.76
437.10	2219.38
437.31	1878.40
437.52	1975.68
437.73	2140.74
437.93	2162.66
438.14	1931.85
438.35	1742.82
438.56	2031.38
438.77	2072.95
438.97	2044.90
439.18	1852.39
439.39	2299.05
439.60	1903.18
439.80	1801.80
440.01	1854.64
440.22	2014.79
440.43	2234.54
440.64	1799.55
440.84	1900.52
441.05	1933.69
441.26	2593.34
441.47	1959.29
441.68	1873.07
441.88	2109.20
442.09	2030.97
442.30	1989.19
442.51	1966.66
442.71	2067.63
442.92	2168.80
443.13	1856.89
443.34	1831.91
443.55	1963.80
443.75	2200.54
443.96	1850.54
444.17	1790.33
444.38	2313.39
444.58	1983.05
444.79	1990.63
445.00	1936.56
445.21	2087.70
445.41	2092.61
445.62	1715.58
445.83	1984.07
446.04	2131.12
446.24	1910.75
446.45	1731.97
446.66	1857.10
446.87	2173.30
447.07	2037.32
447.28	2085.86
447.49	1875.94
447.70	2260.34
447.90	2292.29
448.11	1901.95
448.32	1961.54
448.53	2350.66
448.73	2341.03
448.94	1875.12
449.15	2028.10
449.36	2140.54
449.56	2227.37
449.77	1887.82
449.98	1811.02
450.19	2178.01
450.39	2341.03
450.60	2284.92
450.81	2296.80
451.02	2454.29
451.22	2599.90
451.43	2051.45
451.64	2061.08
451.84	2245.39
452.05	2492.58
452.26	2066.20
452.47	2001.48
452.67	2104.49
452.88	2369.91
453.09	1833.96
453.30	1828.02
453.50	2283.08
453.71	2368.07
453.92	1871.02
454.12	2016.63
454.33	2015.61
454.54	2067.22
454.75	1868.57
454.95	1823.10
455.16	2137.46
455.37	2255.84
455.57	1980.80
455.78	1890.89
455.99	2095.48
456.19	2130.30
456.40	1841.12
456.61	1909.32
456.82	2143.81
457.02	2238.63
457.23	1926.93
457.44	2061.08
457.64	2040.80
457.85	2243.34
458.06	1947.62
458.26	2108.38
458.47	2183.34
458.68	2341.65
458.89	1959.91
459.09	2141.77
459.30	2633.28
459.51	2279.18
459.71	1887.20
459.92	1908.71
460.13	2288.20
460.33	2538.05
460.54	1945.57
460.75	1938.81
460.95	1952.33
461.16	2187.03
461.37	1918.54
461.57	1882.08
461.78	2136.03
461.99	2004.76
462.19	2236.79
462.40	1900.52
462.61	2854.46
462.81	2413.74
463.02	1915.67
463.23	1919.15
463.43	2302.94
463.64	2086.27
463.85	3232.72
464.05	1935.94
464.26	2764.76
464.47	2423.98
464.67	2128.25
464.88	2050.43
465.09	2028.92
465.29	2184.36
465.50	2015.82
465.71	1964.00
465.91	2045.92
466.12	2129.68
466.33	1968.30
466.53	1844.40
466.74	2360.28
466.94	2094.66
467.15	1937.79
467.36	2074.18
467.56	1993.08
467.77	2164.29
467.98	1971.17
468.18	1902.97
468.39	2059.03
468.60	2468.21
468.80	1906.45
469.01	1840.92
469.21	2217.95
469.42	2489.72
469.63	2121.49
469.83	2049.40
470.04	2459.41
470.25	2621.81
470.45	2150.78
470.66	2003.32
470.86	2273.65
471.07	2149.55
471.28	2082.17
471.48	2022.57
471.69	2200.13
471.90	2751.24
472.10	1908.09
472.31	1877.78
472.51	2012.95
472.72	2004.55
472.93	1875.53
473.13	1993.70
473.34	2172.89
473.54	2113.30
473.75	1973.22
473.96	2137.46
474.16	2165.93
474.37	2299.66
474.57	2147.09
474.78	2019.50
474.99	2318.10
475.19	2297.00
475.40	2041.62
475.60	1878.81
475.81	2438.52
476.02	2164.50
476.22	2142.18
476.43	2193.37
476.63	2243.75
476.84	2537.23
477.05	1888.43
477.25	1915.26
477.46	2701.68
477.66	2191.12
477.87	1897.24
478.08	1913.21
478.28	2325.67
478.49	2097.32
478.69	1902.97
478.90	1932.87
479.10	2252.56
479.31	2503.23
479.52	2044.08
479.72	2059.64
479.93	2274.68
480.13	2063.53
480.34	1888.43
480.54	1983.46
480.75	2019.71
480.96	2364.18
481.16	1872.46
481.37	2011.92
481.57	2268.33
481.78	2240.48
481.98	2142.99
482.19	2045.72
482.40	2487.05
482.60	2268.53
482.81	2169.21
483.01	1993.90
483.22	2485.82
483.42	2443.84
483.63	2126.20
483.83	2018.27
484.04	2088.72
484.24	2300.89
484.45	2062.92
484.66	1848.70
484.86	2249.49
485.07	2022.57
485.27	1967.28
485.48	1919.77
485.68	2397.56
485.89	2045.92
486.09	2091.18
486.30	1939.22
486.50	2209.14
486.71	2270.38
486.91	2250.31
487.12	2299.87
487.33	2761.28
487.53	2758.61
487.74	2299.87
487.94	2328.75
488.15	2557.91
488.35	2648.23
488.56	2446.50
488.76	2363.97
488.97	2448.76
489.17	2505.08
489.38	2204.43
489.58	2093.64
489.79	2311.95
489.99	2278.16
490.20	2041.21
490.40	2105.11
490.61	2259.93
490.81	2086.68
491.02	2037.52
491.22	2051.25
491.43	2350.66
491.63	2212.63
491.84	2149.55
492.04	1936.97
492.25	2288.20
492.45	2089.34
492.66	1947.21
492.86	1866.52
493.07	2139.92
493.27	2531.90
493.48	1856.48
493.68	1941.68
493.89	2152.21
494.09	2326.49
494.30	1972.81
494.50	2218.56
494.71	2294.54
494.91	2053.91
495.12	2158.56
495.32	2240.89
495.53	2347.59
495.73	2023.60
495.94	2069.06
496.14	1822.49
496.35	2483.16
496.55	2103.88
496.76	1964.82
496.96	2029.13
497.17	2195.42
497.37	2297.21
497.58	2000.87
497.78	1900.52
497.98	2164.29
498.19	2190.92
498.39	2048.79
498.60	2101.83
498.80	1950.28
499.01	2347.38
499.21	1915.06
499.42	2057.18
499.62	2128.04
499.83	2566.51
500.03	1887.82
500.24	2075.21
500.44	2387.11
500.64	2316.87
500.85	1947.62
501.05	2049.61
501.26	1904.61
501.46	2366.22
501.67	1920.18
501.87	1863.65
502.08	2001.68
502.28	2117.80
502.48	2074.59
502.69	2155.69
502.89	2013.15
503.10	2147.09
503.30	2119.24
503.51	2096.10
503.71	1966.87
503.92	2335.50
504.12	2188.25
504.32	2124.77
504.53	2531.70
504.73	2536.61
504.94	2386.91
505.14	2602.56
505.35	2710.69
505.55	2740.80
505.75	2502.82
505.96	2602.35
506.16	2852.21
506.37	2327.52
506.57	2146.27
506.78	2297.21
506.98	2522.69
507.18	2133.78
507.39	2020.53
507.59	2112.89
507.80	2213.04
508.00	2333.87
508.20	2317.89
508.41	2089.13
508.61	2512.04
508.82	2372.16
509.02	2185.39
509.22	1937.79
509.43	2031.58
509.63	2077.66
509.84	2015.41
510.04	1829.86
510.24	2426.02
510.45	2318.71
510.65	1899.70
510.86	2054.93
511.06	2053.50
511.26	2404.52
511.47	2281.03
511.67	2057.39
511.88	2364.99
512.08	2423.16
512.28	1949.67
512.49	2077.87
512.69	2227.17
512.90	2246.21
513.10	1995.95
513.30	2074.18
513.51	2273.25
513.71	2456.95
513.91	2050.63
514.12	2107.36
514.32	2458.38
514.53	2332.84
514.73	2418.45
514.93	2370.73
515.14	2610.34
515.34	2964.64
515.54	2713.97
515.75	2921.22
515.95	3217.97
516.15	3292.31
516.36	2603.17
516.56	2455.51
516.77	2087.29
516.97	2521.46
517.17	2248.06
517.38	2349.43
517.58	2682.43
517.78	2584.33
517.99	2802.65
518.19	2955.22
518.39	3442.23
518.60	3247.26
518.80	2816.78
519.00	2633.69
519.21	2530.27
519.41	2747.76
519.61	2130.09
519.82	2235.15
520.02	2340.42
520.22	2332.23
520.43	2178.63
520.63	2311.75
520.83	2249.28
521.04	2151.19
521.24	2615.26
521.44	2780.12
521.65	3002.73
521.85	3269.99
522.05	2904.43
522.26	2591.09
522.46	2902.38
522.66	2589.86
522.87	2235.15
523.07	2388.75
523.27	2279.59
523.48	2628.77
523.68	2225.73
523.88	2288.81
524.09	2580.85
524.29	2457.36
524.49	2241.71
524.70	2609.32
524.90	2971.40
525.10	2839.51
525.31	2366.43
525.51	2200.95
525.71	2489.51
525.91	2361.10
526.12	2082.58
526.32	1952.12
526.52	2126.00
526.73	2072.75
526.93	2088.93
527.13	1919.15
527.34	2192.76
527.54	2222.46
527.74	2104.29
527.94	1995.34
528.15	2094.25
528.35	2253.99
528.55	2180.06
528.76	2096.71
528.96	1943.93
529.16	2337.14
529.36	2123.74
529.57	1927.55
529.77	2384.45
529.97	1998.41
530.18	2113.09
530.38	1988.37
530.58	2260.75
530.78	2237.41
530.99	2025.24
531.19	2131.12
531.39	2108.59
531.60	2198.70
531.80	2094.25
532.00	2202.18
532.20	2220.00
532.41	2071.52
532.61	1985.51
532.81	1958.06
533.01	2112.27
533.22	2239.45
533.42	2126.20
533.62	1878.81
533.82	2385.27
534.03	2158.76
534.23	2148.73
534.43	1965.03
534.63	2103.47
534.84	2227.37
535.04	2118.62
535.24	2051.04
535.44	2624.47
535.65	2084.22
535.85	1940.86
536.05	1927.75
536.25	2180.88
536.46	2056.57
536.66	2233.31
536.86	2188.46
537.06	2442.20
537.27	2511.01
537.47	2122.72
537.67	2043.46
537.87	2463.50
538.08	2220.61
538.28	1981.61
538.48	1983.46
538.68	2259.93
538.88	2403.09
539.09	1949.46
539.29	2110.02
539.49	2393.46
539.69	2265.87
539.90	2112.07
540.10	1981.41
540.30	2519.21
540.50	2233.51
540.70	2028.92
540.91	2159.79
541.11	2538.87
541.31	2807.97
541.51	2496.27
541.72	2593.14
541.92	2749.19
542.12	2477.84
542.32	2321.37
542.52	2198.90
542.73	2229.42
542.93	2393.26
543.13	2153.85
543.33	2357.21
543.53	2627.54
543.74	2630.82
543.94	2413.74
544.14	2637.37
544.34	2990.24
544.54	2894.80
544.75	2947.44
544.95	3150.19
545.15	3137.28
545.35	3115.78
545.55	2698.81
545.75	2458.59
545.96	2872.69
546.16	2302.74
546.36	2264.03
546.56	2307.24
546.76	2550.13
546.97	2667.07
547.17	2198.29
547.37	2213.24
547.57	2168.59
547.77	2339.19
547.97	2164.29
548.18	2165.52
548.38	2368.48
548.58	3267.33
548.78	3470.90
548.98	4027.54
549.18	4692.31
549.39	4993.15
549.59	4273.09
549.79	3734.88
549.99	3859.19
550.19	3535.20
550.39	3203.02
550.60	2806.74
550.80	2793.63
551.00	2767.42
551.20	2357.42
551.40	2227.17
551.60	2442.41
551.80	2406.57
552.01	2312.57
552.21	2275.70
552.41	2432.37
552.61	2649.25
552.81	2230.44
553.01	2079.51
553.21	2398.99
553.42	2101.42
553.62	2082.37
553.82	2004.55
554.02	2480.09
554.22	2345.74
554.42	1940.25
554.62	2198.70
554.83	2943.55
555.03	3436.90
555.23	3393.89
555.43	4017.50
555.63	4141.20
555.83	3809.22
556.03	3271.02
556.23	3003.14
556.44	3238.04
556.64	3323.85
556.84	2727.08
557.04	2969.15
557.24	2980.61
557.44	2774.79
557.64	2521.87
557.84	2280.82
558.04	2389.57
558.25	2516.13
558.45	2108.59
558.65	2244.37
558.85	2444.66
559.05	2160.81
559.25	2358.65
559.45	2514.09
559.65	3310.75
559.85	4075.25
560.05	3368.50
560.26	3598.28
560.46	3646.61
560.66	3301.33
560.86	2914.67
561.06	2687.96
561.26	3010.51
561.46	2741.41
561.66	2394.28
561.86	2479.48
562.06	2352.30
562.26	2392.64
562.47	2238.43
562.67	2052.27
562.87	2411.28
563.07	2109.82
563.27	2223.27
563.47	2243.55
563.67	2304.37
563.87	2525.56
564.07	2341.65
564.27	2553.61
564.47	2821.08
564.67	2985.94
564.87	2785.24
565.08	2742.64
565.28	2579.62
565.48	2712.13
565.68	2478.45
565.88	2450.80
566.08	2690.83
566.28	2338.99
566.48	2025.44
566.68	2104.29
566.88	2154.26
567.08	2374.21
567.28	2180.68
567.48	2202.39
567.68	2443.64
567.88	2226.55
568.08	2358.85
568.28	2460.02
568.48	2448.14
568.68	2692.67
568.89	2346.56
569.09	2105.93
569.29	2444.46
569.49	2453.26
569.69	2046.33
569.89	2009.88
570.09	1920.99
570.29	2097.94
570.49	1941.47
570.69	2005.17
570.89	2323.83
571.09	2529.45
571.29	1898.06
571.49	2174.12
571.69	2206.28
571.89	2205.25
572.09	1996.16
572.29	2043.67
572.49	2255.22
572.69	2219.59
572.89	2168.80
573.09	1981.00
573.29	2498.52
573.49	2598.26
573.69	2485.82
573.89	2450.39
574.09	2334.68
574.29	2591.09
574.49	2177.61
574.69	2050.02
574.89	2060.26
575.09	2011.92
575.29	1950.49
575.49	2031.99
575.69	2196.86
575.89	1959.50
576.09	2022.16
576.29	2111.25
576.49	2107.16
576.69	2305.19
576.89	2194.60
577.09	2233.72
577.29	2067.01
577.49	2558.53
577.69	2076.85
577.89	2240.48
578.09	2248.87
578.29	1970.15
578.49	2083.40
578.69	1975.88
578.89	2352.50
579.09	2211.81
579.29	2005.58
579.49	2237.41
579.69	2201.98
579.89	2586.58
580.09	1930.21
580.29	1924.07
580.49	2094.46
580.69	2035.07
580.89	1975.88
581.09	1991.85
581.29	2051.25
581.49	2136.65
581.69	1911.78
581.89	1914.24
582.09	1986.32
582.28	2053.29
582.48	2219.38
582.68	2326.90
582.88	2648.84
583.08	2402.68
583.28	2312.57
583.48	2257.07
583.68	2173.71
583.88	2287.38
584.08	2122.92
584.28	2122.51
584.48	2554.23
584.68	2285.94
584.88	2021.14
585.08	2299.05
585.28	2390.39
585.48	2453.06
585.68	2202.18
585.87	2285.12
586.07	2354.96
586.27	2244.37
586.47	2145.45
586.67	2063.53
586.87	2192.56
587.07	2130.71
587.27	2041.82
587.47	2281.23
587.67	2848.31
587.87	3456.97
588.07	3154.28
588.27	3263.64
588.46	3721.57
588.66	3730.78
588.86	3103.90
589.06	2896.03
589.26	2950.30
589.46	2794.66
589.66	2294.75
589.86	2183.34
590.06	2430.12
590.26	2755.13
590.46	2641.27
590.66	2791.79
590.85	2837.87
591.05	2966.07
591.25	2514.50
591.45	2496.88
591.65	2706.39
591.85	2717.45
592.05	2621.20
592.25	2766.81
592.45	3073.59
592.64	2827.84
592.84	2631.44
593.04	2441.59
593.24	3036.32
593.44	2528.01
593.64	2476.20
593.84	2511.63
594.04	2499.96
594.24	2782.17
594.43	2274.47
594.63	2238.02
594.83	2505.69
595.03	2406.36
595.23	1995.34
595.43	1980.18
595.63	2085.04
595.83	2371.34
596.02	1897.44
596.22	2147.91
596.42	2304.78
596.62	2307.86
596.82	2149.75
597.02	2194.19
597.22	2500.57
597.41	2265.87
597.61	2117.60
597.81	2338.58
598.01	2539.07
598.21	2389.37
598.41	2264.44
598.61	2261.16
598.80	2451.01
599.00	2496.27
599.20	2498.73
599.40	2362.33
599.60	2416.60
599.80	2583.10
599.99	2369.09
600.19	2258.09
600.39	2433.40
600.59	2479.89
600.79	2316.46
600.99	2236.79
601.19	2669.53
601.38	2703.32
601.58	2362.74
601.78	2080.94
601.98	3011.54
602.18	4488.53
602.37	5582.97
602.57	6199.20
602.77	7242.03
602.97	7450.72
603.17	6590.36
603.37	6370.62
603.56	6382.90
603.76	6083.29
603.96	5708.30
604.16	5197.54
604.36	4848.98
604.56	4390.03
604.75	3639.24
604.95	3532.34
605.15	3531.11
605.35	3281.87
605.55	2903.81
605.74	2728.51
605.94	2955.63
606.14	2636.55
606.34	2368.07
606.54	2340.21
606.73	2265.67
606.93	2406.57
607.13	2056.98
607.33	2192.15
607.53	2515.11
607.72	2386.70
607.92	2200.34
608.12	2274.27
608.32	2255.43
608.51	2407.59
608.71	2124.97
608.91	2409.44
609.11	2640.24
609.31	2594.16
609.50	2674.03
609.70	3038.57
609.90	3079.33
610.10	3156.53
610.29	2807.77
610.49	2560.78
610.69	2806.74
610.89	2610.96
611.09	2399.40
611.28	2502.82
611.48	2592.11
611.68	2373.39
611.88	2211.60
612.07	2159.38
612.27	2532.72
612.47	2225.53
612.67	2215.29
612.86	2233.11
613.06	2266.90
613.26	1979.36
613.46	2179.45
613.65	2407.80
613.85	3062.74
614.05	2755.95
614.25	2627.54
614.44	2546.85
614.64	2647.41
614.84	2545.42
615.04	2411.07
615.23	2450.19
615.43	2675.88
615.63	2605.22
615.83	2299.25
616.02	2333.66
616.22	2946.21
616.42	2745.71
616.62	2863.47
616.81	3010.31
617.01	3110.86
617.21	2901.36
617.41	2511.22
617.60	2545.63
617.80	2645.16
618.00	2552.79
618.19	2356.19
618.39	2205.46
618.59	2365.81
618.79	2182.11
618.98	1894.78
619.18	2014.38
619.38	2524.53
619.57	2127.02
619.77	2004.76
619.97	1988.58
620.17	2174.74
620.36	2233.51
620.56	2679.36
620.76	2544.19
620.95	2693.28
621.15	2740.39
621.35	2487.67
621.54	2507.74
621.74	2570.20
621.94	2333.25
622.14	2145.45
622.33	2082.58
622.53	2271.40
622.73	2199.31
622.92	1929.39
623.12	2040.19
623.32	2484.80
623.51	2310.72
623.71	1918.54
623.91	2228.39
624.10	2024.62
624.30	2247.85
624.50	1951.92
624.69	1926.52
624.89	2854.05
625.09	2111.05
625.29	1806.72
625.48	1877.58
625.68	2182.52
625.88	2334.07
626.07	2020.53
626.27	1922.22
626.47	2020.94
626.66	1900.92
626.86	2016.84
627.06	1987.96
627.25	2140.13
627.45	2427.25
627.64	2004.55
627.84	2157.33
628.04	1991.44
628.23	2480.70
628.43	1898.26
628.63	2067.01
628.82	2289.42
629.02	2747.15
629.22	2385.47
629.41	2549.31
629.61	2555.66
629.81	2978.77
630.00	2538.05
630.20	2538.66
630.40	2823.53
630.59	2799.78
630.79	2427.25
630.98	2330.79
631.18	2405.95
631.38	2362.33
631.57	2302.74
631.77	1981.41
631.97	2248.26
632.16	2252.97
632.36	2034.04
632.56	2040.80
632.75	2176.99
632.95	2297.41
633.14	1860.17
633.34	2107.97
633.54	1824.74
633.73	2043.05
633.93	1966.87
634.12	1814.91
634.32	2576.14
634.52	2118.62
634.71	1806.10
634.91	2010.49
635.11	1921.40
635.30	2003.53
635.50	1997.79
635.69	1942.50
635.89	2554.84
636.09	2483.37
636.28	2095.89
636.48	2122.72
636.67	2454.70
636.87	2409.23
637.07	2190.92
637.26	2090.36
637.46	2369.50
637.65	2536.41
637.85	2298.23
638.04	2222.46
638.24	2321.17
638.44	2446.30
638.63	2175.35
638.83	2100.60
639.02	2301.10
639.22	2314.61
639.42	2004.14
639.61	2012.13
639.81	2172.49
640.00	2141.36
640.20	2138.49
640.39	2190.71
640.59	3049.63
640.79	3175.38
640.98	3221.05
641.18	3285.15
641.37	3477.45
641.57	3064.58
641.76	2911.80
641.96	2541.53
642.15	2771.93
642.35	2573.27
642.55	2484.60
642.74	2216.72
642.94	2518.80
643.13	2538.05
643.33	2055.34
643.52	1971.17
643.72	2094.25
643.91	2150.57
644.11	1870.21
644.31	1932.67
644.50	1968.92
644.70	2370.11
644.89	1992.88
645.09	2067.22
645.28	2147.30
645.48	2203.82
645.67	1957.86
645.87	1872.05
646.06	2141.56
646.26	2266.28
646.45	1830.47
646.65	1808.77
646.84	2475.58
647.04	2089.34
647.24	1889.25
647.43	1977.11
647.63	2183.95
647.82	2438.11
648.02	1884.75
648.21	1959.91
648.41	2380.97
648.60	2089.95
648.80	2115.35
648.99	2024.62
649.19	2067.63
649.38	1848.70
649.58	2001.68
649.77	2045.92
649.97	2323.22
650.16	2210.99
650.36	1746.10
650.55	2138.69
650.75	2174.74
650.94	2392.03
651.14	2009.88
651.33	2048.17
651.53	2400.63
651.72	2008.65
651.92	1950.08
652.11	1794.84
652.31	2203.61
652.50	2191.53
652.70	2047.97
652.89	1918.13
653.09	2437.90
653.28	2170.44
653.48	1918.13
653.67	1913.83
653.87	2720.32
654.06	2243.96
654.25	2285.33
654.45	1979.16
654.64	2108.38
654.84	2083.60
655.03	1792.59
655.23	2153.23
655.42	2255.63
655.62	2427.66
655.81	2077.46
656.01	1902.56
656.20	2257.68
656.40	2406.77
656.59	2033.43
656.79	2119.24
656.98	2159.17
657.17	2248.06
657.37	1971.58
657.56	1933.08
657.76	2161.43
657.95	2299.46
658.15	1637.15
658.34	2003.73
658.54	2106.75
658.73	1956.63
658.92	2002.09
659.12	2046.94
659.31	2328.13
659.51	2116.58
659.70	2224.50
659.90	2141.15
660.09	2523.92
660.29	2314.00
660.48	2066.81
660.67	2283.49
660.87	2157.94
661.06	2286.76
661.26	2115.55
661.45	2142.18
661.65	2214.67
661.84	2078.28
662.03	1952.12
662.23	1962.16
662.42	2477.22
662.62	1953.76
662.81	1853.00
663.00	1902.97
663.20	2133.37
663.39	2189.07
663.59	2068.86
663.78	1931.44
663.97	2057.39
664.17	2271.61
664.36	1836.41
664.56	1894.58
664.75	2263.01
664.94	2234.54
665.14	2123.95
665.33	2150.37
665.53	2296.39
665.72	2275.50
665.91	2257.68
666.11	2193.78
666.30	2306.01
666.50	2189.48
666.69	2139.51
666.88	2050.22
667.08	2230.85
667.27	2167.57
667.47	2058.62
667.66	2009.47
667.85	2343.90
668.05	2178.22
668.24	1952.94
668.43	2191.74
668.63	2097.53
668.82	2370.73
669.02	2127.43
669.21	2030.97
669.40	2017.04
669.60	2511.42
669.79	1864.68
669.98	2647.00
670.18	1993.29
670.37	1993.29
670.56	2023.39
670.76	2087.70
670.95	2170.64
671.15	2405.75
671.34	2132.75
671.53	2129.48
671.73	2170.44
671.92	2105.31
672.11	1977.11
672.31	2010.29
672.50	2269.97
672.69	1978.54
672.89	1789.72
673.08	2010.49
673.27	2269.76
673.47	2184.16
673.66	2017.86
673.85	1918.13
674.05	2426.43
674.24	3028.54
674.43	3226.98
674.63	3822.74
674.82	4546.70
675.01	3916.95
675.21	3751.47
675.40	3368.29
675.59	3338.39
675.79	3591.52
675.98	3046.15
676.17	3126.02
676.37	3052.29
676.56	2738.95
676.75	2522.89
676.95	2394.08
677.14	2357.21
677.33	2511.01
677.52	2000.46
677.72	2041.42
677.91	2239.25
678.10	1946.80
678.30	1916.90
678.49	1911.16
678.68	2517.36
678.88	1836.62
679.07	2149.34
679.26	1950.69
679.45	2443.43
679.65	2352.71
679.84	1792.38
680.03	1831.70
680.23	2090.77
680.42	2595.39
680.61	1911.57
680.81	1923.45
681.00	2146.07
681.19	2226.35
681.38	2112.89
681.58	2095.89
681.77	2113.91
681.96	2331.61
682.15	2001.07
682.35	2132.14
682.54	2295.98
682.73	2005.78
682.93	1961.34
683.12	1932.05
683.31	2299.25
683.50	2642.49
683.70	1897.03
683.89	2063.12
684.08	1982.64
684.27	2324.03
684.47	1890.07
684.66	1991.85
684.85	2503.23
685.04	2362.13
685.24	1888.84
685.43	1945.98
685.62	1854.64
685.81	2263.01
686.01	2526.99
686.20	2710.69
686.39	2937.40
686.58	3683.68
686.78	3336.76
686.97	3195.86
687.16	3223.71
687.35	3037.14
687.55	2765.17
687.74	2836.03
687.93	2674.24
688.12	2778.48
688.32	2647.82
688.51	2401.65
688.70	2632.87
688.89	2247.85
689.08	2094.66
689.28	2100.60
689.47	2302.53
689.66	2254.81
689.85	2178.83
690.05	1974.65
690.24	2077.25
690.43	2188.25
690.62	2029.95
690.81	1920.18
691.01	2119.03
691.20	2080.12
691.39	1866.11
691.58	2050.02
691.77	2468.42
691.97	2165.73
692.16	2094.87
692.35	2025.24
692.54	2140.95
692.73	2502.00
692.93	2414.56
693.12	2507.74
693.31	2751.24
693.50	2703.52
693.69	2482.75
693.89	2299.66
694.08	2703.93
694.27	2705.16
694.46	2309.90
694.65	2317.07
694.85	2545.01
695.04	2539.28
695.23	2433.40
695.42	3448.98
695.61	4315.27
695.80	4906.52
696.00	5284.99
696.19	5530.54
696.38	4906.93
696.57	4320.80
696.76	4065.63
696.95	3725.46
697.15	3889.30
697.34	3701.09
697.53	3125.41
697.72	3071.54
697.91	2858.35
698.10	2952.97
698.30	2375.23
698.49	2278.37
698.68	2407.59
698.87	2259.32
699.06	2036.70
699.25	2050.84
699.45	2371.55
699.64	2214.47
699.83	2223.89
700.02	1958.47
700.21	2227.99
700.40	2079.30
700.59	1972.60
700.79	1996.77
700.98	2227.58
701.17	2015.20
701.36	1918.54
701.55	1950.69
701.74	2519.41
701.93	2666.05
702.12	3120.90
702.32	3422.57
702.51	4039.82
702.70	4076.28
702.89	3518.41
703.08	3118.03
703.27	3409.87
703.46	3175.58
703.65	2763.32
703.85	2621.20
704.04	2698.20
704.23	2866.75
704.42	2352.91
704.61	2250.10
704.80	2609.93
704.99	2153.23
705.18	2132.35
705.37	2186.21
705.57	3050.45
705.76	4232.13
705.95	4523.14
706.14	5456.61
706.33	6099.67
706.52	6103.56
706.71	4695.99
706.90	4233.15
707.09	4240.93
707.28	4018.32
707.47	3485.64
707.67	3485.03
707.86	3212.65
708.05	3331.64
708.24	2790.77
708.43	2603.79
708.62	2463.09
708.81	2219.59
709.00	2049.61
709.19	2024.42
709.38	2342.67
709.57	2062.10
709.76	2194.81
709.96	2155.90
710.15	2645.98
710.34	2429.51
710.53	2379.94
710.72	2176.99
710.91	2507.33
711.10	2409.84
711.29	2231.67
711.48	2120.47
711.67	2152.21
711.86	2413.12
712.05	2033.84
712.24	2088.52
712.43	2428.07
712.62	2501.39
712.81	2073.57
713.00	2252.36
713.19	2006.19
713.39	2253.18
713.58	1980.39
713.77	2230.24
713.96	2443.84
714.15	2332.43
714.34	2238.23
714.53	2068.24
714.72	2682.02
714.91	2235.77
715.10	2331.20
715.29	2212.83
715.48	2977.95
715.67	2568.56
715.86	2285.74
716.05	2166.75
716.24	2272.84
716.43	2207.10
716.62	2025.24
716.81	1980.18
717.00	2165.52
717.19	2503.44
717.38	2061.69
717.57	2018.07
717.76	1928.16
717.95	2309.08
718.14	2000.25
718.33	1999.84
718.52	1835.80
718.71	1909.53
718.90	1895.40
719.09	1900.31
719.28	2136.65
719.47	2353.12
719.66	2321.99
719.85	2411.28
720.04	2512.65
720.23	2618.53
720.42	2419.27
720.61	2446.09
720.80	2220.20
720.99	2447.94
721.18	2186.21
721.37	2097.73
721.56	2273.04
721.75	2432.58
721.94	2050.84
722.13	2069.68
722.32	2177.20
722.51	2355.98
722.70	2070.91
722.89	2088.93
723.08	2111.25
723.27	2340.62
723.46	2056.78
723.65	2016.43
723.84	2030.97
724.03	2358.85
724.22	1842.15
724.41	1984.07
724.60	2082.37
724.79	2269.15
724.98	2007.62
725.16	1968.92
725.35	2251.54
725.54	1979.36
725.73	2046.13
725.92	2175.76
726.11	2378.72
726.30	2769.88
726.49	2587.81
726.68	2768.03
726.87	3050.24
727.06	3164.11
727.25	2512.65
727.44	2592.32
727.63	2603.38
727.82	2503.85
728.01	2421.72
728.20	2434.42
728.38	2686.94
728.57	2361.10
728.76	2171.46
728.95	2271.81
729.14	2062.30
729.33	2031.18
729.52	1785.83
729.71	1934.51
729.90	2031.18
730.09	2186.62
730.28	2179.45
730.47	2284.10
730.66	2774.38
730.84	2658.26
731.03	2468.42
731.22	2404.52
731.41	2527.81
731.60	2517.57
731.79	2065.38
731.98	2149.75
732.17	2450.80
732.36	2375.23
732.55	2084.63
732.73	1987.55
732.92	2450.39
733.11	2255.84
733.30	1944.75
733.49	1916.08
733.68	2299.87
733.87	2274.88
734.06	2072.34
734.25	2385.06
734.43	2748.78
734.62	3075.23
734.81	3018.09
735.00	3003.55
735.19	2960.13
735.38	2853.84
735.57	2478.45
735.76	2678.13
735.94	3063.56
736.13	4018.52
736.32	4049.65
736.51	4300.12
736.70	5109.89
736.89	5185.25
737.08	4710.74
737.27	5500.64
737.45	7127.96
737.64	7605.13
737.83	8288.13
738.02	8624.41
738.21	8145.59
738.40	6910.67
738.59	6098.85
738.77	5669.19
738.96	5276.39
739.15	4985.37
739.34	4496.93
739.53	4118.87
739.72	4085.08
739.90	3729.35
740.09	3061.51
740.28	2898.08
740.47	2914.05
740.66	2716.43
740.85	2262.80
741.03	2268.13
741.22	2181.29
741.41	2346.15
741.60	2056.16
741.79	2296.59
741.98	2593.55
742.16	2739.36
742.35	2366.63
742.54	2578.19
742.73	3109.84
742.92	2809.40
743.10	2618.12
743.29	2676.70
743.48	3123.77
743.67	2515.11
743.86	2277.34
744.05	2282.05
744.23	2314.41
744.42	2269.76
744.61	2265.26
744.80	2077.25
744.99	2221.64
745.17	1971.78
745.36	1895.19
745.55	2140.95
745.74	2188.66
745.93	2032.20
746.11	1918.33
746.30	1889.66
746.49	2325.06
746.68	2005.99
746.86	2002.50
747.05	1974.86
747.24	2285.74
747.43	2397.35
747.62	2037.93
747.80	2132.35
747.99	2582.49
748.18	2550.13
748.37	2260.34
748.56	2262.60
748.74	2502.62
748.93	2449.58
749.12	2795.27
749.31	4145.29
749.49	5256.93
749.68	6044.37
749.87	6758.71
750.06	6937.70
750.24	7128.77
750.43	7723.09
750.62	8477.36
750.81	9185.55
750.99	9772.29
751.18	9685.46
751.37	7998.14
751.56	6950.40
751.74	7130.21
751.93	6677.61
752.12	5314.68
752.31	4819.89
752.49	4545.06
752.68	4463.96
752.87	3666.48
753.06	3376.28
753.24	3113.73
753.43	3100.01
753.62	2442.82
753.81	2318.30
753.99	2682.22
754.18	2389.57
754.37	2041.21
754.55	2098.35
754.74	2534.36
754.93	1932.87
755.12	1983.66
755.30	1922.22
755.49	2329.97
755.68	2188.05
755.86	2098.35
756.05	1872.25
756.24	2437.29
756.43	1932.46
756.61	1915.47
756.80	2021.55
756.99	2382.20
757.17	2129.89
757.36	1948.23
757.55	1999.64
757.74	2262.60
757.92	2212.01
758.11	1886.59
758.30	1813.48
758.48	2104.90
758.67	1936.97
758.86	2023.80
759.04	1917.72
759.23	2074.39
759.42	2168.39
759.60	1955.40
759.79	1998.20
759.98	2077.66
760.16	1999.43
760.35	1907.48
760.54	1861.19
760.73	2185.80
760.91	1920.18
761.10	1962.36
761.29	2080.94
761.47	2144.02
761.66	2581.87
761.85	2118.62
762.03	2442.82
762.22	3960.98
762.41	8399.54
762.59	13189.33
762.78	15594.46
762.97	18942.69
763.15	20222.87
763.34	18146.23
763.52	13459.66
763.71	12726.90
763.90	11705.37
764.08	10848.50
764.27	10026.24
764.46	9455.68
764.64	8221.37
764.83	7393.17
765.02	6527.90
765.20	5851.25
765.39	4921.06
765.58	3718.50
765.76	3192.99
765.95	2991.26
766.13	2734.86
766.32	2349.63
766.51	2277.55
766.69	3145.27
766.88	2407.18
767.07	1968.51
767.25	1864.47
767.44	2371.96
767.62	2440.56
767.81	1974.24
768.00	2041.01
768.18	2219.18
768.37	2155.49
768.56	1890.89
768.74	2007.83
768.93	1977.93
769.11	2255.02
769.30	2071.52
769.49	1982.43
769.67	2143.40
769.86	2106.95
770.04	2020.94
770.23	1965.23
770.42	2406.36
770.60	2167.77
770.79	1922.43
770.97	2069.68
771.16	2976.72
771.35	4186.46
771.53	5240.34
771.72	6034.95
771.90	7005.28
772.09	7512.77
772.27	6560.05
772.46	5138.97
772.65	5371.00
772.83	4900.17
773.02	4645.20
773.20	4212.67
773.39	4246.67
773.58	3988.62
773.76	3395.33
773.95	3165.95
774.13	3208.76
774.32	2831.52
774.50	2391.82
774.69	2332.43
774.87	2288.61
775.06	2649.25
775.25	2018.89
775.43	2012.13
775.62	2220.82
775.80	2255.63
775.99	2036.09
776.17	1981.20
776.36	2195.22
776.54	2401.65
776.73	2007.01
776.92	2109.41
777.10	2361.92
777.29	2254.20
777.47	1981.82
777.66	1979.57
777.84	2178.22
778.03	2120.06
778.21	1906.25
778.40	2039.37
778.58	2230.03
778.77	2318.51
778.95	1880.04
779.14	1931.44
779.32	2495.65
779.51	2304.17
779.70	1942.70
779.88	1836.21
780.07	2037.73
780.25	2586.58
780.44	2001.48
780.62	2065.99
780.81	2231.26
780.99	2174.53
781.18	1926.93
781.36	1898.26
781.55	2106.75
781.73	2399.40
781.92	1842.97
782.10	1871.84
782.29	2207.30
782.47	2394.49
782.66	1931.44
782.84	1832.11
783.03	2007.21
783.21	2340.62
783.40	1906.66
783.58	1880.65
783.77	2017.25
783.95	2108.18
784.14	1902.56
784.32	2008.24
784.51	2352.50
784.69	2064.97
784.88	1924.68
785.06	2045.51
785.24	2017.45
785.43	2369.70
785.61	2115.14
785.80	1985.92
785.98	2298.64
786.17	2227.58
786.35	1936.35
786.54	2144.63
786.72	2351.68
786.91	2364.38
787.09	2010.08
787.28	1901.74
787.46	2164.91
787.65	2294.75
787.83	1848.50
788.01	2032.20
788.20	2063.33
788.38	2270.99
788.57	2119.65
788.75	2123.33
788.94	2606.86
789.12	2469.03
789.31	2131.53
789.49	2203.61
789.67	2128.45
789.86	2287.79
790.04	2028.51
790.23	1949.46
790.41	2678.74
790.60	2229.42
790.78	2056.78
790.96	2088.52
791.15	2323.01
791.33	2199.72
791.52	2037.93
791.70	1898.47
791.89	2208.32
792.07	2328.75
792.25	2011.72
792.44	1865.49
792.62	2364.38
792.81	2067.63
792.99	1999.43
793.17	1961.54
793.36	2074.80
793.54	2770.08
793.73	3339.62
793.91	4382.86
794.10	5309.97
794.28	6026.76
794.46	5946.07
794.65	5758.89
794.83	4740.64
795.01	4541.99
795.20	4356.44
795.38	4107.41
795.57	4049.65
795.75	3922.27
795.93	3472.33
796.12	3287.60
796.30	3353.55
796.49	3189.92
796.67	2637.58
796.85	2638.81
797.04	2590.07
797.22	2523.51
797.40	2101.22
797.59	2173.10
797.77	2265.87
797.96	2114.73
798.14	1967.89
798.32	1994.31
798.51	2351.48
798.69	2514.29
798.87	2011.51
799.06	2007.83
799.24	1995.75
799.42	2641.06
799.61	3091.00
799.79	3605.45
799.98	4457.81
800.16	4636.19
800.34	5719.36
800.53	7055.25
800.71	7622.33
800.89	8894.12
801.08	9002.46
801.26	8876.92
801.44	7568.06
801.63	6371.44
801.81	6164.59
801.99	5572.32
802.18	5343.56
802.36	5173.78
802.54	4687.19
802.73	4120.72
802.91	4015.66
803.09	3674.88
803.28	3347.81
803.46	3089.36
803.64	3153.05
803.83	2536.61
804.01	2340.42
804.19	2160.40
804.38	2530.47
804.56	2441.59
804.74	2205.66
804.92	2213.24
805.11	2165.32
805.29	2458.38
805.47	2064.97
805.66	1993.08
805.84	2039.37
806.02	2409.84
806.21	2031.38
806.39	2259.93
806.57	2387.52
806.76	2388.14
806.94	2110.64
807.12	2088.31
807.30	2218.36
807.49	2361.10
807.67	2231.88
807.85	2315.43
808.04	2457.15
808.22	2728.10
808.40	1984.69
808.58	1947.21
808.77	2296.59
808.95	2631.84
809.13	2788.72
809.31	4907.55
809.50	7150.48
809.68	8255.98
809.86	9180.84
810.05	9981.39
810.23	11078.69
810.41	14218.64
810.59	22305.25
810.78	27370.90
810.96	31806.18
811.14	34238.76
811.32	33377.18
811.51	26750.36
811.69	21649.28
811.87	21360.11
812.05	18544.36
812.24	17401.39
812.42	16241.83
812.60	14520.51
812.78	12198.11
812.97	10411.67
813.15	9575.28
813.33	8216.66
813.51	6948.35
813.70	5596.28
813.88	4666.09
814.06	3940.50
814.24	3188.69
814.42	2617.30
814.61	2680.18
814.79	2768.85
814.97	2060.87
815.15	2112.48
815.34	2321.17
815.52	2383.43
815.70	1982.43
815.88	2046.33
816.06	2037.73
816.25	2109.00
816.43	1988.58
816.61	2116.17
816.79	2457.77
816.98	2004.55
817.16	2006.39
817.34	2017.25
817.52	2339.39
817.70	2535.79
817.89	2109.61
818.07	1941.88
818.25	2188.05
818.43	2229.42
818.61	2027.90
818.80	1979.57
818.98	2474.77
819.16	2209.76
819.34	1895.40
819.52	2254.81
819.70	2020.53
819.89	2147.50
820.07	1844.40
820.25	1850.13
820.43	2180.06
820.61	2323.63
820.80	1967.28
820.98	1833.75
821.16	1849.73
821.34	1924.89
821.52	1916.28
821.70	2061.08
821.89	2143.20
822.07	2055.55
822.25	2012.33
822.43	1894.17
822.61	2389.77
822.79	2156.72
822.98	1982.23
823.16	1805.90
823.34	2149.14
823.52	2335.50
823.70	2008.44
823.88	1843.38
824.06	2214.26
824.25	2098.96
824.43	2099.58
824.61	1940.04
824.79	2239.45
824.97	2336.53
825.15	2327.93
825.33	2909.96
825.52	3777.68
825.70	4136.08
825.88	4310.56
826.06	4701.93
826.24	4918.81
826.42	4515.77
826.60	3674.67
826.78	3740.21
826.97	3492.81
827.15	3621.83
827.33	3077.69
827.51	3084.04
827.69	2917.54
827.87	2903.41
828.05	2659.08
828.23	2432.58
828.41	2725.44
828.60	2584.13
828.78	2106.95
828.96	2228.39
829.14	2118.42
829.32	2137.46
829.50	2020.12
829.68	1979.57
829.86	2075.41
830.04	2246.42
830.22	2087.70
830.41	1886.59
830.59	2118.01
830.77	2244.78
830.95	1910.96
831.13	1894.37
831.31	1979.57
831.49	2264.85
831.67	2097.73
831.85	2062.92
832.03	2072.54
832.21	2266.49
832.39	1899.29
832.57	1928.78
832.76	2303.35
832.94	2148.93
833.12	1822.08
833.30	1967.89
833.48	2354.34
833.66	2198.90
833.84	1933.49
834.02	1977.31
834.20	2299.87
834.38	2267.51
834.56	1825.56
834.74	1875.12
834.92	1926.52
835.10	2457.36
835.28	1965.85
835.46	1991.04
835.64	2084.63
835.82	2035.89
836.01	2220.41
836.19	2151.60
836.37	2041.62
836.55	1959.91
836.73	1919.15
836.91	1859.76
837.09	2221.64
837.27	2385.68
837.45	1844.81
837.63	1863.86
837.81	1953.15
837.99	2178.22
838.17	2088.52
838.35	2043.05
838.53	2655.60
838.71	2427.66
838.89	2120.47
839.07	2119.85
839.25	2342.47
839.43	2509.17
839.61	2559.96
839.79	3981.66
839.97	5624.95
840.15	6433.08
840.33	6986.03
840.51	7451.94
840.69	7331.93
840.87	6105.61
841.05	5402.13
841.23	5850.02
841.41	7417.74
841.59	10272.61
841.77	11450.19
841.95	12545.86
842.13	13449.01
842.31	12774.41
842.49	10307.22
842.67	8690.76
842.85	8715.13
843.03	7547.99
843.21	7012.86
843.39	6649.55
843.57	6128.96
843.75	5590.55
843.93	4709.10
844.11	4303.19
844.29	4108.43
844.47	3773.38
844.65	3527.01
844.83	3093.66
845.01	2916.72
845.19	2879.24
845.36	2393.87
845.54	2257.07
845.72	2328.95
845.90	2357.01
846.08	1981.61
846.26	2076.44
846.44	2224.71
846.62	2247.85
846.80	2030.97
846.98	1897.44
847.16	2078.07
847.34	2142.99
847.52	1874.51
847.70	1806.92
847.88	2056.57
848.06	2384.25
848.24	2074.80
848.41	1816.34
848.59	2298.23
848.77	2209.76
848.95	1912.19
849.13	1920.79
849.31	2207.10
849.49	2153.64
849.67	1863.45
849.85	1825.76
850.03	2166.75
850.21	2176.99
850.39	1845.22
850.57	2040.80
850.74	2372.16
850.92	2452.03
851.10	2537.64
851.28	2977.13
851.46	3601.35
851.64	4177.24
851.82	3809.63
852.00	3868.61
852.18	3852.02
852.36	3414.58
852.53	3065.19
852.71	3021.78
852.89	3084.45
853.07	3022.60
853.25	2641.27
853.43	2456.33
853.61	2659.70
853.79	2594.98
853.97	2225.53
854.14	2192.35
854.32	2555.25
854.50	2416.60
854.68	2085.86
854.86	2011.92
855.04	2035.07
855.22	2285.12
855.40	1856.89
855.57	1925.91
855.75	2254.40
855.93	2214.06
856.11	1780.30
856.29	1918.13
856.47	2018.27
856.65	2166.75
856.82	1855.87
857.00	1811.02
857.18	2071.11
857.36	1994.31
857.54	2015.41
857.72	2079.51
857.89	2196.24
858.07	2109.61
858.25	2130.71
858.43	1805.28
858.61	2031.59
858.79	2058.82
858.97	1871.23
859.14	1979.77
859.32	2061.89
859.50	2030.56
859.68	2032.20
859.86	1933.08
860.03	2227.58
860.21	2296.59
860.39	2011.51
860.57	2141.56
860.75	2243.34
860.93	2483.37
861.10	2179.04
861.28	1965.85
861.46	2225.73
861.64	2301.10
861.82	2023.60
861.99	2123.74
862.17	2336.73
862.35	2318.30
862.53	2001.48
862.71	1966.46
862.88	2184.57
863.06	2263.42
863.24	1921.20
863.42	1892.73
863.60	2069.88
863.77	2198.29
863.95	1755.52
864.13	1905.43
864.31	2005.99
864.49	2222.25
864.66	1822.90
864.84	1837.03
865.02	2140.74
865.20	2568.77
865.37	1974.24
865.55	1854.03
865.73	1972.19
865.91	2403.50
866.09	2255.02
866.26	2260.14
866.44	2550.75
866.62	2415.17
866.80	2135.83
866.97	2117.39
867.15	2254.20
867.33	2329.36
867.51	2179.65
867.68	2127.43
867.86	2170.23
868.04	2133.16
868.22	1812.25
868.39	1975.06
868.57	2249.69
868.75	2406.98
868.93	1851.16
869.10	1873.28
869.28	2450.80
869.46	2342.26
869.64	1926.93
869.81	1912.80
869.99	2120.67
870.17	2122.92
870.35	1855.25
870.52	1907.07
870.70	2282.26
870.88	1996.16
871.05	1828.43
871.23	1715.58
871.41	2064.56
871.59	2073.98
871.76	1904.41
871.94	1804.26
872.12	2092.61
872.29	1852.39
872.47	1851.57
872.65	1814.30
872.83	2123.54
873.00	2343.90
873.18	1931.64
873.36	1894.17
873.53	2238.63
873.71	1884.13
873.89	1825.56
874.06	1914.24
874.24	2155.49
874.42	2290.86
874.60	2022.78
874.77	2000.66
874.95	2006.39
875.13	2274.06
875.30	1907.89
875.48	1892.32
875.66	2432.17
875.83	2050.43
876.01	1926.73
876.19	2062.30
876.36	1947.00
876.54	2162.45
876.72	1881.88
876.89	2052.47
877.07	2251.54
877.25	1832.52
877.42	1963.39
877.60	1905.84
877.78	2421.11
877.95	2026.26
878.13	1819.42
878.31	2031.79
878.48	2244.98
878.66	2202.18
878.84	1886.59
879.01	1913.01
879.19	2171.26
879.37	2227.58
879.54	1924.68
879.72	1789.92
879.90	1786.65
880.07	2235.97
880.25	1644.31
880.42	2044.69
880.60	2126.20
880.78	2185.80
880.95	1883.11
881.13	1958.06
881.31	2087.70
881.48	1974.86
881.66	1850.13
881.83	1991.65
882.01	1958.68
882.19	1844.40
882.36	1911.98
882.54	1866.52
882.72	2199.93
882.89	2112.27
883.07	1846.65
883.24	1871.02
883.42	2197.06
883.60	2119.24
883.77	1840.30
883.95	1964.00
884.12	2345.33
884.30	2267.51
884.48	2173.30
884.65	2112.48
884.83	2314.41
885.00	2283.08
885.18	1885.56
885.36	1959.29
885.53	2257.68
885.71	2397.15
885.88	1853.00
886.06	1907.48
886.23	2230.44
886.41	2052.47
886.59	1902.77
886.76	1819.01
886.94	2200.54
887.11	2587.81
887.29	1911.78
887.47	1803.44
887.64	2291.88
887.82	2318.10
887.99	1738.32
888.17	1914.44
888.34	2019.50
888.52	1887.41
888.69	1863.86
888.87	1780.71
889.05	2015.20
889.22	1983.25
889.40	1873.07
889.57	2089.54
889.75	2384.86
889.92	2028.92
890.10	1793.82
890.27	1936.35
890.45	1970.56
890.62	1799.96
890.80	1783.99
890.98	1707.60
891.15	2343.90
891.33	2245.60
891.50	1836.00
891.68	1761.46
891.85	2225.94
892.03	2189.89
892.20	1836.82
892.38	1789.11
892.55	2208.32
892.73	2198.49
892.90	1749.37
893.08	1838.46
893.25	1950.08
893.43	1993.70
893.60	1949.26
893.78	1707.39
893.95	2137.67
894.13	2067.22
894.30	1859.97
894.48	1888.23
894.65	2239.45
894.83	2099.58
895.00	1698.59
895.18	1712.92
895.35	2230.85
895.53	2208.53
895.70	1798.12
895.88	2048.58
896.05	2165.11
896.23	1903.38
896.40	1895.80
896.58	1946.39
896.75	2229.62
896.93	2333.25
897.10	1916.90
897.28	1782.96
897.45	2142.99
897.63	2166.14
897.80	1946.80
897.98	1831.50
898.15	2151.39
898.33	1997.79
898.50	1925.50
898.67	1877.37
898.85	2041.01
899.02	2188.25
899.20	2111.25
899.37	1892.32
899.55	2122.92
899.72	2321.37
899.90	1858.74
900.07	1834.98
900.25	2152.21
900.42	2274.06
900.59	1817.78
900.77	1964.82
900.94	2149.75
901.12	2137.67
901.29	1860.78
901.47	2000.66
901.64	2192.35
901.82	2043.05
901.99	1671.76
902.16	1816.75
902.34	2260.96
902.51	2130.50
902.69	1839.90
902.86	1874.51
903.03	2705.37
903.21	2085.45
903.38	1851.36
903.56	1836.41
903.73	2255.84
903.91	2012.95
904.08	1806.72
904.25	1701.25
904.43	1939.43
904.60	2222.05
904.78	1862.01
904.95	1822.69
905.12	2063.94
905.30	2412.10
905.47	1957.86
905.65	2077.05
905.82	2124.36
905.99	2294.75
906.17	1975.88
906.34	1992.06
906.52	2099.58
906.69	2404.52
906.86	2112.89
907.04	2075.21
907.21	2377.69
907.38	2344.72
907.56	1922.63
907.73	1896.62
907.91	2396.74
908.08	2340.62
908.25	1906.86
908.43	1818.80
908.60	2186.00
908.77	2126.41
908.95	1921.40
909.12	1829.86
909.30	2242.53
909.47	1885.56
909.64	1916.69
909.82	2069.47
909.99	2046.33
910.16	2087.90
910.34	1844.40
910.51	1866.72
910.68	2160.81
910.86	2093.84
911.03	1861.19
911.20	2246.21
911.38	3565.31
911.55	5119.10
911.72	5564.95
911.90	6008.54
912.07	6653.24
912.24	6637.47
912.42	5136.10
912.59	3958.31
912.76	4016.07
912.94	3460.66
913.11	3015.43
913.28	2785.24
913.46	2735.06
913.63	2845.04
913.80	2826.20
913.98	2432.99
914.15	2810.02
914.32	2789.54
914.49	2422.75
914.67	2211.60
914.84	2550.95
915.01	2583.10
915.19	2305.81
915.36	2139.31
915.53	2441.18
915.71	2347.79
915.88	2072.75
916.05	1934.31
916.22	2308.27
916.40	2161.02
916.57	1779.28
916.74	2042.64
916.92	2354.96
917.09	1936.35
917.26	1835.39
917.43	1795.45
917.61	2051.86
917.78	1854.03
917.95	1820.03
918.13	1825.35
918.30	2488.69
918.47	2115.76
918.64	1872.46
918.82	1863.04
918.99	2205.25
919.16	2514.50
919.33	2095.48
919.51	2088.11
919.68	2244.16
919.85	2466.78
920.02	1876.35
920.20	1960.32
920.37	2440.77
920.54	2282.87
920.71	1873.07
920.89	1904.61
921.06	2441.79
921.23	2028.92
921.40	1940.86
921.58	2372.37
921.75	3307.88
921.92	2810.02
922.09	2847.70
922.27	2833.98
922.44	2893.78
922.61	2714.58
922.78	2213.44
922.96	2160.20
923.13	2296.39
923.30	2454.08
923.47	1961.34
923.64	1976.70
923.82	2300.07
923.99	2257.48
924.16	2102.65
924.33	1899.49
924.50	2176.17
924.68	2452.44
924.85	1897.85
925.02	1932.67
925.19	2310.93
925.36	2204.23
925.54	1983.87
925.71	1995.34
925.88	2666.66
926.05	2058.41
926.22	1831.29
926.40	1997.18
926.57	2152.01
926.74	2213.44
926.91	1831.29
927.08	2016.63
927.26	2267.72
927.43	2129.27
927.60	1843.79
927.77	1906.45
927.94	2366.63
928.11	2308.27
928.29	1739.75
928.46	1930.21
928.63	1995.75
928.80	2049.20
928.97	1977.52
929.14	1862.83
929.32	2464.94
929.49	2113.71
929.66	1815.11
929.83	1769.45
930.00	2014.79
930.17	2153.44
930.35	1777.64
930.52	1840.71
930.69	2346.77
930.86	1911.78
931.03	1899.49
931.20	1657.22
931.37	2234.95
931.55	2090.98
931.72	1904.00
931.89	1773.34
932.06	1927.96
932.23	2363.15
932.40	1959.50
932.57	1988.37
932.74	2306.83
932.92	2293.11
933.09	2032.40
933.26	1641.86
933.43	2031.99
933.60	2121.90
933.77	1904.00
933.94	1951.30
934.11	2039.98
934.29	2135.21
934.46	1803.65
934.63	1965.64
934.80	1896.83
934.97	2117.39
935.14	1927.34
935.31	1749.58
935.48	1983.46
935.65	2176.58
935.82	1899.29
936.00	1795.86
936.17	2344.31
936.34	2093.43
936.51	1944.34
936.68	1776.20
936.85	2155.69
937.02	2164.91
937.19	1988.37
937.36	1904.61
937.53	2180.68
937.70	2246.42
937.87	1842.97
938.05	1949.87
938.22	2146.68
938.39	1930.21
938.56	1865.70
938.73	1785.01
938.90	2033.02
939.07	1975.27
939.24	1943.32
939.41	1725.00
939.58	2149.75
939.75	2169.21
939.92	1857.10
940.09	2137.67
940.26	2037.93
940.43	2249.28
940.60	1887.82
940.77	1867.75
940.95	2151.39
941.12	2192.35
941.29	1873.69
941.46	1898.88
941.63	2308.68
941.80	2354.14
941.97	1734.22
942.14	1730.74
942.31	2174.12
942.48	2050.02
942.65	1943.52
942.82	1888.43
942.99	2192.56
943.16	2081.56
943.33	1738.93
943.50	1816.55
943.67	2198.49
943.84	2257.68
944.01	1868.57
944.18	1844.61
944.35	2321.17
944.52	1943.73
944.69	1929.39
944.86	1786.85
945.03	2214.88
945.20	2577.16
945.37	1758.18
945.54	1948.64
945.71	2338.37
945.88	2422.54
946.05	1825.35
946.22	1804.06
946.39	2298.03
946.56	2082.58
946.73	1752.45
946.90	1800.37
947.07	2006.80
947.24	2067.83
947.41	1701.04
947.58	1936.56
947.75	2236.79
947.92	2142.18
948.09	1652.92
948.26	1751.22
948.43	2155.90
948.60	2405.34
948.77	1819.62
948.94	1830.27
949.11	2244.57
949.27	2174.33
949.44	1815.52
949.61	1741.59
949.78	2141.77
949.95	2257.48
950.12	1737.91
950.29	1730.94
950.46	1995.54
950.63	2261.37
950.80	1807.74
950.97	1838.05
951.14	2238.02
951.31	2055.34
951.48	1785.62
951.65	1745.48
951.82	2401.86
951.99	2113.09
952.15	1756.13
952.32	1823.92
952.49	1954.17
952.66	2004.76
952.83	1819.01
953.00	1760.43
953.17	2068.24
953.34	2224.71
953.51	1873.07
953.68	1879.22
953.85	2257.48
954.02	2268.13
954.18	1864.88
954.35	1839.90
954.52	1946.18
954.69	2121.90
954.86	1731.35
955.03	1908.50
955.20	2163.88
955.37	2072.75
955.54	1824.13
955.71	1783.37
955.87	2158.15
956.04	2383.22
956.21	1829.04
956.38	1777.43
956.55	2103.06
956.72	2534.77
956.89	1882.08
957.06	1786.65
957.23	1986.32
957.39	2312.57
957.56	1855.66
957.73	1731.35
957.90	1732.79
958.07	2388.55
958.24	1853.00
958.41	1844.40
958.57	2212.01
958.74	2080.94
958.91	1769.45
959.08	1767.81
959.25	2204.84
959.42	2053.29
959.59	1882.70
959.75	1857.10
959.92	2275.91
960.09	2256.66
960.26	1784.80
960.43	1891.30
960.60	2109.20
960.76	2027.49
960.93	1698.38
961.10	1876.76
961.27	2213.65
961.44	2019.71
961.61	1745.69
961.77	1744.05
961.94	2117.60
962.11	2208.94
962.28	1824.74
962.45	1749.99
962.62	2035.68
962.78	2255.43
962.95	1695.31
963.12	1796.27
963.29	2180.47
963.46	2590.07
963.62	1892.12
963.79	1795.45
963.96	2532.72
964.13	2032.20
964.30	1930.42
964.46	1844.40
964.63	1925.71
964.80	2609.73
964.97	1802.62
965.14	2133.78
965.30	2390.80
965.47	2505.69
965.64	2257.89
965.81	2196.24
965.98	2572.45
966.14	2270.17
966.31	1961.95
966.48	1929.80
966.65	2409.84
966.81	2232.29
966.98	1933.49
967.15	1917.92
967.32	2179.24
967.49	2036.91
967.65	1752.86
967.82	1746.10
967.99	2108.79
968.16	1911.16
968.32	2033.02
968.49	1824.13
968.66	2079.30
968.83	2391.21
968.99	1982.02
969.16	1804.47
969.33	2336.53
969.50	2230.03
969.66	1981.20
969.83	2111.87
970.00	2254.40
970.17	2191.33
970.33	1873.07
970.50	1780.91
970.67	2332.02
970.84	2307.24
971.00	1786.44
971.17	1723.16
971.34	2214.67
971.50	2081.56
971.67	1934.10
971.84	1845.63
972.01	1885.56
972.17	1758.39
972.34	1718.04
972.51	1992.47
972.67	2277.55
972.84	2138.69
973.01	1777.23
973.18	1806.10
973.34	2212.42
973.51	1928.98
973.68	1865.90
973.84	1872.05
974.01	2030.36
974.18	2399.81
974.34	1871.84
974.51	1922.22
974.68	1988.58
974.85	2420.90
975.01	1945.16
975.18	1832.52
975.35	2070.09
975.51	1957.04
975.68	1728.28
975.85	1993.70
976.01	1988.58
976.18	2327.93
976.35	1833.55
976.51	1839.90
976.68	2374.41
976.85	2274.68
977.01	1864.88
977.18	1903.18
977.35	2180.06
977.51	1867.34
977.68	1660.08
977.85	1776.41
978.01	2278.16
978.18	2241.50
978.35	1902.56
978.51	1917.10
978.68	2295.98
978.85	2372.57
979.01	1904.20
979.18	1879.42
979.34	2059.23
979.51	2137.87
979.68	1780.71
979.84	1891.71
980.01	2550.34
980.18	2124.36
980.34	1776.82
980.51	1918.95
980.67	2224.50
980.84	2220.82
981.01	1843.58
981.17	1911.78
981.34	1820.64
981.51	2217.75
981.67	1762.07
981.84	1916.90
982.00	2198.08
982.17	2057.59
982.34	1663.97
982.50	1584.92
982.67	2371.55
982.83	1999.64
983.00	1709.64
983.17	1615.85
983.33	2245.39
983.50	1831.70
983.66	1704.73
983.83	1620.15
984.00	2003.32
984.16	2088.31
984.33	1628.95
984.49	1619.33
984.66	1946.39
984.83	2208.53
984.99	1659.47
985.16	1605.40
985.32	2153.64
985.49	2196.45
985.65	1760.23
985.82	1625.88
985.99	2349.63
986.15	2121.70
986.32	1734.22
986.48	1684.45
986.65	1999.02
986.81	2198.70
986.98	1621.38
987.14	1704.52
987.31	2117.60
987.48	1813.27
987.64	1567.52
987.81	1595.78
987.97	2461.66
988.14	1921.61
988.30	1643.70
988.47	1519.80
988.63	2136.24
988.80	1891.30
988.96	1724.59
989.13	1759.41
989.30	2016.43
989.46	2242.32
989.63	1584.10
989.79	1597.83
989.96	2046.74
990.12	2340.83
990.29	1671.14
990.45	1721.73
990.62	2050.84
990.78	2302.94
990.95	1739.34
991.11	1671.76
991.28	1993.29
991.44	2140.33
991.61	1542.33
991.77	1733.20
991.94	2104.49
992.10	2257.07
992.27	1689.78
992.43	1696.95
992.60	2151.39
992.76	2024.83
992.93	1860.58
993.09	1589.22
993.26	2248.06
993.42	2379.94
993.59	1665.20
993.75	1568.74
993.92	1952.33
994.08	1961.34
994.25	1733.20
994.41	1613.80
994.58	2218.77
994.74	2329.15
994.91	1599.46
995.07	1758.59
995.24	2048.17
995.40	2063.12
995.56	1794.02
995.73	1767.40
995.89	2386.29
996.06	2052.47
996.22	1617.49
996.39	1579.80
996.55	2070.70
996.72	2114.94
996.88	1571.41
997.05	1626.09
997.21	2408.21
997.37	2170.44
997.54	1733.20
997.70	1679.13
997.87	2128.25
998.03	2056.57
998.20	1552.77
998.36	1550.72
998.52	2191.12
998.69	2223.68
998.85	1592.91
999.02	1696.74
999.18	2226.55
999.35	2232.08
999.51	1722.55
999.67	1693.26
999.84	1894.37
1000.00	2176.99
1000.17	1740.77
1000.33	1649.84
1000.49	1977.72
1000.66	2070.50
1000.82	1620.35
1000.99	1714.76
1001.15	2282.05
1001.31	2014.59
1001.48	1690.19
1001.64	1750.19
1001.81	2024.83
1001.97	2414.35
1002.13	1662.95
1002.30	1709.85
1002.46	2326.70
1002.63	2005.78
1002.79	1758.18
1002.95	1638.99
1003.12	2214.47
1003.28	2128.45
1003.45	1645.34
1003.61	1616.26
1003.77	2110.84
1003.94	1863.65
1004.10	1648.00
1004.26	1749.37
1004.43	2181.91
1004.59	2328.34
1004.75	1665.82
1004.92	1648.82
1005.08	2004.55
1005.25	2119.85
1005.41	1692.85
1005.57	1758.80
1005.74	2306.01
1005.90	2011.51
1006.06	1828.63
1006.23	1673.80
1006.39	2204.84
1006.55	2556.89
1006.72	1812.45
1006.88	1597.62
1007.04	1955.81
1007.21	2028.10
1007.37	1687.94
1007.53	1628.14
1007.70	2332.02
1007.86	2212.42
1008.02	1745.28
1008.19	1599.05
1008.35	2137.06
1008.51	1960.52
1008.68	1689.37
1008.84	1627.73
1009.00	1925.50
1009.17	2278.37
1009.33	1838.05
1009.49	1764.53
1009.65	1978.54
1009.82	2132.35
1009.98	1738.93
1010.14	1548.88
1010.31	2206.07
1010.47	2176.17
1010.63	1740.98
1010.80	1730.53
1010.96	2148.52
1011.12	2048.79
1011.28	1662.13
1011.45	1632.44
1011.61	2542.76
1011.77	1931.03
1011.94	1626.91
1012.10	1622.20
1012.26	1905.63
1012.42	1958.68
1012.59	1728.69
1012.75	1682.61
1012.91	2044.08
1013.07	2210.58
1013.24	1616.67
1013.40	1629.98
1013.56	2075.62
1013.72	2073.16
1013.89	1720.70
1014.05	1754.90
1014.21	2403.29
1014.37	2496.68
1014.54	1715.58
1014.70	1588.81
1014.86	1999.64
1015.02	1892.94
1015.19	1656.60
1015.35	1591.68
1015.51	2068.86
1015.67	1988.78
1015.84	1653.94
1016.00	1680.97
1016.16	2250.92
1016.32	2188.66
1016.49	1654.35
1016.65	1605.61
1016.81	2037.11
1016.97	2165.11
1017.14	1790.74
1017.30	1676.26
1017.46	1990.22
1017.62	2120.26
1017.78	1729.10
1017.95	1641.86
1018.11	2212.01
1018.27	2482.14
1018.43	1815.52
1018.59	1736.27
1018.76	2208.32
1018.92	2528.63
1019.08	1617.28
1019.24	1667.66
1019.40	2290.86
1019.57	2124.97
1019.73	1763.30
1019.89	1658.04
1020.05	2105.11
1020.21	2417.42
1020.38	1632.03
1020.54	1821.67
1020.70	2164.91
1020.86	2175.15
1021.02	1649.64
1021.18	1650.25
1021.35	2017.25
1021.51	2156.72
1021.67	1830.88
1021.83	1713.74
1021.99	2093.43
1022.15	2132.35
1022.32	1718.66
1022.48	1690.60
1022.64	2308.27
1022.80	2344.11
1022.96	1730.74
1023.12	1593.52
1023.29	2265.67
1023.45	2144.22
1023.61	1660.90
1023.77	1899.08
1023.93	2112.07
1024.09	1971.37
1024.25	1651.89
1024.42	1602.95
1024.58	2021.96
1024.74	2108.79
1024.90	1684.86
1025.06	1755.72
1025.22	1968.30
1025.38	2358.24
1025.54	1617.49
1025.71	1758.80
1025.87	2179.86
1026.03	2171.87
1026.19	1612.16
1026.35	1832.32
1026.51	2164.29
1026.67	2068.45
1026.83	1713.74
1026.99	1822.08
1027.16	2159.99
1027.32	2056.78
1027.48	1662.13
1027.64	1614.82
1027.80	2168.59
1027.96	2101.01
1028.12	1684.45
1028.28	1656.19
1028.44	2125.18
1028.60	2318.92
1028.77	1809.79
1028.93	1728.28
1029.09	1991.44
1029.25	1891.50
1029.41	1733.61
1029.57	1763.92
1029.73	2125.79
1029.89	2317.48
1030.05	1775.38
1030.21	1753.47
1030.37	2468.01
1030.53	2205.25
1030.69	1722.96
1030.85	1606.02
1031.02	1920.38
1031.18	2080.53
1031.34	1666.84
1031.50	1772.31
1031.66	1960.11
1031.82	2330.38
1031.98	1728.49
1032.14	1627.11
1032.30	1918.54
1032.46	2202.59
1032.62	1802.62
1032.78	1608.68
1032.94	1979.98
1033.10	2014.38
1033.26	1738.11
1033.42	1822.28
1033.58	2477.43
1033.74	1999.23
1033.90	1659.26
1034.06	1854.85
1034.22	2447.53
1034.38	2232.90
1034.54	1720.91
1034.70	1741.59
1034.86	2410.46
>>>>>End Processed Spectral Data<<<<<
