SpectraSuite Data File
++++++++++++++++++++++++++++++++++++
Date: Thu Mar 30 14:12:55 PDT 2017
User: UCSD _CER
Dark Spectrum Present: No
Reference Spectrum Present: No
Number of Sampled Component Spectra: 1
Spectrometers: USB4C00073
Integration Time (usec): 380000 (USB4C00073)
Spectra Averaged: 10 (USB4C00073)
Boxcar Smoothing: 0 (USB4C00073)
Correct for Electrical Dark: No (USB4C00073)
Strobe/Lamp Enabled: No (USB4C00073)
Correct for Detector Non-linearity: No (USB4C00073)
Correct for Stray Light: No (USB4C00073)
Number of Pixels in Processed Spectrum: 3648
>>>>>Begin Processed Spectral Data<<<<<
345.37	1218.54
345.58	1218.54
345.80	1218.54
346.01	1217.93
346.22	1239.84
346.43	1991.85
346.65	1857.92
346.86	2346.56
347.07	2306.22
347.28	1776.00
347.50	1785.83
347.71	2075.41
347.92	1783.17
348.13	1795.66
348.35	1755.11
348.56	2040.80
348.77	1886.79
348.98	1822.28
349.20	1636.74
349.41	2085.04
349.62	2202.80
349.83	1892.94
350.05	1772.93
350.26	2138.08
350.47	2303.96
350.68	1789.11
350.90	1702.68
351.11	2292.50
351.32	2276.32
351.53	1838.87
351.75	1744.46
351.96	2109.61
352.17	2045.92
352.38	1883.93
352.60	1879.63
352.81	2073.57
353.02	2360.69
353.23	1774.77
353.44	1809.79
353.66	2003.73
353.87	2017.45
354.08	1872.66
354.29	1812.86
354.51	1948.23
354.72	1995.34
354.93	1768.63
355.14	1747.74
355.35	1799.14
355.57	2219.79
355.78	1815.32
355.99	1875.73
356.20	2038.55
356.42	2034.04
356.63	1882.29
356.84	1784.40
357.05	2196.24
357.26	2438.72
357.48	1927.96
357.69	1859.97
357.90	2153.44
358.11	2005.37
358.32	1824.13
358.54	1862.63
358.75	2024.42
358.96	2176.17
359.17	1807.13
359.38	1838.67
359.60	2162.25
359.81	2039.78
360.02	1825.56
360.23	1749.58
360.44	1963.59
360.66	2251.33
360.87	1760.23
361.08	1781.32
361.29	2129.68
361.50	2078.48
361.72	1789.72
361.93	1887.00
362.14	2095.89
362.35	1826.17
362.56	1951.10
362.77	1683.43
362.99	2179.65
363.20	2065.17
363.41	1857.30
363.62	1669.71
363.83	2167.98
364.05	2207.92
364.26	1739.75
364.47	1762.69
364.68	2260.14
364.89	1917.31
365.10	1730.12
365.32	1821.05
365.53	1912.60
365.74	1963.39
365.95	1797.71
366.16	1697.77
366.37	2049.20
366.59	1998.20
366.80	1825.15
367.01	1690.19
367.22	2422.95
367.43	2537.64
367.64	1840.71
367.86	1811.63
368.07	2126.61
368.28	2253.99
368.49	1713.95
368.70	1854.03
368.91	1984.07
369.12	2031.38
369.34	1745.07
369.55	1705.14
369.76	2069.47
369.97	1970.15
370.18	1717.22
370.39	1774.56
370.60	1836.62
370.82	1888.23
371.03	1805.28
371.24	1775.38
371.45	2179.24
371.66	2156.31
371.87	1838.87
372.08	1799.75
372.30	1903.38
372.51	2220.61
372.72	1938.40
372.93	1773.75
373.14	2331.61
373.35	1927.34
373.56	1719.47
373.78	1814.30
373.99	2177.61
374.20	2541.73
374.41	1778.46
374.62	1793.82
374.83	2301.10
375.04	1996.56
375.25	1809.79
375.47	1838.67
375.68	1997.18
375.89	2155.49
376.10	1830.68
376.31	1894.17
376.52	2139.51
376.73	2114.12
376.94	1853.21
377.15	1768.22
377.37	2077.87
377.58	2030.15
377.79	1710.05
378.00	1745.89
378.21	2108.59
378.42	2159.79
378.63	1849.11
378.84	1892.12
379.05	2216.93
379.27	2081.76
379.48	1923.04
379.69	1759.61
379.90	2268.74
380.11	1753.47
380.32	1820.03
380.53	1967.07
380.74	2323.01
380.95	2080.94
381.16	1845.63
381.37	1868.16
381.59	2292.29
381.80	2213.04
382.01	1776.61
382.22	1712.51
382.43	2137.26
382.64	2083.19
382.85	1750.40
383.06	1867.34
383.27	2148.93
383.48	2021.75
383.69	1821.26
383.91	1756.54
384.12	2162.86
384.33	2186.82
384.54	1885.16
384.75	1783.99
384.96	2591.50
385.17	2229.83
385.38	1825.35
385.59	1813.48
385.80	2197.68
386.01	2301.71
386.22	1935.13
386.43	1797.30
386.64	2456.54
386.86	2066.40
387.07	1932.26
387.28	1729.92
387.49	1992.67
387.70	2284.71
387.91	1938.20
388.12	1821.26
388.33	2141.36
388.54	1979.36
388.75	1761.66
388.96	1888.02
389.17	1988.17
389.38	2008.44
389.59	1883.11
389.80	1890.68
390.01	2038.55
390.22	2006.19
390.43	1933.08
390.64	1715.99
390.86	2157.54
391.07	2254.20
391.28	1833.14
391.49	1884.95
391.70	1864.06
391.91	1961.13
392.12	1810.40
392.33	1915.67
392.54	2085.04
392.75	2029.13
392.96	1907.07
393.17	1792.79
393.38	2455.31
393.59	2239.45
393.80	1709.23
394.01	1816.75
394.22	2044.49
394.43	2357.42
394.64	1723.57
394.85	1906.86
395.06	2070.29
395.27	2100.19
395.48	1794.64
395.69	1711.08
395.90	2031.38
396.11	2048.17
396.32	1782.76
396.53	1901.13
396.74	2051.25
396.95	2218.36
397.16	1776.41
397.37	1708.62
397.58	2177.20
397.79	2078.89
398.00	1891.91
398.21	1815.52
398.42	2093.23
398.63	2436.26
398.84	1796.89
399.05	1781.94
399.26	2288.40
399.47	2123.74
399.68	1662.95
399.89	1749.37
400.10	1883.52
400.31	1985.92
400.52	1879.22
400.73	1793.61
400.94	1823.31
401.15	2114.94
401.36	1807.33
401.57	1855.87
401.78	2268.33
401.99	2214.67
402.20	1766.17
402.41	1944.75
402.62	2340.83
402.83	2017.66
403.04	1761.46
403.25	1993.08
403.46	2105.72
403.67	2277.34
403.88	1819.42
404.09	1815.52
404.30	1949.87
404.51	1950.08
404.72	1742.00
404.93	1960.73
405.14	1920.79
405.35	2064.76
405.56	1841.53
405.77	1760.84
405.98	2106.13
406.19	2040.80
406.40	1751.01
406.61	1817.78
406.82	1971.17
407.03	2473.13
407.24	1762.07
407.45	1855.25
407.66	2102.24
407.87	2215.90
408.08	1896.62
408.29	1898.88
408.49	2177.81
408.70	2060.87
408.91	1791.97
409.12	1935.13
409.33	1902.77
409.54	2296.39
409.75	1776.20
409.96	1829.86
410.17	2185.59
410.38	2016.23
410.59	1784.19
410.80	1922.84
411.01	2048.79
411.22	2003.94
411.43	1892.12
411.64	1781.32
411.85	1910.35
412.06	1907.68
412.27	1639.40
412.47	1777.02
412.68	2034.04
412.89	2113.50
413.10	1785.62
413.31	1730.74
413.52	2354.75
413.73	2353.12
413.94	1791.77
414.15	1949.87
414.36	1973.01
414.57	1899.90
414.78	1727.05
414.99	1768.63
415.19	2148.52
415.40	2122.11
415.61	2017.25
415.82	1893.76
416.03	2180.27
416.24	2130.09
416.45	1826.17
416.66	1719.88
416.87	1866.52
417.08	2146.07
417.29	1749.99
417.50	1835.59
417.70	2131.94
417.91	2138.69
418.12	1866.93
418.33	1788.49
418.54	2146.48
418.75	2237.41
418.96	1952.33
419.17	1897.44
419.38	2324.65
419.59	2192.15
419.79	1966.66
420.00	1905.02
420.21	2556.07
420.42	2081.76
420.63	1815.32
420.84	1891.50
421.05	2062.30
421.26	2096.30
421.47	1741.59
421.67	2167.57
421.88	1922.43
422.09	1880.65
422.30	2036.09
422.51	1839.90
422.72	2382.61
422.93	2198.49
423.14	1863.45
423.35	1707.39
423.55	1800.98
423.76	1924.68
423.97	1823.31
424.18	1698.79
424.39	2013.56
424.60	2195.22
424.81	1840.71
425.02	1913.83
425.22	2032.40
425.43	2026.26
425.64	2015.20
425.85	1883.31
426.06	2414.35
426.27	2232.08
426.48	1945.78
426.68	1936.97
426.89	2214.88
427.10	2403.91
427.31	1881.06
427.52	1797.09
427.73	2174.12
427.94	2128.45
428.14	1970.35
428.35	1860.99
428.56	2310.93
428.77	2217.95
428.98	1862.83
429.19	1867.54
429.40	2013.97
429.60	2057.80
429.81	1974.45
430.02	1911.37
430.23	2029.95
430.44	2167.98
430.65	1787.06
430.85	1828.43
431.06	2167.16
431.27	1835.39
431.48	1806.31
431.69	1871.23
431.90	2087.70
432.10	2054.93
432.31	1883.72
432.52	1809.18
432.73	2478.25
432.94	2311.13
433.15	1982.43
433.35	1813.48
433.56	2272.22
433.77	2071.52
433.98	2052.27
434.19	1970.76
434.40	2243.14
434.60	2254.20
434.81	2077.05
435.02	1986.32
435.23	2140.54
435.44	2054.73
435.64	1762.69
435.85	1793.61
436.06	2010.70
436.27	1971.58
436.48	1781.12
436.68	1802.01
436.89	2414.15
437.10	2249.49
437.31	1919.77
437.52	2006.39
437.73	2144.22
437.93	2133.57
438.14	1942.70
438.35	1726.85
438.56	1977.52
438.77	2027.90
438.97	2007.21
439.18	1842.97
439.39	2259.11
439.60	1899.49
439.80	1788.49
440.01	1836.00
440.22	1984.28
440.43	2186.82
440.64	1761.66
440.84	1872.87
441.05	1881.06
441.26	2513.88
441.47	1908.91
441.68	1857.92
441.88	2130.30
442.09	2122.51
442.30	2142.38
442.51	2136.24
442.71	2172.49
442.92	2195.83
443.13	1908.30
443.34	1860.58
443.55	1958.06
443.75	2155.28
443.96	1816.55
444.17	1786.44
444.38	2225.73
444.58	1918.33
444.79	1948.03
445.00	1891.30
445.21	2045.31
445.41	1966.05
445.62	1681.79
445.83	1948.23
446.04	2079.10
446.24	1836.41
446.45	1676.88
446.66	1854.64
446.87	2100.81
447.07	1970.76
447.28	2051.45
447.49	1842.56
447.70	2223.07
447.90	2235.77
448.11	1884.95
448.32	1972.60
448.53	2267.72
448.73	2315.43
448.94	1818.39
449.15	1984.07
449.36	2049.61
449.56	2120.47
449.77	1822.08
449.98	1722.55
450.19	1995.13
450.39	2006.80
450.60	1927.96
450.81	1924.27
451.02	2055.34
451.22	2296.80
451.43	1799.96
451.64	1828.84
451.84	1972.81
452.05	2277.34
452.26	1852.59
452.47	1884.54
452.67	1990.01
452.88	2307.24
453.09	1746.51
453.30	1776.82
453.50	2168.59
453.71	2357.42
453.92	1923.25
454.12	2088.72
454.33	2049.81
454.54	2119.03
454.75	1861.40
454.95	1806.72
455.16	2160.61
455.37	2134.80
455.57	1951.71
455.78	1859.76
455.99	2036.50
456.19	2082.99
456.40	1782.35
456.61	1861.19
456.82	2053.29
457.02	2204.02
457.23	2008.24
457.44	2135.62
457.64	2086.27
457.85	2260.55
458.06	1954.58
458.26	1992.88
458.47	2085.65
458.68	2247.85
458.89	1831.70
459.09	2018.07
459.30	2401.86
459.51	2101.83
459.71	1736.27
459.92	1837.23
460.13	2216.31
460.33	2494.22
460.54	1903.79
460.75	1939.22
460.95	1931.44
461.16	2132.96
461.37	1884.95
461.57	1873.48
461.78	2109.61
461.99	1888.43
462.19	2079.92
462.40	1795.04
462.61	2376.67
462.81	2225.32
463.02	1813.89
463.23	1845.63
463.43	2183.54
463.64	1977.52
463.85	3048.81
464.05	1828.43
464.26	2584.54
464.47	2287.99
464.67	2029.95
464.88	1979.98
465.09	2009.06
465.29	2171.46
465.50	2076.64
465.71	1965.85
465.91	2057.39
466.12	2097.32
466.33	1957.65
466.53	1847.88
466.74	2361.10
466.94	2007.21
467.15	1916.28
467.36	2070.09
467.56	1905.63
467.77	2100.60
467.98	1895.60
468.18	1843.38
468.39	1998.41
468.60	2362.95
468.80	1866.52
469.01	1785.62
469.21	2170.44
469.42	2269.76
469.63	1875.12
469.83	1819.01
470.04	2186.21
470.25	2312.77
470.45	1974.65
470.66	1837.85
470.86	2116.58
471.07	2019.50
471.28	1943.32
471.48	1951.71
471.69	2111.05
471.90	2739.98
472.10	2030.77
472.31	1992.26
472.51	2151.39
472.72	2109.20
472.93	1923.86
473.13	2061.08
473.34	2191.33
473.54	2130.50
473.75	1967.48
473.96	2098.14
474.16	2037.73
474.37	2146.68
474.57	1954.17
474.78	1817.16
474.99	2112.89
475.19	2074.39
475.40	1877.17
475.60	1872.66
475.81	2432.17
476.02	2165.11
476.22	2107.16
476.43	2171.05
476.63	2110.23
476.84	2323.22
477.05	1779.68
477.25	1840.71
477.46	2608.09
477.66	2102.65
477.87	1803.24
478.08	1832.73
478.28	2220.61
478.49	2017.86
478.69	1829.86
478.90	1848.70
479.10	2151.19
479.31	2340.62
479.52	1925.50
479.72	2001.48
479.93	2185.18
480.13	2044.69
480.34	1930.42
480.54	2027.49
480.75	2003.94
480.96	2299.87
481.16	1833.75
481.37	1963.80
481.57	2189.69
481.78	2192.96
481.98	2070.70
482.19	1986.53
482.40	2350.66
482.60	2166.96
482.81	1987.55
483.01	1810.40
483.22	2197.88
483.42	2208.94
483.63	1953.56
483.83	1915.26
484.04	1994.72
484.24	2245.39
484.45	2050.84
484.66	1825.97
484.86	2130.71
485.07	1983.87
485.27	1945.16
485.48	1841.74
485.68	2293.72
485.89	1965.44
486.09	1989.81
486.30	1880.65
486.50	2108.59
486.71	2025.24
486.91	1954.38
487.12	2103.47
487.33	2649.05
487.53	2698.81
487.74	2329.15
487.94	2303.56
488.15	2308.27
488.35	2252.77
488.56	2001.07
488.76	1908.50
488.97	2094.05
489.17	2206.69
489.38	1982.02
489.58	1913.01
489.79	2189.28
489.99	2158.76
490.20	1921.81
490.40	2031.99
490.61	2128.66
490.81	1983.05
491.02	1942.91
491.22	1962.98
491.43	2183.13
491.63	2041.82
491.84	2044.08
492.04	1795.66
492.25	2163.68
492.45	2062.10
492.66	1864.47
492.86	1815.32
493.07	2031.79
493.27	2406.16
493.48	1776.41
493.68	1890.48
493.89	2005.17
494.09	2156.72
494.30	1879.22
494.50	2122.92
494.71	2166.75
494.91	1834.37
495.12	1901.13
495.32	1955.20
495.53	2036.30
495.73	1875.53
495.94	2039.16
496.14	1909.12
496.35	2500.37
496.55	2123.74
496.76	1913.83
496.96	1948.85
497.17	2067.63
497.37	2138.49
497.58	1909.12
497.78	1835.59
497.98	2024.62
498.19	2017.66
498.39	1866.31
498.60	1951.92
498.80	1771.08
499.01	2190.10
499.21	1790.13
499.42	1944.55
499.62	1994.72
499.83	2431.14
500.03	1802.01
500.24	2007.62
500.44	2295.57
500.64	2241.09
500.85	1905.23
501.05	1999.84
501.26	1826.99
501.46	2285.94
501.67	1866.72
501.87	1794.23
502.08	1926.32
502.28	2005.37
502.48	1941.47
502.69	2001.07
502.89	1822.49
503.10	1942.09
503.30	1907.48
503.51	1935.13
503.71	1864.27
503.92	2142.79
504.12	1934.51
504.32	1860.37
504.53	2159.79
504.73	2142.18
504.94	2023.80
505.14	2136.44
505.35	2170.23
505.55	2129.27
505.75	1936.15
505.96	2058.82
506.16	2432.58
506.37	1985.71
506.57	1847.88
506.78	1967.69
506.98	2259.73
507.18	1823.10
507.39	1790.13
507.59	1883.72
507.80	1941.27
508.00	2071.93
508.20	2094.46
508.41	1923.66
508.61	2294.75
508.82	2205.25
509.02	2034.45
509.22	1830.06
509.43	1907.27
509.63	1978.75
509.84	1917.92
510.04	1752.04
510.24	2305.40
510.45	2186.62
510.65	1787.26
510.86	1943.93
511.06	1886.59
511.26	2157.94
511.47	2065.38
511.67	1847.06
511.88	2150.57
512.08	2224.09
512.28	1828.84
512.49	1972.60
512.69	2088.31
512.90	2113.71
513.10	1889.05
513.30	1945.98
513.51	2145.25
513.71	2319.73
513.91	1977.31
514.12	1966.87
514.32	2206.89
514.53	1944.55
514.73	1974.45
514.93	1889.87
515.14	2046.33
515.34	2262.80
515.54	1863.24
515.75	1969.94
515.95	2127.43
516.15	2234.13
516.36	1942.09
516.56	1988.17
516.77	1716.81
516.97	2149.55
517.17	1906.66
517.38	2018.89
517.58	2309.08
517.78	2022.16
517.99	1972.40
518.19	1903.59
518.39	2235.77
518.60	1946.18
518.80	1782.96
519.00	1953.35
519.21	2021.35
519.41	2338.99
519.61	1860.58
519.82	2008.03
520.02	2071.52
520.22	2050.43
520.43	1890.89
520.63	1898.26
520.83	1939.84
521.04	1808.97
521.24	1981.61
521.44	1906.66
521.65	1947.41
521.85	2154.67
522.05	1862.83
522.26	1858.94
522.46	2354.55
522.66	2190.10
522.87	1908.71
523.07	2073.98
523.27	1974.24
523.48	2283.89
523.68	1933.90
523.88	1973.22
524.09	2247.85
524.29	2087.90
524.49	1770.67
524.70	1992.26
524.90	2254.20
525.10	2117.19
525.31	1796.48
525.51	1797.50
525.71	2164.29
525.91	2147.50
526.12	1900.72
526.32	1803.24
526.52	2007.83
526.73	1954.99
526.93	1968.10
527.13	1783.37
527.34	2052.47
527.54	2043.26
527.74	1927.75
527.94	1806.51
528.15	1848.70
528.35	2076.23
528.55	2034.04
528.76	1965.85
528.96	1824.74
529.16	2211.81
529.36	2023.60
529.57	1802.01
529.77	2259.32
529.97	1885.97
530.18	2005.37
530.38	1898.67
530.58	2137.87
530.78	2019.91
530.99	1893.55
531.19	1991.44
531.39	1956.83
531.60	2034.45
531.80	1961.34
532.00	2074.59
532.20	2094.05
532.41	1945.98
532.61	1870.82
532.81	1850.34
533.01	2008.03
533.22	2147.91
533.42	2036.09
533.62	1794.23
533.82	2296.18
534.03	2010.08
534.23	2047.35
534.43	1860.78
534.63	1972.81
534.84	2076.85
535.04	2000.87
535.24	1957.65
535.44	2501.80
535.65	2006.80
535.85	1900.92
536.05	1834.78
536.25	2078.07
536.46	1933.28
536.66	2091.59
536.86	1989.60
537.06	2172.89
537.27	2256.25
537.47	1957.65
537.67	1892.53
537.87	2285.94
538.08	2017.25
538.28	1848.29
538.48	1803.85
538.68	2028.31
538.88	2143.61
539.09	1761.46
539.29	1895.40
539.49	2200.75
539.69	2119.03
539.90	1989.19
540.10	1839.90
540.30	2278.57
540.50	1985.92
540.70	1786.03
540.91	1883.93
541.11	2208.32
541.31	2302.53
541.51	1968.30
541.72	2013.15
541.92	2079.92
542.12	1918.54
542.32	1927.75
542.52	1878.40
542.73	1948.85
542.93	2140.33
543.13	1903.79
543.33	2018.07
543.53	2209.14
543.74	2171.87
543.94	1881.06
544.14	1985.51
544.34	2223.07
544.54	2009.47
544.75	1995.13
544.95	2097.94
545.15	2168.18
545.35	2367.25
545.55	2018.27
545.75	1924.27
545.96	2432.58
546.16	1954.79
546.36	1958.27
546.56	1950.49
546.76	2250.31
546.97	2341.44
547.17	1962.36
547.37	2034.25
547.57	2000.25
547.77	2181.09
547.97	1995.75
548.18	1993.29
548.38	2036.70
548.58	2270.79
548.78	1853.21
548.98	1913.83
549.18	2154.46
549.39	2317.07
549.59	1961.54
549.79	1935.74
549.99	2272.02
550.19	2187.23
550.39	2070.29
550.60	1926.32
550.80	2096.10
551.00	2134.80
551.20	1893.14
551.40	1952.74
551.60	2130.91
551.80	2100.60
552.01	2005.78
552.21	1922.02
552.41	2114.12
552.61	2381.99
552.81	2002.09
553.01	1858.74
553.21	2144.22
553.42	1932.67
553.62	1918.33
553.82	1827.61
554.02	2327.52
554.22	2202.59
554.42	1820.64
554.62	2030.97
554.83	2317.07
555.03	2256.04
555.23	1927.34
555.43	2152.42
555.63	2098.76
555.83	2063.12
556.03	2005.78
556.23	1782.96
556.44	2081.97
556.64	2230.65
556.84	1665.00
557.04	1911.98
557.24	2063.94
557.44	2055.14
557.64	1956.63
557.84	1832.11
558.04	1989.81
558.25	2178.83
558.45	1840.92
558.65	1952.94
558.85	2071.93
559.05	1783.17
559.25	1908.50
559.45	1987.35
559.65	2377.49
559.85	2842.17
560.05	1949.05
560.26	1993.90
560.46	2030.77
560.66	1946.18
560.86	1894.78
561.06	1852.59
561.26	2280.41
561.46	2126.20
561.66	1889.46
561.86	2055.55
562.06	1926.11
562.26	2028.92
562.47	1952.74
562.67	1829.04
562.87	2172.69
563.07	1839.49
563.27	1964.62
563.47	1949.46
563.67	1978.34
563.87	2143.40
564.07	1875.53
564.27	1901.13
564.47	2077.05
564.67	2104.90
564.87	1883.72
565.08	1983.87
565.28	1977.72
565.48	2145.45
565.68	1982.43
565.88	2029.13
566.08	2388.34
566.28	2064.35
566.48	1815.73
566.68	1956.01
566.88	1982.43
567.08	2217.75
567.28	1929.39
567.48	1947.41
567.68	2135.01
567.88	1845.02
568.08	1964.62
568.28	2039.78
568.48	2033.22
568.68	2255.63
568.89	1984.07
569.09	1807.95
569.29	2204.43
569.49	2186.62
569.69	1849.52
569.89	1860.58
570.09	1792.18
570.29	1962.16
570.49	1806.10
570.69	1904.61
570.89	2189.48
571.09	2374.41
571.29	1826.38
571.49	2115.96
571.69	2140.95
571.89	2127.02
572.09	1947.62
572.29	1987.76
572.49	2195.83
572.69	2152.21
572.89	1966.66
573.09	1672.78
573.29	2056.98
573.49	2081.76
573.69	1908.71
573.89	1978.34
574.09	1964.41
574.29	2231.88
574.49	1919.36
574.69	1853.21
574.89	1918.33
575.09	1885.56
575.29	1846.24
575.49	1952.33
575.69	2107.97
575.89	1856.69
576.09	1932.87
576.29	1969.74
576.49	1880.44
576.69	2026.06
576.89	1886.79
577.09	1949.67
577.29	1808.97
577.49	2359.06
577.69	1899.70
577.89	2074.18
578.09	2036.50
578.29	1837.85
578.49	1957.45
578.69	1889.87
578.89	2198.29
579.09	2090.36
579.29	1825.76
579.49	2068.65
579.69	1964.21
579.89	2356.19
580.09	1733.81
580.29	1780.09
580.49	1966.66
580.69	1885.77
580.89	1901.95
581.09	1923.25
581.29	1991.04
581.49	2050.02
581.69	1849.73
581.89	1857.30
582.09	1931.23
582.28	1912.39
582.48	2004.76
582.68	2040.60
582.88	2309.90
583.08	2017.86
583.28	1923.45
583.48	1945.37
583.68	1933.08
583.88	2058.00
584.08	1958.68
584.28	1961.54
584.48	2372.78
584.68	2108.38
584.88	1918.13
585.08	2120.06
585.28	2211.40
585.48	2257.07
585.68	2009.06
585.87	2056.98
586.07	2149.55
586.27	2046.13
586.47	2017.66
586.67	1953.76
586.87	2068.24
587.07	1987.14
587.27	1840.30
587.47	2008.44
587.67	2341.24
587.87	2500.57
588.07	1997.79
588.27	1916.49
588.46	2181.50
588.66	2203.20
588.86	1914.65
589.06	1989.19
589.26	2202.80
589.46	2176.17
589.66	1863.04
589.86	1845.83
590.06	2024.62
590.26	2106.95
590.46	1904.82
590.66	2001.89
590.85	1942.91
591.05	2105.93
591.25	1843.58
591.45	1919.77
591.65	2127.43
591.85	2042.64
592.05	1857.10
592.25	1995.13
592.45	2188.25
592.64	1983.66
592.84	1944.55
593.04	1862.63
593.24	2479.89
593.44	1975.68
593.64	1960.32
593.84	2006.19
594.04	1975.06
594.24	2305.60
594.43	1912.39
594.63	1958.88
594.83	2243.55
595.03	2184.36
595.23	1881.26
595.43	1842.15
595.63	1953.35
595.83	2187.44
596.02	1739.75
596.22	1934.10
596.42	2139.10
596.62	2054.73
596.82	1906.04
597.02	1988.99
597.22	2252.15
597.41	2085.24
597.61	1894.17
597.81	2030.36
598.01	2172.89
598.21	1975.47
598.41	1847.68
598.61	1826.99
598.80	2052.06
599.00	2068.45
599.20	2070.50
599.40	1934.72
599.60	2027.90
599.80	2197.27
599.99	2072.95
600.19	1894.17
600.39	2072.95
600.59	2115.14
600.79	2022.98
600.99	1960.32
601.19	2330.38
601.38	2392.85
601.58	2008.03
601.78	1730.74
601.98	2102.44
602.18	2114.73
602.37	2162.86
602.57	1952.53
602.77	2174.33
602.97	2100.19
603.17	2117.19
603.37	2040.80
603.56	2218.97
603.76	2186.21
603.96	1954.99
604.16	2021.55
604.36	2315.84
604.56	2204.84
604.75	1862.01
604.95	1962.77
605.15	2267.72
605.35	2193.37
605.55	1900.92
605.74	1863.24
605.94	2225.53
606.14	2082.37
606.34	1957.86
606.54	1967.89
606.73	1987.96
606.93	2171.67
607.13	1897.24
607.33	1998.61
607.53	2338.78
607.72	2200.54
607.92	2048.38
608.12	2099.78
608.32	2023.39
608.51	2192.96
608.71	1844.40
608.91	2011.72
609.11	2188.46
609.31	1999.23
609.50	1911.78
609.70	2156.72
609.90	2175.35
610.10	2208.12
610.29	1896.21
610.49	1816.75
610.69	2174.74
610.89	2081.97
611.09	1936.76
611.28	2138.90
611.48	2223.07
611.68	2010.70
611.88	1889.46
612.07	1871.23
612.27	2186.00
612.47	1911.16
612.67	1971.99
612.86	2060.26
613.06	2053.50
613.26	1820.03
613.46	1896.42
613.65	1989.40
613.85	2519.00
614.05	2150.57
614.25	2050.22
614.44	1940.04
614.64	2059.85
614.84	1983.25
615.04	1876.14
615.23	1898.26
615.43	2154.67
615.63	2142.79
615.83	1866.11
616.02	1804.47
616.22	2141.77
616.42	1846.24
616.62	1803.65
616.81	1916.49
617.01	2074.59
617.21	2044.28
617.41	1824.33
617.60	1937.79
617.80	2149.14
618.00	2165.32
618.19	2016.63
618.39	1955.40
618.59	2131.32
618.79	2053.09
618.98	1814.50
619.18	1935.13
619.38	2420.70
619.57	2051.66
619.77	1932.05
619.97	1915.26
620.17	1965.64
620.36	1840.71
620.56	2086.06
620.76	1823.72
620.95	1845.02
621.15	1951.71
621.35	1835.59
621.54	1926.32
621.74	2043.87
621.94	1908.91
622.14	1835.18
622.33	1799.35
622.53	2002.50
622.73	2003.53
622.92	1804.06
623.12	1918.54
623.32	2369.91
623.51	2195.63
623.71	1828.02
623.91	2102.65
624.10	1890.68
624.30	2086.68
624.50	1787.88
624.69	1788.49
624.89	2657.24
625.09	1976.49
625.29	1733.40
625.48	1808.56
625.68	2064.15
625.88	2247.24
626.07	2010.29
626.27	1845.63
626.47	1938.81
626.66	1805.28
626.86	1937.79
627.06	1925.91
627.25	2048.99
627.45	2327.93
627.64	1936.97
627.84	2105.93
628.04	1932.05
628.23	2396.94
628.43	1825.15
628.63	1853.00
628.82	1979.16
629.02	2339.60
629.22	2006.80
629.41	2102.44
629.61	2059.44
629.81	2346.36
630.00	1885.16
630.20	1802.62
630.40	2056.78
630.59	2140.74
630.79	1897.85
630.98	1910.35
631.18	2013.15
631.38	2029.95
631.57	2054.93
631.77	1797.30
631.97	2067.63
632.16	2094.66
632.36	1945.78
632.56	1974.86
632.75	2111.46
632.95	2225.73
633.14	1837.44
633.34	2085.86
633.54	1788.49
633.73	1994.31
633.93	1899.70
634.12	1756.75
634.32	2552.59
634.52	2028.10
634.71	1798.12
634.91	1983.66
635.11	1878.19
635.30	1950.08
635.50	1952.74
635.69	1853.62
635.89	2346.36
636.09	2189.69
636.28	1852.80
636.48	1838.46
636.67	2166.75
636.87	2148.11
637.07	1992.06
637.26	1897.65
637.46	2054.73
637.65	2193.37
637.85	1977.52
638.04	1846.45
638.24	1971.37
638.44	2091.59
638.63	1941.47
638.83	1913.42
639.02	2104.08
639.22	2153.44
639.42	1914.65
639.61	1911.78
639.81	2061.89
640.00	2021.35
640.20	2030.36
640.39	1949.87
640.59	2341.44
640.79	2208.12
640.98	1990.01
641.18	1894.58
641.37	1994.93
641.57	1954.38
641.76	1922.63
641.96	1732.99
642.15	2063.33
642.35	1967.07
642.55	1967.28
642.74	1770.67
642.94	2188.46
643.13	2281.03
643.33	1920.18
643.52	1871.64
643.72	1987.35
643.91	2063.33
644.11	1840.51
644.31	1879.42
644.50	1971.17
644.70	2250.31
644.89	1967.89
645.09	2026.67
645.28	2070.09
645.48	2125.18
645.67	1830.27
645.87	1771.90
646.06	1993.29
646.26	2095.28
646.45	1711.69
646.65	1703.09
646.84	2332.64
647.04	1978.75
647.24	1795.66
647.43	1877.58
647.63	2059.03
647.82	2310.31
648.02	1823.92
648.21	1896.62
648.41	2276.52
648.60	1991.65
648.80	2076.85
648.99	1946.59
649.19	1985.71
649.38	1816.14
649.58	1960.32
649.77	1974.86
649.97	2224.09
650.16	2151.39
650.36	1727.87
650.55	2078.69
650.75	2113.71
650.94	2309.90
651.14	1972.19
651.33	2005.58
651.53	2327.93
651.72	1961.95
651.92	1938.61
652.11	1755.93
652.31	2140.95
652.50	2090.57
652.70	1962.98
652.89	1784.19
653.09	2304.17
653.28	2003.32
653.48	1730.33
653.67	1774.16
653.87	2568.77
654.06	2045.31
654.25	2113.91
654.45	1859.97
654.64	2009.06
654.84	2034.04
655.03	1746.92
655.23	2076.64
655.42	2174.33
655.62	2369.30
655.81	2037.52
656.01	1888.23
656.20	2221.43
656.40	2353.53
656.59	1994.52
656.79	2083.40
656.98	2124.36
657.17	2180.88
657.37	1940.25
657.56	1907.07
657.76	2124.97
657.95	2231.88
658.15	1608.88
658.34	1964.82
658.54	2055.55
658.73	1860.58
658.92	1923.25
659.12	1944.34
659.31	2141.56
659.51	1857.30
659.70	2003.53
659.90	1847.06
660.09	2202.59
660.29	2032.81
660.48	1832.93
660.67	2071.73
660.87	1961.34
661.06	2099.37
661.26	1995.75
661.45	2012.54
661.65	2108.38
661.84	1972.60
662.03	1865.09
662.23	1909.73
662.42	2379.74
662.62	1872.46
662.81	1819.01
663.00	1909.12
663.20	2083.19
663.39	2129.68
663.59	2015.82
663.78	1897.44
663.97	2015.61
664.17	2209.96
664.36	1818.19
664.56	1861.81
664.75	2187.03
664.94	2153.23
665.14	1988.17
665.33	1923.45
665.53	2043.05
665.72	1996.97
665.91	2029.54
666.11	1937.58
666.30	2055.34
666.50	2083.40
666.69	1959.09
666.88	1876.35
667.08	2094.46
667.27	2000.66
667.47	1924.89
667.66	1897.85
667.85	2214.67
668.05	2074.59
668.24	1842.56
668.43	2148.32
668.63	1991.65
668.82	2275.70
669.02	2017.04
669.21	1926.93
669.40	1859.56
669.60	2349.02
669.79	1763.30
669.98	2521.25
670.18	1927.55
670.37	1884.34
670.56	1929.39
670.76	1972.40
670.95	2011.72
671.15	2197.27
671.34	1938.20
671.53	1925.50
671.73	1969.74
671.92	1922.63
672.11	1812.25
672.31	1881.47
672.50	2093.84
672.69	1868.16
672.89	1688.14
673.08	1914.65
673.27	2148.52
673.47	2064.35
673.66	1951.92
673.85	1800.98
674.05	2062.92
674.24	2052.88
674.43	1788.70
674.63	1987.96
674.82	2422.34
675.01	1739.75
675.21	2006.60
675.40	1900.52
675.59	1986.73
675.79	2295.57
675.98	1891.91
676.17	2068.24
676.37	2080.74
676.56	1975.27
676.75	1915.87
676.95	1939.22
677.14	1968.51
677.33	2210.58
677.52	1794.23
677.72	1877.17
677.91	2074.18
678.10	1829.25
678.30	1803.24
678.49	1823.31
678.68	2402.27
678.88	1761.46
679.07	2040.60
679.26	1907.89
679.45	2368.48
679.65	2248.67
679.84	1739.95
680.03	1743.64
680.23	1982.23
680.42	2456.95
680.61	1788.70
680.81	1870.61
681.00	2043.46
681.19	2112.48
681.38	2015.82
681.58	1971.17
681.77	1970.97
681.96	2168.59
682.15	1845.02
682.35	1980.18
682.54	2118.62
682.73	1857.30
682.93	1791.97
683.12	1817.98
683.31	2149.96
683.50	2467.19
683.70	1804.06
683.89	1928.78
684.08	1876.35
684.27	2190.92
684.47	1754.49
684.66	1874.71
684.85	2374.01
685.04	2240.48
685.24	1879.22
685.43	1898.47
685.62	1773.95
685.81	2070.70
686.01	1968.71
686.20	1818.39
686.39	1833.14
686.58	2388.34
686.78	1972.60
686.97	1926.32
687.16	2195.83
687.35	2071.93
687.55	1878.81
687.74	1923.86
687.93	1854.64
688.12	1989.19
688.32	1936.35
688.51	1750.81
688.70	2083.19
688.89	1835.39
689.08	1745.69
689.28	1868.36
689.47	2033.02
689.66	2037.52
689.85	2001.07
690.05	1827.40
690.24	1920.38
690.43	2056.57
690.62	1945.78
690.81	1850.75
691.01	2070.70
691.20	1959.09
691.39	1793.20
691.58	1954.58
691.77	2350.45
691.97	2041.42
692.16	1987.14
692.35	1890.07
692.54	1946.59
692.73	2117.60
692.93	1935.74
693.12	1956.63
693.31	2086.68
693.50	2056.16
693.69	1994.72
693.89	1864.27
694.08	2239.45
694.27	2249.49
694.46	1861.19
694.65	1893.55
694.85	2115.96
695.04	2098.35
695.23	1896.21
695.42	2186.62
695.61	2420.49
695.80	2587.20
696.00	2639.01
696.19	2686.32
696.38	2441.59
696.57	2480.09
696.76	2343.70
696.95	2205.87
697.15	2503.85
697.34	2454.90
697.53	2095.89
697.72	2144.84
697.91	2093.02
698.10	2369.50
698.30	1917.31
698.49	1928.78
698.68	2107.36
698.87	1975.68
699.06	1811.43
699.25	1923.04
699.45	2200.34
699.64	2062.71
699.83	2066.61
700.02	1859.56
700.21	2124.15
700.40	1937.58
700.59	1855.87
700.79	1941.06
700.98	2109.61
701.17	1909.32
701.36	1838.05
701.55	1823.51
701.74	2214.88
701.93	1846.86
702.12	1898.47
702.32	1836.00
702.51	2170.03
702.70	2136.44
702.89	1952.74
703.08	1876.35
703.27	2223.07
703.46	2100.19
703.65	1828.84
703.85	1786.44
704.04	1910.96
704.23	2180.06
704.42	1808.77
704.61	1867.95
704.80	2275.09
704.99	1922.63
705.18	1972.19
705.37	1904.20
705.57	2211.60
705.76	2474.97
705.95	2191.53
706.14	2596.21
706.33	2802.65
706.52	2943.75
706.71	2360.69
706.90	2211.60
707.09	2401.86
707.28	2300.48
707.47	2021.75
707.67	2175.15
707.86	2059.23
708.05	2304.17
708.24	1968.10
708.43	2005.37
708.62	2039.16
708.81	1908.91
709.00	1823.10
709.19	1854.64
709.38	2170.03
709.57	1853.41
709.76	1942.91
709.96	1838.05
710.15	2253.18
710.34	2005.99
710.53	2007.83
710.72	1913.01
710.91	2211.81
711.10	2122.11
711.29	1991.85
711.48	1860.78
711.67	1858.53
711.86	2094.46
712.05	1778.87
712.24	1789.31
712.43	2078.28
712.62	2252.56
712.81	1918.33
713.00	2081.15
713.19	1848.50
713.39	2115.35
713.58	1807.54
713.77	1957.65
713.96	2147.09
714.15	1979.98
714.34	1917.51
714.53	1760.64
714.72	2364.79
714.91	1880.65
715.10	1960.93
715.29	1817.16
715.48	2487.87
715.67	2122.92
715.86	1920.79
716.05	1897.03
716.24	1969.12
716.43	1960.32
716.62	1802.01
716.81	1777.64
717.00	1975.27
717.19	2272.02
717.38	1873.28
717.57	1876.76
717.76	1819.62
717.95	2192.15
718.14	1919.97
718.33	1931.85
718.52	1801.60
718.71	1808.77
718.90	1798.32
719.09	1854.23
719.28	2018.27
719.47	2142.58
719.66	1965.44
719.85	1976.70
720.04	1968.10
720.23	2000.25
720.42	1822.49
720.61	1974.86
720.80	1829.66
720.99	2077.05
721.18	1863.04
721.37	1789.52
721.56	1969.12
721.75	2129.48
721.94	1790.13
722.13	1863.45
722.32	1967.89
722.51	2157.13
722.70	1952.53
722.89	1966.66
723.08	2030.56
723.27	2203.00
723.46	1965.23
723.65	1927.34
723.84	1934.31
724.03	2242.53
724.22	1761.05
724.41	1910.75
724.60	1919.77
724.79	2168.18
724.98	1971.58
725.16	1872.46
725.35	2148.32
725.54	1854.85
725.73	1897.44
725.92	1927.14
726.11	2010.08
726.30	2189.69
726.49	1883.52
726.68	1943.93
726.87	2161.43
727.06	2327.52
727.25	1953.35
727.44	2050.22
727.63	2063.12
727.82	2010.90
728.01	1980.59
728.20	1996.16
728.38	2273.65
728.57	1999.43
728.76	1875.53
728.95	2049.61
729.14	1843.79
729.33	1856.48
729.52	1664.79
729.71	1800.37
729.90	1854.64
730.09	1937.17
730.28	1840.71
730.47	1833.34
730.66	2183.13
730.84	2040.39
731.03	1907.07
731.22	1920.79
731.41	2041.62
731.60	2079.10
731.79	1712.10
731.98	1796.27
732.17	2101.83
732.36	2071.32
732.55	1836.82
732.73	1727.26
732.92	2218.77
733.11	2105.93
733.30	1825.56
733.49	1753.06
733.68	2120.26
733.87	2048.58
734.06	1770.67
734.25	1793.61
734.43	1918.13
734.62	2067.63
734.81	1876.55
735.00	1838.87
735.19	1954.99
735.38	2100.19
735.57	1780.30
735.76	1971.99
735.94	2064.15
736.13	2386.91
736.32	1977.93
736.51	1901.13
736.70	2358.44
736.89	2343.29
737.08	2152.42
737.27	2407.80
737.45	2891.32
737.64	2819.64
737.83	2927.78
738.02	2986.35
738.21	3098.17
738.40	2951.53
738.59	2481.52
738.77	2479.89
738.96	2371.75
739.15	2423.77
739.34	2366.63
739.53	2251.54
739.72	2460.84
739.90	2424.79
740.09	1982.84
740.28	2020.32
740.47	2199.72
740.66	2155.28
740.85	1826.79
741.03	1898.26
741.22	1869.18
741.41	1986.32
741.60	1738.32
741.79	1953.56
741.98	2212.83
742.16	2311.34
742.35	1908.09
742.54	1917.31
742.73	2361.10
742.92	1953.56
743.10	1765.35
743.29	1853.00
743.48	2403.09
743.67	1943.52
743.86	1722.96
744.05	1802.62
744.23	1846.45
744.42	1900.31
744.61	1919.36
744.80	1771.70
744.99	1909.12
745.17	1757.16
745.36	1719.27
745.55	1984.48
745.74	2023.39
745.93	1914.44
746.11	1830.88
746.30	1796.89
746.49	2195.63
746.68	1869.18
746.86	1897.65
747.05	1858.53
747.24	2137.46
747.43	2147.91
747.62	1774.16
747.80	1841.12
747.99	2191.12
748.18	2163.47
748.37	1927.34
748.56	1974.45
748.74	2225.53
748.93	2093.84
749.12	2233.72
749.31	2933.31
749.49	3541.35
749.68	3911.01
749.87	4254.45
750.06	4159.42
750.24	4181.95
750.43	4092.46
750.62	4085.29
750.81	4223.12
750.99	4466.42
751.18	4389.41
751.37	3772.56
751.56	3598.08
751.74	3870.46
751.93	3862.47
752.12	2856.30
752.31	2719.91
752.49	2661.34
752.68	2846.68
752.87	2330.38
753.06	2245.39
753.24	2242.12
753.43	2381.38
753.62	1950.49
753.81	1922.02
753.99	2310.11
754.18	2149.75
754.37	1849.32
754.55	1911.57
754.74	2334.27
754.93	1769.65
755.12	1853.00
755.30	1796.27
755.49	2201.77
755.68	2048.38
755.86	1968.71
756.05	1747.53
756.24	2277.75
756.43	1824.33
756.61	1836.21
756.80	1944.55
756.99	2230.24
757.17	1979.77
757.36	1811.02
757.55	1880.44
757.74	2101.63
757.92	2036.50
758.11	1800.57
758.30	1743.64
758.48	1978.95
758.67	1853.41
758.86	1921.61
759.04	1784.40
759.23	1958.27
759.42	2016.02
759.60	1833.34
759.79	1901.33
759.98	1975.68
760.16	1901.13
760.35	1835.80
760.54	1770.67
760.73	2036.70
760.91	1809.79
761.10	1876.96
761.29	1958.47
761.47	2007.01
761.66	2399.40
761.85	1925.91
762.03	2082.78
762.22	2504.26
762.41	3617.33
762.59	4618.17
762.78	5209.83
762.97	6338.46
763.15	6496.16
763.34	5889.34
763.52	4681.04
763.71	4626.98
763.90	4464.37
764.08	4020.57
764.27	3870.66
764.46	3905.48
764.64	3440.38
764.83	3189.92
765.02	2988.60
765.20	2941.91
765.39	2743.66
765.58	2216.31
765.76	2196.86
765.95	2271.40
766.13	2139.10
766.32	1921.20
766.51	1888.23
766.69	2765.99
766.88	2118.21
767.07	1776.20
767.25	1699.61
767.44	2193.58
767.62	2204.43
767.81	1816.34
768.00	1869.18
768.18	2017.04
768.37	1896.62
768.56	1702.07
768.74	1830.06
768.93	1806.92
769.11	2069.06
769.30	1931.64
769.49	1849.32
769.67	1982.23
769.86	1945.16
770.04	1876.14
770.23	1827.61
770.42	2220.82
770.60	2045.31
770.79	1809.99
770.97	1856.69
771.16	2309.08
771.35	2397.35
771.53	2494.63
771.72	2642.70
771.90	2989.42
772.09	3262.41
772.27	2960.95
772.46	2538.05
772.65	2806.54
772.83	2658.26
773.02	2519.62
773.20	2258.70
773.39	2509.58
773.58	2506.51
773.76	2098.35
773.95	2078.48
774.13	2276.52
774.32	2113.91
774.50	1919.56
774.69	1992.47
774.87	2014.18
775.06	2408.62
775.25	1862.22
775.43	1887.00
775.62	2100.40
775.80	2137.26
775.99	1943.52
776.17	1849.11
776.36	2047.15
776.54	2224.30
776.73	1893.14
776.92	1990.63
777.10	2216.31
777.29	2108.79
777.47	1881.88
777.66	1874.92
777.84	2054.73
778.03	2013.77
778.21	1838.67
778.40	1968.92
778.58	2138.49
778.77	2212.83
778.95	1808.36
779.14	1856.69
779.32	2309.29
779.51	2163.47
779.70	1829.86
779.88	1766.58
780.07	1943.32
780.25	2442.20
780.44	1870.61
780.62	1987.35
780.81	2116.37
780.99	2073.98
781.18	1822.69
781.36	1808.97
781.55	1991.04
781.73	2281.44
781.92	1748.35
782.10	1787.26
782.29	2077.05
782.47	2276.73
782.66	1864.06
782.84	1733.40
783.03	1904.00
783.21	2202.59
783.40	1829.25
783.58	1819.21
783.77	1915.26
783.95	1982.23
784.14	1816.34
784.32	1892.53
784.51	2197.06
784.69	1914.85
784.88	1729.10
785.06	1874.10
785.24	1781.73
785.43	2137.87
785.61	1930.82
785.80	1780.71
785.98	2103.26
786.17	1973.83
786.35	1759.21
786.54	1947.21
786.72	2157.74
786.91	2185.59
787.09	1864.88
787.28	1776.82
787.46	2022.37
787.65	2164.50
787.83	1738.93
788.01	1869.59
788.20	1817.98
788.38	1957.65
788.57	1817.37
788.75	1823.51
788.94	2307.24
789.12	2126.41
789.31	1917.92
789.49	2005.17
789.67	1909.32
789.86	2061.49
790.04	1793.20
790.23	1729.51
790.41	2376.46
790.60	1937.79
790.78	1840.30
790.96	1868.36
791.15	2126.41
791.33	1976.90
791.52	1855.66
791.70	1770.47
791.89	1985.71
792.07	2145.45
792.25	1872.66
792.44	1734.22
792.62	2182.93
792.81	1923.45
792.99	1866.31
793.17	1852.80
793.36	1881.47
793.54	2364.38
793.73	2248.26
793.91	2327.31
794.10	2806.54
794.28	3014.00
794.46	2745.92
794.65	2735.06
794.83	2480.29
795.01	2539.89
795.20	2526.17
795.38	2388.75
795.57	2490.13
795.75	2447.53
795.93	2169.82
796.12	2175.56
796.30	2341.03
796.49	2277.14
796.67	1930.42
796.85	2069.27
797.04	2091.80
797.22	2180.68
797.40	1835.39
797.59	1942.09
797.77	2062.10
797.96	1871.23
798.14	1804.26
798.32	1860.58
798.51	2152.01
798.69	2344.31
798.87	1906.45
799.06	1851.98
799.24	1799.14
799.42	2221.84
799.61	2144.02
799.79	2189.89
799.98	2729.33
800.16	2455.51
800.34	2668.50
800.53	3027.10
800.71	3169.23
800.89	3721.98
801.08	3456.97
801.26	3462.71
801.44	3166.98
801.63	2860.19
801.81	2780.12
801.99	2601.13
802.18	2655.81
802.36	2668.91
802.54	2496.06
802.73	2231.06
802.91	2383.22
803.09	2371.14
803.28	2251.13
803.46	2153.44
803.64	2457.56
803.83	1964.21
804.01	1872.46
804.19	1811.02
804.38	2164.29
804.56	2111.87
804.74	1900.72
804.92	1883.52
805.11	1821.46
805.29	2178.83
805.47	1826.99
805.66	1763.92
805.84	1834.37
806.02	2167.57
806.21	1825.97
806.39	2033.43
806.57	2160.61
806.76	2138.69
806.94	1917.72
807.12	1830.06
807.30	1876.96
807.49	2018.48
807.67	1931.23
807.85	1962.98
808.04	2154.67
808.22	2409.03
808.40	1779.48
808.58	1745.48
808.77	2081.76
808.95	2275.70
809.13	1981.82
809.31	2561.19
809.50	3033.86
809.68	3297.02
809.86	3180.29
810.05	3389.80
810.23	4058.46
810.41	4962.43
810.59	7558.03
810.78	9123.91
810.96	10545.20
811.14	11402.27
811.32	10835.19
811.51	8918.70
811.69	7578.92
811.87	7596.33
812.05	6603.88
812.24	6251.02
812.42	6114.21
812.60	5737.59
812.78	4789.99
812.97	4319.17
813.15	4348.25
813.33	3832.57
813.51	3450.62
813.70	2877.81
813.88	2677.51
814.06	2572.45
814.24	2263.82
814.42	1993.08
814.61	2192.56
814.79	2413.12
814.97	1810.61
815.15	1856.69
815.34	2077.66
815.52	2199.72
815.70	1789.52
815.88	1892.53
816.06	1890.07
816.25	1930.01
816.43	1872.25
816.61	1972.19
816.79	2264.03
816.98	1747.74
817.16	1783.37
817.34	1780.91
817.52	2016.63
817.70	2246.42
817.89	1879.63
818.07	1797.09
818.25	1993.49
818.43	2026.87
818.61	1889.25
818.80	1818.60
818.98	2287.38
819.16	2048.38
819.34	1777.02
819.52	2129.89
819.70	1878.40
819.89	2002.30
820.07	1715.99
820.25	1725.62
820.43	2062.92
820.61	2160.81
820.80	1905.02
820.98	1752.24
821.16	1750.40
821.34	1836.41
821.52	1848.29
821.70	1974.24
821.89	2028.10
822.07	1973.01
822.25	1891.50
822.43	1796.68
822.61	2253.79
822.79	2068.24
822.98	1876.76
823.16	1704.11
823.34	2031.99
823.52	2220.61
823.70	1950.90
823.88	1739.95
824.06	2090.98
824.25	1985.10
824.43	1955.61
824.61	1755.52
824.79	2014.79
824.97	2054.11
825.15	1968.51
825.33	2174.74
825.52	2455.72
825.70	2359.46
825.88	2314.41
826.06	2427.46
826.24	2547.88
826.42	2534.98
826.60	2201.16
826.78	2327.11
826.97	2218.97
827.15	2462.68
827.33	2044.08
827.51	2090.98
827.69	2059.23
827.87	2171.87
828.05	2077.25
828.23	1901.13
828.41	2244.37
828.60	2181.70
828.78	1789.92
828.96	1997.59
829.14	1945.98
829.32	1971.17
829.50	1856.07
829.68	1855.87
829.86	1947.00
830.04	2125.38
830.22	1953.76
830.41	1794.02
830.59	1978.75
830.77	2134.80
830.95	1803.24
831.13	1814.50
831.31	1878.81
831.49	2148.73
831.67	2012.95
831.85	1966.05
832.03	1957.24
832.21	2110.43
832.39	1759.00
832.57	1779.28
832.76	2159.79
832.94	1979.57
833.12	1700.43
833.30	1836.21
833.48	2208.53
833.66	2046.74
833.84	1824.13
834.02	1888.02
834.20	2164.29
834.38	2137.26
834.56	1717.22
834.74	1795.66
834.92	1817.78
835.10	2301.10
835.28	1900.52
835.46	1907.48
835.64	1966.46
835.82	1904.61
836.01	2097.32
836.19	2056.98
836.37	1942.70
836.55	1872.05
836.73	1805.49
836.91	1804.67
837.09	2107.97
837.27	2249.49
837.45	1730.94
837.63	1767.19
837.81	1811.43
837.99	2002.09
838.17	1919.15
838.35	1786.44
838.53	2370.73
838.71	2118.62
838.89	1800.98
839.07	1809.79
839.25	2015.82
839.43	2155.69
839.61	1908.50
839.79	2355.57
839.97	2744.28
840.15	2916.31
840.33	2834.18
840.51	3130.12
840.69	2965.87
840.87	2755.75
841.05	2626.32
841.23	2608.91
841.41	3057.00
841.59	3803.69
841.77	3826.42
841.95	4069.11
842.13	4566.97
842.31	4247.90
842.49	3601.76
842.67	3400.45
842.85	3485.23
843.03	3087.72
843.21	2894.19
843.39	2985.32
843.57	2908.12
843.75	2819.64
843.93	2453.26
844.11	2388.14
844.29	2460.43
844.47	2342.67
844.65	2297.21
844.83	2106.54
845.01	2144.02
845.19	2267.92
845.36	2000.46
845.54	2017.86
845.72	2071.93
845.90	2135.62
846.08	1799.35
846.26	1933.08
846.44	2100.60
846.62	2111.25
846.80	1970.97
846.98	1822.28
847.16	1983.05
847.34	2028.10
847.52	1824.33
847.70	1734.63
847.88	1999.64
848.06	2259.73
848.24	1992.47
848.41	1755.31
848.59	2190.92
848.77	2049.61
848.95	1845.83
849.13	1839.90
849.31	2198.49
849.49	2049.61
849.67	1811.22
849.85	1772.93
850.03	2063.12
850.21	2068.86
850.39	1781.94
850.57	1957.65
850.74	2260.96
850.92	2257.07
851.10	2100.81
851.28	2075.82
851.46	2398.17
851.64	2768.24
851.82	2277.55
852.00	2366.02
852.18	2609.32
852.36	2386.09
852.53	2120.47
852.71	2195.63
852.89	2294.34
853.07	2287.38
853.25	1986.53
853.43	1892.53
853.61	2145.04
853.79	2157.33
853.97	1880.44
854.14	1888.43
854.32	2272.43
854.50	2179.86
854.68	1896.62
854.86	1840.51
855.04	1909.94
855.22	2149.34
855.40	1739.75
855.57	1816.14
855.75	2138.69
855.93	2093.23
856.11	1709.03
856.29	1807.33
856.47	1914.44
856.65	2039.57
856.82	1805.28
857.00	1740.57
857.18	1952.12
857.36	1928.37
857.54	1934.92
857.72	1988.17
857.89	2121.70
858.07	2033.02
858.25	2074.59
858.43	1754.49
858.61	1965.85
858.79	2013.15
858.97	1799.14
859.14	1930.82
859.32	1969.74
859.50	1936.97
859.68	1909.32
859.86	1799.96
860.03	1991.24
860.21	2112.89
860.39	1805.90
860.57	1983.87
860.75	2053.09
860.93	2299.66
861.10	2031.99
861.28	1786.65
861.46	2039.16
861.64	2069.68
861.82	1819.01
861.99	1925.71
862.17	2179.24
862.35	2157.33
862.53	1887.20
862.71	1884.95
862.88	2034.04
863.06	2131.53
863.24	1849.73
863.42	1801.80
863.60	1976.49
863.77	2095.07
863.95	1717.63
864.13	1859.15
864.31	1979.98
864.49	2124.15
864.66	1772.11
864.84	1822.28
865.02	2050.22
865.20	2472.10
865.37	1935.74
865.55	1804.47
865.73	1851.77
865.91	2144.84
866.09	2016.63
866.26	1938.81
866.44	2172.28
866.62	2033.22
866.80	1815.11
866.97	1885.16
867.15	2002.09
867.33	2072.75
867.51	1940.86
867.68	1904.20
867.86	1939.84
868.04	1939.43
868.22	1694.69
868.39	1841.53
868.57	2100.81
868.75	2247.85
868.93	1735.45
869.10	1817.78
869.28	2299.87
869.46	2266.49
869.64	1865.09
869.81	1839.69
869.99	2031.18
870.17	2009.67
870.35	1794.23
870.52	1812.04
870.70	2190.71
870.88	1929.60
871.05	1788.29
871.23	1684.25
871.41	2010.08
871.59	2044.28
871.76	1828.63
871.94	1780.50
872.12	2033.02
872.29	1808.56
872.47	1829.25
872.65	1766.37
872.83	2070.70
873.00	2205.05
873.18	1846.45
873.36	1807.13
873.53	2115.14
873.71	1802.01
873.89	1748.56
874.06	1875.94
874.24	2074.18
874.42	2233.92
874.60	1946.39
874.77	1910.14
874.95	1928.98
875.13	2170.23
875.30	1808.77
875.48	1783.58
875.66	2257.89
875.83	1877.37
876.01	1806.92
876.19	1929.19
876.36	1794.43
876.54	2046.13
876.72	1747.33
876.89	1928.78
877.07	2138.08
877.25	1723.57
877.42	1881.67
877.60	1843.38
877.78	2285.12
877.95	1941.47
878.13	1782.96
878.31	1944.34
878.48	2144.84
878.66	2128.04
878.84	1840.10
879.01	1861.40
879.19	2075.82
879.37	2103.88
879.54	1845.83
879.72	1715.99
879.90	1752.45
880.07	2167.16
880.25	1626.70
880.42	1965.85
880.60	2027.90
880.78	2121.08
880.95	1808.56
881.13	1913.21
881.31	2011.92
881.48	1929.60
881.66	1796.48
881.83	1948.03
882.01	1909.53
882.19	1828.84
882.36	1889.05
882.54	1828.22
882.72	2154.67
882.89	2015.61
883.07	1800.16
883.24	1827.40
883.42	2128.04
883.60	2028.10
883.77	1740.98
883.95	1854.44
884.12	2142.99
884.30	2035.07
884.48	1966.25
884.65	1856.89
884.83	2027.49
885.00	2037.11
885.18	1737.70
885.36	1836.41
885.53	2098.76
885.71	2192.15
885.88	1742.00
886.06	1829.25
886.23	2105.31
886.41	1944.14
886.59	1818.80
886.76	1777.23
886.94	2113.09
887.11	2481.32
887.29	1846.04
887.47	1776.61
887.64	2219.38
887.82	2227.17
887.99	1686.30
888.17	1866.72
888.34	1986.53
888.52	1824.33
888.69	1845.63
888.87	1741.39
889.05	1957.04
889.22	1943.11
889.40	1826.79
889.57	2019.50
889.75	2226.14
889.92	1951.92
890.10	1739.95
890.27	1868.98
890.45	1896.42
890.62	1752.65
890.80	1763.71
890.98	1671.14
891.15	2268.33
891.33	2165.93
891.50	1799.96
891.68	1715.79
891.85	2119.03
892.03	2121.08
892.20	1779.07
892.38	1738.32
892.55	2111.25
892.73	2120.26
892.90	1714.97
893.08	1796.48
893.25	1981.41
893.43	1922.22
893.60	1901.33
893.78	1664.18
893.95	2072.95
894.13	1996.56
894.30	1777.02
894.48	1839.49
894.65	2145.04
894.83	2026.87
895.00	1659.26
895.18	1661.31
895.35	2155.69
895.53	2131.12
895.70	1745.28
895.88	1929.60
896.05	2101.22
896.23	1775.59
896.40	1797.91
896.58	1858.12
896.75	2098.76
896.93	2253.58
897.10	1812.66
897.28	1699.81
897.45	2017.45
897.63	2087.49
897.80	1908.30
897.98	1778.87
898.15	2041.62
898.33	1951.92
898.50	1877.99
898.67	1842.76
898.85	1950.90
899.02	2070.91
899.20	2056.57
899.37	1840.10
899.55	2039.78
899.72	2241.50
899.90	1810.20
900.07	1774.56
900.25	2092.00
900.42	2210.78
900.59	1788.90
900.77	1935.94
900.94	2098.96
901.12	2051.45
901.29	1803.24
901.47	1952.74
901.64	2096.30
901.82	1988.37
901.99	1625.47
902.16	1755.93
902.34	2208.32
902.51	2044.90
902.69	1803.65
902.86	1838.46
903.03	2624.27
903.21	1975.06
903.38	1809.59
903.56	1792.79
903.73	2185.39
903.91	1951.10
904.08	1762.28
904.25	1651.28
904.43	1885.56
904.60	2134.19
904.78	1792.59
904.95	1737.09
905.12	1932.87
905.30	2287.79
905.47	1901.95
905.65	1995.13
905.82	1976.90
905.99	2110.64
906.17	1820.85
906.34	1795.66
906.52	1830.27
906.69	2082.99
906.86	1871.84
907.04	1879.22
907.21	2134.60
907.38	2152.82
907.56	1762.69
907.73	1760.43
907.91	2257.48
908.08	2210.99
908.25	1773.13
908.43	1703.91
908.60	2099.17
908.77	2043.67
908.95	1839.69
909.12	1739.14
909.30	2105.93
909.47	1776.41
909.64	1830.47
909.82	1999.64
909.99	1983.66
910.16	2019.71
910.34	1783.37
910.51	1789.92
910.68	2054.93
910.86	2029.33
911.03	1732.58
911.20	1865.29
911.38	2497.91
911.55	3036.32
911.72	3031.81
911.90	3090.18
912.07	3466.80
912.24	3592.75
912.42	2850.98
912.59	2442.61
912.76	2711.72
912.94	2434.01
913.11	2154.05
913.28	2039.98
913.46	2046.33
913.63	2230.85
913.80	2280.21
913.98	1947.82
914.15	2296.59
914.32	2294.95
914.49	2009.67
914.67	1830.27
914.84	2115.76
915.01	2207.51
915.19	1949.87
915.36	1850.54
915.53	2200.75
915.71	2099.78
915.88	1935.74
916.05	1826.17
916.22	2170.64
916.40	2077.05
916.57	1736.88
916.74	1970.97
916.92	2277.75
917.09	1903.18
917.26	1776.00
917.43	1704.93
917.61	1940.66
917.78	1745.69
917.95	1732.38
918.13	1719.47
918.30	2373.60
918.47	2012.74
918.64	1762.28
918.82	1757.36
918.99	1961.54
919.16	2274.68
919.33	1825.56
919.51	1790.13
919.68	1970.56
919.85	2192.96
920.02	1698.18
920.20	1838.67
920.37	2275.09
920.54	2133.16
920.71	1757.98
920.89	1801.19
921.06	2312.16
921.23	1837.85
921.40	1732.99
921.58	1913.01
921.75	2617.51
921.92	2030.77
922.09	2043.46
922.27	1984.89
922.44	2120.26
922.61	2122.72
922.78	1857.10
922.96	1853.41
923.13	1993.49
923.30	2188.05
923.47	1717.43
923.64	1786.65
923.82	2085.04
923.99	2061.28
924.16	1922.02
924.33	1758.39
924.50	2038.75
924.68	2284.92
924.85	1768.01
925.02	1830.27
925.19	2129.48
925.36	2030.15
925.54	1835.18
925.71	1881.06
925.88	2537.43
926.05	1962.77
926.22	1742.00
926.40	1897.85
926.57	2064.76
926.74	2120.67
926.91	1782.14
927.08	1964.21
927.26	2162.66
927.43	2015.20
927.60	1784.40
927.77	1819.83
927.94	2290.45
928.11	2217.34
928.29	1669.09
928.46	1846.04
928.63	1863.45
928.80	1971.99
928.97	1889.25
929.14	1753.27
929.32	2356.80
929.49	2037.93
929.66	1754.70
929.83	1717.43
930.00	1920.38
930.17	2065.17
930.35	1759.00
930.52	1808.36
930.69	2246.21
930.86	1862.01
931.03	1841.33
931.20	1630.39
931.37	2180.47
931.55	2005.37
931.72	1839.08
931.89	1704.11
932.06	1830.47
932.23	2272.43
932.40	1901.74
932.57	1943.11
932.74	2211.19
932.92	2215.70
933.09	1960.52
933.26	1566.08
933.43	1937.38
933.60	2027.49
933.77	1866.72
933.94	1896.21
934.11	1963.80
934.29	2018.07
934.46	1714.56
934.63	1877.78
934.80	1803.24
934.97	1986.53
935.14	1819.01
935.31	1686.09
935.48	1859.97
935.65	2049.20
935.82	1847.27
936.00	1728.49
936.17	2265.87
936.34	1969.53
936.51	1887.61
936.68	1727.46
936.85	2044.69
937.02	2017.66
937.19	1899.49
937.36	1838.87
937.53	2066.61
937.70	2128.25
937.87	1789.72
938.05	1914.65
938.22	2045.72
938.39	1834.16
938.56	1816.96
938.73	1712.10
938.90	1970.56
939.07	1909.32
939.24	1887.41
939.41	1677.70
939.58	2072.34
939.75	2065.17
939.92	1766.78
940.09	2041.82
940.26	1950.08
940.43	2142.79
940.60	1847.88
940.77	1837.03
940.95	2046.54
941.12	2114.53
941.29	1820.23
941.46	1815.52
941.63	2219.59
941.80	2231.88
941.97	1702.07
942.14	1693.06
942.31	2118.62
942.48	2004.35
942.65	1911.57
942.82	1832.11
942.99	2084.63
943.16	2007.21
943.33	1712.31
943.50	1789.52
943.67	2137.26
943.84	2189.48
944.01	1811.84
944.18	1752.04
944.35	2231.67
944.52	1870.41
944.69	1890.48
944.86	1729.92
945.03	2110.02
945.20	2414.56
945.37	1632.44
945.54	1814.91
945.71	2243.34
945.88	2269.56
946.05	1770.06
946.22	1725.82
946.39	2238.84
946.56	1983.46
946.73	1671.14
946.90	1743.44
947.07	1925.91
947.24	1978.54
947.41	1636.74
947.58	1907.68
947.75	2117.19
947.92	2056.57
948.09	1604.38
948.26	1676.26
948.43	2075.82
948.60	2337.14
948.77	1789.92
948.94	1815.11
949.11	2144.43
949.27	2098.14
949.44	1765.96
949.61	1726.85
949.78	2063.12
949.95	2190.71
950.12	1716.20
950.29	1678.52
950.46	1931.44
950.63	2193.58
950.80	1765.55
950.97	1801.80
951.14	2196.45
951.31	1966.87
951.48	1760.23
951.65	1699.20
951.82	2345.54
951.99	2056.78
952.15	1728.69
952.32	1801.19
952.49	1904.41
952.66	1927.34
952.83	1758.39
953.00	1745.28
953.17	2001.28
953.34	2174.94
953.51	1862.01
953.68	1841.94
953.85	2165.73
954.02	2190.71
954.18	1855.66
954.35	1816.55
954.52	1874.10
954.69	2027.49
954.86	1676.06
955.03	1836.00
955.20	2124.56
955.37	1990.42
955.54	1802.83
955.71	1746.92
955.87	2077.46
956.04	2292.29
956.21	1784.80
956.38	1747.33
956.55	2013.36
956.72	2427.66
956.89	1844.40
957.06	1720.50
957.23	1928.16
957.39	2231.26
957.56	1815.73
957.73	1715.38
957.90	1699.81
958.07	2305.40
958.24	1822.49
958.41	1794.64
958.57	2135.01
958.74	2028.31
958.91	1732.17
959.08	1753.47
959.25	2129.07
959.42	1969.74
959.59	1851.57
959.75	1821.05
959.92	2196.65
960.09	2180.06
960.26	1752.65
960.43	1852.59
960.60	2054.93
960.76	1964.41
960.93	1685.89
961.10	1847.27
961.27	2141.56
961.44	1968.10
961.61	1701.25
961.77	1712.51
961.94	2023.60
962.11	2122.72
962.28	1775.79
962.45	1706.16
962.62	1985.10
962.78	2126.82
962.95	1692.85
963.12	1772.31
963.29	2169.62
963.46	2482.55
963.62	1859.15
963.79	1783.37
963.96	2429.91
964.13	1979.36
964.30	1872.05
964.46	1797.71
964.63	1862.83
964.80	2430.53
964.97	1636.33
965.14	1952.74
965.30	2112.48
965.47	2185.18
965.64	1984.69
965.81	1920.79
965.98	2280.00
966.14	2068.04
966.31	1788.70
966.48	1784.60
966.65	2227.99
966.81	2086.06
966.98	1800.57
967.15	1791.97
967.32	2031.99
967.49	1911.37
967.65	1660.70
967.82	1641.04
967.99	1987.14
968.16	1771.29
968.32	1947.62
968.49	1756.54
968.66	1973.63
968.83	2282.05
968.99	1896.83
969.16	1738.32
969.33	2221.64
969.50	2101.01
969.66	1923.25
969.83	2025.65
970.00	2157.74
970.17	2085.45
970.33	1798.32
970.50	1744.66
970.67	2298.64
970.84	2266.28
971.00	1701.86
971.17	1705.14
971.34	2130.09
971.50	2029.95
971.67	1905.63
971.84	1803.03
972.01	1825.15
972.17	1714.97
972.34	1688.35
972.51	1938.81
972.67	2190.30
972.84	2083.40
973.01	1734.22
973.18	1769.24
973.34	2159.79
973.51	1887.00
973.68	1803.85
973.84	1820.64
974.01	1967.07
974.18	2285.12
974.34	1869.39
974.51	1876.96
974.68	1892.73
974.85	2330.18
975.01	1892.53
975.18	1806.31
975.35	2021.14
975.51	1920.38
975.68	1706.98
975.85	1963.18
976.01	1912.39
976.18	2260.55
976.35	1779.28
976.51	1825.35
976.68	2284.71
976.85	2229.01
977.01	1811.63
977.18	1855.66
977.35	2107.77
977.51	1828.84
977.68	1650.05
977.85	1704.73
978.01	2200.75
978.18	2108.79
978.35	1821.46
978.51	1824.94
978.68	2178.22
978.85	2249.90
979.01	1832.11
979.18	1830.88
979.34	1987.55
979.51	2027.28
979.68	1743.23
979.84	1852.59
980.01	2455.92
980.18	2002.30
980.34	1760.84
980.51	1859.97
980.67	2152.82
980.84	2131.73
981.01	1766.58
981.17	1863.45
981.34	1752.04
981.51	2104.90
981.67	1703.30
981.84	1888.23
982.00	2117.60
982.17	1983.87
982.34	1644.52
982.50	1546.01
982.67	2275.50
982.83	1951.10
983.00	1694.69
983.17	1578.78
983.33	2193.99
983.50	1793.61
983.66	1666.43
983.83	1580.21
984.00	1964.41
984.16	2028.72
984.33	1606.43
984.49	1572.43
984.66	1894.37
984.83	2136.44
984.99	1631.41
985.16	1575.50
985.32	2123.54
985.49	2133.57
985.65	1709.85
985.82	1597.01
985.99	2261.16
986.15	2028.72
986.32	1704.93
986.48	1651.07
986.65	1947.21
986.81	2124.77
986.98	1572.23
987.14	1684.04
987.31	2018.27
987.48	1769.65
987.64	1533.31
987.81	1550.72
987.97	2359.67
988.14	1888.84
988.30	1612.57
988.47	1479.45
988.63	2048.38
988.80	1829.04
988.96	1670.73
989.13	1708.21
989.30	1959.91
989.46	2154.05
989.63	1566.49
989.79	1551.75
989.96	1999.84
990.12	2237.41
990.29	1601.10
990.45	1661.11
990.62	2010.29
990.78	2208.94
990.95	1715.17
991.11	1624.04
991.28	1934.10
991.44	2059.44
991.61	1513.45
991.77	1682.20
991.94	2037.73
992.10	2203.20
992.27	1674.42
992.43	1641.86
992.60	2126.82
992.76	1927.34
992.93	1813.07
993.09	1583.49
993.26	2198.08
993.42	2321.37
993.59	1628.14
993.75	1537.61
993.92	1873.89
994.08	1874.51
994.25	1684.25
994.41	1563.83
994.58	2105.11
994.74	2245.80
994.91	1580.83
995.07	1677.29
995.24	1973.63
995.40	1987.14
995.56	1751.42
995.73	1700.02
995.89	2261.16
996.06	1982.64
996.22	1583.90
996.39	1544.17
996.55	1961.54
996.72	2076.03
996.88	1551.75
997.05	1587.99
997.21	2325.06
997.37	2105.52
997.54	1695.31
997.70	1646.77
997.87	2052.06
998.03	1995.34
998.20	1514.88
998.36	1524.51
998.52	2106.13
998.69	2161.84
998.85	1541.92
999.02	1644.72
999.18	2157.74
999.35	2161.22
999.51	1675.85
999.67	1645.54
999.84	1806.92
1000.00	2121.70
1000.17	1714.76
1000.33	1594.55
1000.49	1907.07
1000.66	1978.13
1000.82	1620.35
1000.99	1671.76
1001.15	2212.01
1001.31	1962.57
1001.48	1660.90
1001.64	1711.90
1001.81	1959.70
1001.97	2372.37
1002.13	1646.98
1002.30	1645.54
1002.46	2223.27
1002.63	1973.01
1002.79	1706.16
1002.95	1625.27
1003.12	2167.57
1003.28	2068.45
1003.45	1602.33
1003.61	1577.14
1003.77	2028.92
1003.94	1816.14
1004.10	1636.74
1004.26	1716.81
1004.43	2084.01
1004.59	2314.20
1004.75	1616.87
1004.92	1611.55
1005.08	1949.05
1005.25	2055.96
1005.41	1597.21
1005.57	1696.13
1005.74	2180.88
1005.90	1937.58
1006.06	1765.35
1006.23	1612.78
1006.39	2108.59
1006.55	2444.25
1006.72	1774.16
1006.88	1566.70
1007.04	1874.51
1007.21	1953.76
1007.37	1645.95
1007.53	1583.49
1007.70	2241.91
1007.86	2151.60
1008.02	1665.61
1008.19	1581.03
1008.35	2050.43
1008.51	1875.73
1008.68	1619.74
1008.84	1548.67
1009.00	1858.94
1009.17	2167.57
1009.33	1794.84
1009.49	1735.04
1009.65	1893.35
1009.82	2062.71
1009.98	1676.88
1010.14	1536.59
1010.31	2113.71
1010.47	2101.63
1010.63	1684.45
1010.80	1696.74
1010.96	2109.41
1011.12	1983.25
1011.28	1645.75
1011.45	1615.64
1011.61	2451.83
1011.77	1860.17
1011.94	1597.62
1012.10	1585.74
1012.26	1842.56
1012.42	1894.99
1012.59	1696.54
1012.75	1667.87
1012.91	1969.53
1013.07	2135.42
1013.24	1577.96
1013.40	1594.55
1013.56	2033.63
1013.72	1991.65
1013.89	1687.94
1014.05	1738.32
1014.21	2321.99
1014.37	2401.04
1014.54	1678.72
1014.70	1580.83
1014.86	1960.73
1015.02	1843.99
1015.19	1640.83
1015.35	1566.90
1015.51	1987.96
1015.67	1913.83
1015.84	1612.78
1016.00	1637.15
1016.16	2157.74
1016.32	2140.54
1016.49	1642.27
1016.65	1550.31
1016.81	2006.19
1016.97	2072.95
1017.14	1753.88
1017.30	1627.32
1017.46	1938.20
1017.62	2036.91
1017.78	1717.84
1017.95	1601.92
1018.11	2144.22
1018.27	2412.30
1018.43	1761.46
1018.59	1711.69
1018.76	2130.50
1018.92	2466.16
1019.08	1598.64
1019.24	1654.76
1019.40	2213.44
1019.57	2060.05
1019.73	1745.48
1019.89	1645.13
1020.05	2039.57
1020.21	2372.37
1020.38	1604.17
1020.54	1770.88
1020.70	2125.38
1020.86	2110.23
1021.02	1607.45
1021.18	1653.12
1021.35	1916.08
1021.51	2131.53
1021.67	1781.94
1021.83	1671.96
1021.99	2008.24
1022.15	2061.08
1022.32	1682.41
1022.48	1673.40
1022.64	2256.04
1022.80	2271.20
1022.96	1720.29
1023.12	1562.40
1023.29	2153.85
1023.45	2083.40
1023.61	1626.29
1023.77	1833.75
1023.93	2067.83
1024.09	1859.35
1024.25	1606.22
1024.42	1534.95
1024.58	1911.98
1024.74	2076.64
1024.90	1643.49
1025.06	1717.84
1025.22	1919.15
1025.38	2280.21
1025.54	1567.52
1025.71	1728.28
1025.87	2110.64
1026.03	2077.87
1026.19	1583.90
1026.35	1808.56
1026.51	2076.03
1026.67	2007.21
1026.83	1664.18
1026.99	1784.19
1027.16	2085.65
1027.32	2001.28
1027.48	1640.42
1027.64	1616.05
1027.80	2108.79
1027.96	2012.13
1028.12	1641.65
1028.28	1609.29
1028.44	2051.25
1028.60	2261.16
1028.77	1768.01
1028.93	1665.00
1029.09	1949.87
1029.25	1855.46
1029.41	1687.73
1029.57	1733.61
1029.73	2059.23
1029.89	2264.85
1030.05	1746.71
1030.21	1698.18
1030.37	2394.89
1030.53	2137.67
1030.69	1648.00
1030.85	1560.35
1031.02	1860.99
1031.18	2027.08
1031.34	1643.90
1031.50	1712.51
1031.66	1855.46
1031.82	2269.76
1031.98	1670.12
1032.14	1581.24
1032.30	1860.17
1032.46	2131.94
1032.62	1765.35
1032.78	1574.48
1032.94	1904.82
1033.10	1930.62
1033.26	1683.23
1033.42	1764.73
1033.58	2383.22
1033.74	1944.14
1033.90	1634.28
1034.06	1800.57
1034.22	2396.12
1034.38	2183.34
1034.54	1648.61
1034.70	1689.16
1034.86	2339.19
>>>>>End Processed Spectral Data<<<<<
