SpectraSuite Data File
++++++++++++++++++++++++++++++++++++
Date: Thu Mar 30 14:26:59 PDT 2017
User: UCSD _CER
Dark Spectrum Present: No
Reference Spectrum Present: No
Number of Sampled Component Spectra: 1
Spectrometers: USB4C00073
Integration Time (usec): 380000 (USB4C00073)
Spectra Averaged: 10 (USB4C00073)
Boxcar Smoothing: 0 (USB4C00073)
Correct for Electrical Dark: No (USB4C00073)
Strobe/Lamp Enabled: No (USB4C00073)
Correct for Detector Non-linearity: No (USB4C00073)
Correct for Stray Light: No (USB4C00073)
Number of Pixels in Processed Spectrum: 3648
>>>>>Begin Processed Spectral Data<<<<<
345.37	1234.93
345.58	1234.93
345.80	1234.93
346.01	1232.88
346.22	1253.97
346.43	2025.65
346.65	1896.21
346.86	2439.95
347.07	2367.25
347.28	1850.13
347.50	1831.91
347.71	2130.71
347.92	1866.11
348.13	1810.40
348.35	1820.64
348.56	2149.96
348.77	1985.51
348.98	1831.50
349.20	1676.88
349.41	2148.32
349.62	2293.32
349.83	1947.21
350.05	1778.87
350.26	2180.06
350.47	2343.49
350.68	1830.88
350.90	1758.39
351.11	2401.65
351.32	2361.51
351.53	1854.64
351.75	1785.01
351.96	2216.11
352.17	2115.55
352.38	1881.26
352.60	1889.46
352.81	2150.57
353.02	2449.37
353.23	1795.86
353.44	1822.08
353.66	2056.37
353.87	2079.10
354.08	1928.98
354.29	1840.30
354.51	2056.78
354.72	2151.39
354.93	1871.02
355.14	1898.26
355.35	1944.75
355.57	2375.03
355.78	1971.58
355.99	2003.12
356.20	2196.86
356.42	2169.21
356.63	1999.84
356.84	1901.95
357.05	2308.68
357.26	2543.99
357.48	1950.28
357.69	1874.51
357.90	2170.44
358.11	2054.73
358.32	1838.67
358.54	1879.42
358.75	2045.10
358.96	2280.00
359.17	1844.40
359.38	1875.53
359.60	2271.61
359.81	2140.74
360.02	1891.91
360.23	1814.09
360.44	2064.97
360.66	2316.46
360.87	1841.33
361.08	1808.77
361.29	2217.54
361.50	2135.42
361.72	1810.61
361.93	1919.97
362.14	2149.75
362.35	1906.45
362.56	2012.95
362.77	1787.88
362.99	2284.71
363.20	2169.41
363.41	1942.29
363.62	1721.93
363.83	2243.14
364.05	2311.95
364.26	1807.33
364.47	1857.92
364.68	2341.85
364.89	2027.08
365.10	1781.53
365.32	1874.10
365.53	2001.89
365.74	2054.93
365.95	1836.82
366.16	1722.75
366.37	2102.44
366.59	2092.41
366.80	1865.09
367.01	1735.86
367.22	2518.18
367.43	2659.70
367.64	1935.33
367.86	1854.03
368.07	2205.05
368.28	2343.70
368.49	1750.81
368.70	1872.87
368.91	2060.46
369.12	2109.61
369.34	1772.93
369.55	1753.47
369.76	2121.49
369.97	2039.98
370.18	1732.99
370.39	1796.07
370.60	1905.43
370.82	1956.42
371.03	1849.73
371.24	1806.31
371.45	2265.87
371.66	2222.05
371.87	1785.21
372.08	1792.79
372.30	1932.67
372.51	2281.85
372.72	1917.31
372.93	1775.38
373.14	2399.60
373.35	2004.55
373.56	1759.41
373.78	1848.91
373.99	2259.73
374.20	2626.93
374.41	1826.38
374.62	1817.16
374.83	2402.68
375.04	2076.23
375.25	1856.69
375.47	1863.04
375.68	2055.34
375.89	2262.19
376.10	1901.33
376.31	1931.64
376.52	2226.14
376.73	2188.25
376.94	1894.99
377.15	1830.27
377.37	2134.60
377.58	2081.56
377.79	1767.40
378.00	1794.23
378.21	2168.18
378.42	2182.11
378.63	1879.01
378.84	1923.45
379.05	2295.77
379.27	2149.96
379.48	1960.73
379.69	1804.47
379.90	2328.95
380.11	1803.65
380.32	1848.29
380.53	1963.59
380.74	2380.76
380.95	2122.92
381.16	1857.51
381.37	1887.61
381.59	2377.28
381.80	2260.14
382.01	1811.02
382.22	1751.22
382.43	2222.05
382.64	2187.23
382.85	1827.20
383.06	1955.61
383.27	2288.40
383.48	2151.60
383.69	1906.04
383.91	1803.65
384.12	2236.18
384.33	2176.58
384.54	1809.79
384.75	1739.75
384.96	2615.87
385.17	2264.44
385.38	1827.81
385.59	1796.48
385.80	2245.19
386.01	2396.33
386.22	1935.54
386.43	1850.13
386.64	2516.95
386.86	2106.34
387.07	1956.83
387.28	1755.93
387.49	2020.53
387.70	2351.27
387.91	1939.02
388.12	1837.23
388.33	2213.04
388.54	2038.14
388.75	1790.33
388.96	1950.49
389.17	2057.59
389.38	2109.82
389.59	1917.31
389.80	1960.32
390.01	2115.55
390.22	2071.32
390.43	1927.14
390.64	1721.73
390.86	2204.02
391.07	2298.23
391.28	1844.81
391.49	1918.54
391.70	1896.42
391.91	1997.59
392.12	1844.81
392.33	1879.83
392.54	2129.27
392.75	2061.69
392.96	1928.16
393.17	1826.17
393.38	2527.60
393.59	2346.15
393.80	1832.93
394.01	2068.86
394.22	2371.96
394.43	2782.17
394.64	2112.89
394.85	2244.16
395.06	2371.55
395.27	2326.29
395.48	1951.92
395.69	1790.54
395.90	2120.67
396.11	2144.02
396.32	1850.34
396.53	1957.24
396.74	2109.82
396.95	2322.81
397.16	1825.35
397.37	1725.41
397.58	2285.33
397.79	2129.48
398.00	1896.01
398.21	1885.97
398.42	2162.45
398.63	2496.88
398.84	1848.09
399.05	1797.71
399.26	2334.27
399.47	2211.81
399.68	1713.33
399.89	1787.06
400.10	1923.25
400.31	2053.29
400.52	1886.38
400.73	1845.42
400.94	1875.12
401.15	2159.17
401.36	1861.60
401.57	1907.07
401.78	2332.84
401.99	2289.63
402.20	1787.67
402.41	1998.00
402.62	2402.68
402.83	2075.00
403.04	1817.78
403.25	2084.22
403.46	2316.25
403.67	2685.50
403.88	2275.29
404.09	2279.18
404.30	2519.62
404.51	2393.87
404.72	2077.66
404.93	2194.60
405.14	2092.61
405.35	2148.73
405.56	1880.65
405.77	1812.04
405.98	2148.73
406.19	2096.92
406.40	1777.23
406.61	1821.67
406.82	2015.82
407.03	2541.94
407.24	1778.66
407.45	1861.81
407.66	2165.32
407.87	2287.58
408.08	1914.03
408.29	1939.02
408.49	2219.59
408.70	2140.74
408.91	1830.68
409.12	1985.30
409.33	1969.94
409.54	2378.92
409.75	1801.39
409.96	1874.92
410.17	2297.82
410.38	2090.36
410.59	1829.45
410.80	1993.29
411.01	2133.16
411.22	2102.04
411.43	1941.88
411.64	1821.05
411.85	1985.92
412.06	1978.34
412.27	1670.32
412.47	1799.14
412.68	2121.49
412.89	2221.64
413.10	1859.76
413.31	1778.46
413.52	2446.91
413.73	2491.15
413.94	1855.66
414.15	2007.42
414.36	2093.23
414.57	2086.06
414.78	2107.56
414.99	3098.17
415.19	4281.69
415.40	4679.40
415.61	4899.56
415.82	4725.48
416.03	4321.01
416.24	3671.39
416.45	2988.81
416.66	2334.89
416.87	2160.20
417.08	2365.61
417.29	2047.35
417.50	2290.86
417.70	2708.44
417.91	2741.41
418.12	2675.47
418.33	2943.55
418.54	3306.04
418.75	3647.43
418.96	3803.69
419.17	4714.42
419.38	6020.82
419.59	6179.34
419.79	5927.03
420.00	5523.17
420.21	5045.58
420.42	3725.87
420.63	2871.05
420.84	2449.17
421.05	2310.11
421.26	2214.88
421.47	1805.08
421.67	2215.29
421.88	1997.38
422.09	1934.51
422.30	2065.99
422.51	1868.16
422.72	2440.56
422.93	2260.96
423.14	1915.47
423.35	1748.56
423.55	1863.24
423.76	2007.21
423.97	1892.12
424.18	1809.99
424.39	2232.70
424.60	2457.15
424.81	2109.61
425.02	2494.63
425.22	2972.42
425.43	3035.09
425.64	3300.92
425.85	3451.03
426.06	3868.20
426.27	3760.07
426.48	3787.72
426.68	3765.40
426.89	3883.77
427.10	3883.97
427.31	2986.96
427.52	2357.83
427.73	2650.48
427.94	2471.49
428.14	2135.83
428.35	1937.17
428.56	2422.54
428.77	2316.87
428.98	2031.38
429.19	2501.59
429.40	2918.97
429.60	3070.93
429.81	3038.16
430.02	2907.09
430.23	2677.92
430.44	2662.36
430.65	2135.01
430.85	2030.15
431.06	2293.11
431.27	1885.36
431.48	1905.02
431.69	1914.44
431.90	2185.80
432.10	2188.46
432.31	2021.35
432.52	2447.73
432.73	3567.97
432.94	3672.21
433.15	3326.31
433.35	3180.09
433.56	3398.19
433.77	2922.45
433.98	2737.32
434.19	2489.51
434.40	2639.42
434.60	2449.58
434.81	2139.92
435.02	2062.71
435.23	2212.83
435.44	2104.29
435.64	1846.65
435.85	1854.03
436.06	2126.82
436.27	2046.33
436.48	1813.89
436.68	1825.97
436.89	2460.63
437.10	2245.19
437.31	1902.56
437.52	1982.23
437.73	2196.86
437.93	2160.61
438.14	1951.10
438.35	1755.72
438.56	2091.39
438.77	2115.96
438.97	2039.37
439.18	1857.71
439.39	2323.83
439.60	1904.41
439.80	1826.99
440.01	1858.94
440.22	2042.23
440.43	2263.21
440.64	1839.49
440.84	1918.95
441.05	1951.30
441.26	2620.79
441.47	1980.80
441.68	1879.01
441.88	2118.42
442.09	2106.34
442.30	2009.06
442.51	2005.78
442.71	2103.67
442.92	2190.51
443.13	1904.82
443.34	1864.88
443.55	1988.78
443.75	2235.77
443.96	1885.16
444.17	1811.43
444.38	2348.41
444.58	2010.70
444.79	1976.29
445.00	1957.65
445.21	2122.51
445.41	2096.71
445.62	1727.26
445.83	2010.90
446.04	2195.63
446.24	1910.96
446.45	1751.63
446.66	1887.61
446.87	2194.60
447.07	2049.81
447.28	2118.62
447.49	1915.67
447.70	2299.05
447.90	2305.40
448.11	1939.63
448.32	2013.36
448.53	2393.87
448.73	2368.48
448.94	1880.04
449.15	2047.76
449.36	2166.96
449.56	2229.83
449.77	1931.44
449.98	1847.06
450.19	2268.53
450.39	2498.93
450.60	2420.29
450.81	2455.10
451.02	2637.17
451.22	2747.55
451.43	2125.59
451.64	2176.79
451.84	2345.33
452.05	2649.66
452.26	2170.64
452.47	2044.49
452.67	2141.36
452.88	2428.48
453.09	1858.94
453.30	1852.39
453.50	2287.17
453.71	2440.36
453.92	1880.04
454.12	2022.16
454.33	2045.10
454.54	2126.61
454.75	1881.67
454.95	1878.40
455.16	2181.50
455.37	2278.57
455.57	2004.35
455.78	1907.48
455.99	2128.04
456.19	2142.79
456.40	1857.92
456.61	1936.15
456.82	2135.62
457.02	2287.58
457.23	1942.50
457.44	2062.10
457.64	2061.69
457.85	2284.71
458.06	2045.31
458.26	2150.78
458.47	2232.29
458.68	2396.94
458.89	2023.60
459.09	2235.77
459.30	2699.63
459.51	2361.10
459.71	1924.07
459.92	1936.76
460.13	2320.55
460.33	2574.50
460.54	1996.77
460.75	1977.31
460.95	1986.94
461.16	2211.40
461.37	1923.04
461.57	1908.50
461.78	2157.94
461.99	2019.09
462.19	2274.68
462.40	2007.62
462.61	2936.38
462.81	2488.69
463.02	1959.91
463.23	1942.91
463.43	2355.16
463.64	2143.20
463.85	3218.38
464.05	2056.37
464.26	2831.32
464.47	2493.81
464.67	2188.46
464.88	2127.43
465.09	2077.46
465.29	2216.52
465.50	2078.07
465.71	1969.12
465.91	2081.15
466.12	2146.27
466.33	1992.88
466.53	1872.05
466.74	2372.37
466.94	2098.76
467.15	1986.12
467.36	2131.12
467.56	2021.35
467.77	2197.27
467.98	1995.34
468.18	1945.78
468.39	2092.41
468.60	2491.56
468.80	1937.99
469.01	1860.37
469.21	2268.74
469.42	2528.01
469.63	2199.31
469.83	2142.79
470.04	2582.90
470.25	2734.04
470.45	2236.59
470.66	2048.17
470.86	2335.91
471.07	2208.32
471.28	2113.50
471.48	2133.78
471.69	2251.33
471.90	2801.62
472.10	1972.60
472.31	1926.32
472.51	2070.70
472.72	2038.96
472.93	1925.91
473.13	2050.63
473.34	2226.96
473.54	2167.77
473.75	1984.28
473.96	2163.06
474.16	2197.88
474.37	2364.58
474.57	2238.02
474.78	2084.83
474.99	2391.62
475.19	2372.78
475.40	2090.36
475.60	1931.85
475.81	2465.75
476.02	2252.15
476.22	2244.57
476.43	2324.03
476.63	2386.29
476.84	2612.59
477.05	1988.58
477.25	1985.51
477.46	2770.08
477.66	2223.07
477.87	1910.75
478.08	1957.65
478.28	2337.76
478.49	2146.89
478.69	1943.11
478.90	1930.21
479.10	2285.74
479.31	2541.32
479.52	2076.23
479.72	2134.60
479.93	2341.44
480.13	2131.32
480.34	1951.30
480.54	2014.79
480.75	2025.03
480.96	2389.57
481.16	1931.23
481.37	2050.22
481.57	2286.15
481.78	2215.90
481.98	2155.08
482.19	2075.41
482.40	2549.11
482.60	2330.18
482.81	2226.14
483.01	2063.53
483.22	2540.30
483.42	2511.22
483.63	2192.96
483.83	2060.67
484.04	2138.49
484.24	2332.23
484.45	2131.73
484.66	1894.58
484.86	2244.16
485.07	2048.58
485.27	2064.97
485.48	1962.36
485.68	2463.30
485.89	2120.88
486.09	2131.53
486.30	2004.35
486.50	2230.85
486.71	2344.72
486.91	2364.18
487.12	2466.78
487.33	2946.82
487.53	2933.51
487.74	2485.62
487.94	2488.69
488.15	2789.13
488.35	2880.47
488.56	2668.30
488.76	2563.44
488.97	2600.92
489.17	2637.58
489.38	2310.52
489.58	2140.95
489.79	2349.43
489.99	2293.32
490.20	2099.58
490.40	2178.83
490.61	2308.27
490.81	2164.50
491.02	2075.82
491.22	2105.52
491.43	2407.18
491.63	2237.20
491.84	2229.21
492.04	1981.82
492.25	2345.13
492.45	2186.00
492.66	1977.31
492.86	1904.00
493.07	2198.08
493.27	2605.63
493.48	1884.13
493.68	1963.18
493.89	2217.54
494.09	2331.82
494.30	2020.32
494.50	2258.70
494.71	2355.57
494.91	2162.04
495.12	2267.10
495.32	2346.15
495.53	2457.15
495.73	2131.94
495.94	2132.14
496.14	1907.48
496.35	2537.43
496.55	2167.16
496.76	1993.08
496.96	2094.25
497.17	2240.27
497.37	2336.73
497.58	2050.43
497.78	1985.30
497.98	2227.99
498.19	2260.96
498.39	2111.25
498.60	2196.24
498.80	2025.85
499.01	2423.98
499.21	1928.16
499.42	2081.35
499.62	2152.62
499.83	2606.65
500.03	1909.94
500.24	2118.21
500.44	2431.96
500.64	2385.88
500.85	1972.40
501.05	2110.43
501.26	1957.04
501.46	2394.28
501.67	1936.15
501.87	1913.42
502.08	2042.23
502.28	2169.41
502.48	2143.20
502.69	2191.74
502.89	2090.57
503.10	2208.94
503.30	2197.06
503.51	2135.42
503.71	2060.87
503.92	2387.52
504.12	2269.76
504.32	2204.02
504.53	2636.35
504.73	2665.23
504.94	2513.47
505.14	2754.93
505.35	2939.04
505.55	2957.47
505.75	2720.32
505.96	2830.29
506.16	3007.44
506.37	2449.37
506.57	2240.89
506.78	2425.00
506.98	2640.65
507.18	2220.20
507.39	2135.83
507.59	2183.34
507.80	2273.25
508.00	2419.27
508.20	2414.96
508.41	2212.63
508.61	2571.63
508.82	2485.21
509.02	2220.20
509.22	1987.55
509.43	2058.62
509.63	2122.51
509.84	2057.80
510.04	1914.65
510.24	2452.44
510.45	2367.86
510.65	1943.11
510.86	2075.82
511.06	2103.88
511.26	2468.01
511.47	2363.36
511.67	2156.51
511.88	2453.26
512.08	2461.86
512.28	2004.14
512.49	2129.27
512.69	2287.58
512.90	2294.95
513.10	1988.37
513.30	2117.19
513.51	2301.92
513.71	2504.26
513.91	2104.49
514.12	2135.01
514.32	2535.18
514.53	2469.44
514.73	2556.89
514.93	2539.69
515.14	2723.18
515.34	3181.11
515.54	2959.31
515.75	3229.03
515.95	3545.44
516.15	3630.23
516.36	2776.23
516.56	2595.80
516.77	2227.17
516.97	2617.10
517.17	2360.49
517.38	2412.51
517.58	2802.44
517.78	2755.95
517.99	3057.41
518.19	3206.71
518.39	3755.97
518.60	3569.40
518.80	3107.38
519.00	2841.35
519.21	2693.69
519.41	2869.41
519.61	2214.47
519.82	2352.09
520.02	2401.86
520.22	2434.83
520.43	2272.22
520.63	2363.36
520.83	2342.88
521.04	2272.22
521.24	2844.63
521.44	3044.92
521.65	3284.53
521.85	3643.75
522.05	3199.75
522.26	2801.21
522.46	3088.34
522.66	2747.15
522.87	2324.85
523.07	2476.20
523.27	2376.05
523.48	2724.00
523.68	2332.84
523.88	2380.15
524.09	2651.91
524.29	2608.70
524.49	2407.18
524.70	2808.17
524.90	3212.65
525.10	3082.40
525.31	2565.90
525.51	2331.61
525.71	2571.22
525.91	2440.77
526.12	2124.56
526.32	2029.33
526.52	2139.72
526.73	2113.30
526.93	2121.29
527.13	1936.76
527.34	2242.12
527.54	2315.84
527.74	2203.00
527.94	2117.39
528.15	2195.42
528.35	2344.92
528.55	2231.06
528.76	2128.66
528.96	1985.10
529.16	2378.10
529.36	2167.16
529.57	1971.17
529.77	2376.67
529.97	2052.06
530.18	2109.00
530.38	2025.24
530.58	2312.98
530.78	2257.68
530.99	2041.42
531.19	2172.28
531.39	2162.04
531.60	2301.10
531.80	2144.43
532.00	2247.24
532.20	2269.15
532.41	2128.86
532.61	2029.74
532.81	2000.46
533.01	2150.98
533.22	2254.61
533.42	2165.93
533.62	1907.68
533.82	2432.17
534.03	2176.17
534.23	2187.23
534.43	1998.82
534.63	2140.54
534.84	2248.87
535.04	2123.95
535.24	2054.11
535.44	2664.61
535.65	2118.83
535.85	1976.49
536.05	1955.40
536.25	2199.11
536.46	2098.35
536.66	2296.59
536.86	2254.20
537.06	2520.64
537.27	2618.94
537.47	2176.38
537.67	2082.37
537.87	2522.28
538.08	2269.97
538.28	2015.61
538.48	2076.44
538.68	2292.09
538.88	2455.51
539.09	2031.38
539.29	2137.06
539.49	2439.95
539.69	2310.72
539.90	2152.62
540.10	2040.39
540.30	2559.14
540.50	2314.61
540.70	2123.33
540.91	2231.88
541.11	2634.10
541.31	2922.25
541.51	2644.34
541.72	2745.10
541.92	2899.51
542.12	2613.00
542.32	2438.72
542.52	2294.34
542.73	2263.42
542.93	2441.38
543.13	2228.39
543.33	2461.04
543.53	2737.11
543.74	2785.03
543.94	2529.86
544.14	2833.57
544.34	3224.32
544.54	3098.58
544.75	3210.19
544.95	3417.45
545.15	3405.57
545.35	3320.37
545.55	2912.21
545.75	2610.75
545.96	3001.09
546.16	2386.50
546.36	2366.43
546.56	2374.21
546.76	2636.15
546.97	2711.10
547.17	2277.75
547.37	2230.44
547.57	2190.71
547.77	2382.81
547.97	2166.55
548.18	2212.42
548.38	2441.79
548.58	3517.59
548.78	3914.69
548.98	4604.65
549.18	5386.98
549.39	5646.86
549.59	4827.06
549.79	4214.51
549.99	4260.39
550.19	3838.51
550.39	3499.57
550.60	3039.39
550.80	2991.26
551.00	2897.67
551.20	2494.43
551.40	2333.66
551.60	2537.02
551.80	2484.60
552.01	2414.35
552.21	2365.61
552.41	2503.64
552.61	2731.58
552.81	2299.66
553.01	2147.91
553.21	2421.11
553.42	2181.70
553.62	2133.37
553.82	2067.22
554.02	2545.42
554.22	2373.19
554.42	1974.65
554.62	2244.16
554.83	3140.56
555.03	3748.81
555.23	3856.33
555.43	4510.65
555.63	4685.14
555.83	4312.82
556.03	3612.41
556.23	3294.16
556.44	3492.40
556.64	3620.19
556.84	3029.15
557.04	3296.62
557.24	3237.22
557.44	2954.81
557.64	2681.20
557.84	2419.47
558.04	2483.16
558.25	2595.19
558.45	2201.98
558.65	2362.95
558.85	2546.24
559.05	2297.41
559.25	2498.93
559.45	2717.86
559.65	3630.43
559.85	4461.09
560.05	3800.01
560.26	4138.74
560.46	4174.17
560.66	3723.21
560.86	3238.04
561.06	2915.49
561.26	3197.08
561.46	2944.57
561.66	2577.78
561.86	2634.30
562.06	2495.25
562.26	2517.16
562.47	2311.13
562.67	2139.51
562.87	2492.99
563.07	2141.15
563.27	2297.00
563.47	2302.12
563.67	2355.78
563.87	2596.01
564.07	2491.97
564.27	2736.29
564.47	3053.73
564.67	3245.62
564.87	3058.64
565.08	2911.39
565.28	2798.34
565.48	2895.21
565.68	2610.75
565.88	2542.96
566.08	2787.29
566.28	2393.26
566.48	2087.29
566.68	2169.62
566.88	2174.33
567.08	2406.36
567.28	2221.84
567.48	2258.09
567.68	2520.64
567.88	2345.13
568.08	2495.04
568.28	2599.08
568.48	2574.30
568.68	2789.54
568.89	2448.14
569.09	2165.11
569.29	2534.36
569.49	2473.95
569.69	2084.83
569.89	2070.09
570.09	1970.56
570.29	2132.55
570.49	1959.09
570.69	2046.74
570.89	2365.20
571.09	2574.91
571.29	1926.32
571.49	2198.29
571.69	2249.28
571.89	2277.96
572.09	2007.42
572.29	2064.56
572.49	2293.32
572.69	2229.01
572.89	2208.73
573.09	2098.14
573.29	2624.06
573.49	2756.36
573.69	2667.27
573.89	2591.50
574.09	2425.61
574.29	2650.07
574.49	2273.86
574.69	2060.67
574.89	2071.73
575.09	2098.76
575.29	1926.32
575.49	2068.04
575.69	2258.70
575.89	1950.28
576.09	2071.11
576.29	2156.10
576.49	2119.24
576.69	2354.34
576.89	2293.93
577.09	2323.01
577.29	2143.20
577.49	2674.44
577.69	2135.62
577.89	2282.67
578.09	2287.38
578.29	2025.44
578.49	2148.11
578.69	2019.91
578.89	2371.96
579.09	2272.63
579.29	2068.24
579.49	2269.56
579.69	2276.52
579.89	2664.61
580.09	1983.66
580.29	1968.30
580.49	2152.62
580.69	2052.88
580.89	1999.64
581.09	2019.30
581.29	2090.57
581.49	2154.67
581.69	1912.19
581.89	1944.75
582.09	2013.15
582.28	2078.48
582.48	2304.58
582.68	2423.98
582.88	2702.91
583.08	2520.84
583.28	2431.55
583.48	2297.82
583.68	2250.92
583.88	2305.19
584.08	2181.91
584.28	2186.00
584.48	2566.51
584.68	2320.35
584.88	2096.71
585.08	2341.85
585.28	2483.57
585.48	2543.78
585.68	2280.41
585.87	2355.37
586.07	2381.58
586.27	2304.37
586.47	2194.60
586.67	2103.88
586.87	2216.31
587.07	2179.65
587.27	2140.54
587.47	2363.97
587.67	2939.04
587.87	3707.64
588.07	3563.47
588.27	3647.43
588.46	4128.91
588.66	4177.45
588.86	3378.74
589.06	3166.36
589.26	3168.41
589.46	2944.98
589.66	2467.39
589.86	2279.18
590.06	2557.71
590.26	2931.67
590.46	2847.29
590.66	3033.66
590.85	3100.62
591.05	3231.49
591.25	2699.63
591.45	2678.95
591.65	2875.35
591.85	2930.85
592.05	2805.92
592.25	3010.31
592.45	3330.82
592.64	3094.69
592.84	2848.52
593.04	2579.62
593.24	3186.43
593.44	2673.21
593.64	2622.63
593.84	2620.99
594.04	2638.60
594.24	2819.23
594.43	2344.31
594.63	2309.90
594.83	2567.54
595.03	2440.97
595.23	2047.76
595.43	1985.51
595.63	2132.14
595.83	2427.87
596.02	1965.44
596.22	2201.57
596.42	2460.43
596.62	2363.97
596.82	2225.53
597.02	2264.85
597.22	2543.99
597.41	2333.66
597.61	2193.99
597.81	2429.51
598.01	2643.31
598.21	2480.09
598.41	2375.64
598.61	2374.62
598.80	2538.46
599.00	2627.95
599.20	2598.05
599.40	2446.71
599.60	2546.24
599.80	2686.53
599.99	2475.18
600.19	2326.49
600.39	2494.22
600.59	2552.79
600.79	2399.60
600.99	2290.04
601.19	2741.21
601.38	2812.68
601.58	2468.83
601.78	2242.32
601.98	3221.25
602.18	5112.75
602.37	6481.21
602.57	7316.98
602.77	8469.78
602.97	8825.93
603.17	7840.85
603.37	7506.83
603.56	7410.57
603.76	7107.89
603.96	6689.28
604.16	6064.45
604.36	5534.02
604.56	4922.70
604.75	4140.99
604.95	3953.19
605.15	3921.04
605.35	3642.31
605.55	3197.29
605.74	3026.28
605.94	3159.20
606.14	2814.32
606.34	2496.47
606.54	2450.80
606.73	2334.89
606.93	2460.02
607.13	2130.71
607.33	2227.99
607.53	2542.76
607.72	2423.16
607.92	2210.99
608.12	2343.29
608.32	2317.89
608.51	2508.97
608.71	2225.12
608.91	2517.57
609.11	2769.06
609.31	2717.86
609.50	2897.67
609.70	3284.74
609.90	3368.09
610.10	3409.66
610.29	3087.72
610.49	2786.88
610.69	2985.53
610.89	2765.17
611.09	2524.12
611.28	2634.92
611.48	2722.98
611.68	2453.88
611.88	2338.78
612.07	2238.02
612.27	2591.29
612.47	2282.26
612.67	2288.61
612.86	2309.08
613.06	2314.41
613.26	2039.16
613.46	2260.75
613.65	2555.66
613.85	3182.75
614.05	2941.29
614.25	2805.10
614.44	2696.97
614.64	2795.89
614.84	2694.10
615.04	2587.40
615.23	2612.59
615.43	2784.01
615.63	2750.83
615.83	2406.98
616.02	2496.88
616.22	3120.49
616.42	3023.83
616.62	3129.71
616.81	3283.92
617.01	3373.21
617.21	3117.62
617.41	2663.38
617.60	2709.46
617.80	2759.23
618.00	2713.76
618.19	2449.78
618.39	2231.06
618.59	2420.70
618.79	2267.10
618.98	1933.90
619.18	2057.80
619.38	2542.76
619.57	2139.72
619.77	2020.12
619.97	2035.48
620.17	2238.43
620.36	2338.99
620.56	2818.41
620.76	2690.21
620.95	2870.84
621.15	2926.14
621.35	2685.30
621.54	2610.75
621.74	2675.67
621.94	2443.23
622.14	2241.71
622.33	2149.14
622.53	2338.37
622.73	2273.04
622.92	1987.76
623.12	2096.71
623.32	2530.67
623.51	2334.68
623.71	1965.23
623.91	2256.25
624.10	2093.84
624.30	2260.75
624.50	1966.46
624.69	1954.99
624.89	2884.36
625.09	2128.86
625.29	1831.91
625.48	1911.78
625.68	2217.75
625.88	2331.00
626.07	2060.87
626.27	1940.04
626.47	2062.51
626.66	1911.37
626.86	2031.79
627.06	2010.08
627.25	2158.35
627.45	2460.63
627.64	2014.59
627.84	2167.16
628.04	2028.10
628.23	2503.85
628.43	1918.33
628.63	2114.73
628.82	2351.89
629.02	2903.61
629.22	2524.94
629.41	2678.74
629.61	2690.42
629.81	3125.61
630.00	2719.09
630.20	2699.02
630.40	3001.91
630.59	2990.24
630.79	2571.02
630.98	2469.03
631.18	2552.18
631.38	2422.75
631.57	2324.44
631.77	2039.98
631.97	2295.36
632.16	2301.71
632.36	2048.17
632.56	2058.00
632.75	2208.32
632.95	2296.80
633.14	1894.58
633.34	2156.72
633.54	1867.54
633.73	2059.23
633.93	1942.70
634.12	1841.33
634.32	2611.98
634.52	2110.23
634.71	1848.50
634.91	2026.47
635.11	1939.63
635.30	2058.41
635.50	2030.56
635.69	2002.50
635.89	2638.40
636.09	2542.96
636.28	2215.29
636.48	2198.90
636.67	2554.02
636.87	2470.26
637.07	2245.80
637.26	2209.14
637.46	2479.68
637.65	2657.24
637.85	2458.59
638.04	2343.08
638.24	2488.69
638.44	2514.50
638.63	2272.43
638.83	2193.58
639.02	2381.38
639.22	2367.25
639.42	2063.53
639.61	2072.75
639.81	2218.56
640.00	2170.85
640.20	2198.70
640.39	2282.46
640.59	3375.05
640.79	3594.39
640.98	3741.23
641.18	3892.78
641.37	4097.78
641.57	3559.57
641.76	3314.43
641.96	2902.59
642.15	3103.90
642.35	2836.85
642.55	2701.07
642.74	2411.48
642.94	2660.31
643.13	2652.53
643.33	2139.31
643.52	2035.07
643.72	2125.79
643.91	2186.00
644.11	1914.03
644.31	1934.31
644.50	2044.28
644.70	2374.21
644.89	2030.15
645.09	2101.63
645.28	2176.79
645.48	2243.14
645.67	1971.99
645.87	1901.95
646.06	2186.82
646.26	2308.88
646.45	1890.07
646.65	1842.15
646.84	2541.73
647.04	2131.32
647.24	1919.77
647.43	2007.42
647.63	2235.97
647.82	2468.42
648.02	1946.80
648.21	2006.39
648.41	2397.76
648.60	2102.44
648.80	2173.51
648.99	2023.19
649.19	2076.23
649.38	1913.01
649.58	2039.37
649.77	2095.48
649.97	2363.15
650.16	2226.55
650.36	1796.68
650.55	2202.59
650.75	2240.27
650.94	2405.13
651.14	2040.39
651.33	2059.03
651.53	2443.84
651.72	2013.77
651.92	1977.72
652.11	1829.04
652.31	2224.71
652.50	2216.11
652.70	2051.45
652.89	1981.00
653.09	2530.67
653.28	2249.28
653.48	1963.80
653.67	1980.80
653.87	2779.30
654.06	2281.64
654.25	2306.01
654.45	2014.38
654.64	2127.02
654.84	2160.61
655.03	1850.54
655.23	2169.62
655.42	2279.39
655.62	2473.95
655.81	2106.54
656.01	1935.94
656.20	2328.34
656.40	2427.25
656.59	2060.46
656.79	2138.49
656.98	2207.10
657.17	2284.71
657.37	1993.49
657.56	1999.64
657.76	2212.01
657.95	2306.22
658.15	1648.00
658.34	1999.84
658.54	2160.20
658.73	1991.44
658.92	2034.04
659.12	2055.96
659.31	2365.61
659.51	2183.95
659.70	2321.17
659.90	2231.67
660.09	2653.96
660.29	2444.05
660.48	2131.94
660.67	2350.25
660.87	2209.55
661.06	2341.44
661.26	2160.61
661.45	2226.14
661.65	2300.48
661.84	2113.09
662.03	1964.21
662.23	1980.59
662.42	2506.51
662.62	2001.48
662.81	1888.23
663.00	1973.42
663.20	2161.43
663.39	2209.76
663.59	2068.86
663.78	1937.38
663.97	2087.29
664.17	2290.24
664.36	1868.98
664.56	1944.75
664.75	2285.33
664.94	2321.58
665.14	2205.05
665.33	2223.07
665.53	2396.53
665.72	2422.95
665.91	2409.84
666.11	2281.64
666.30	2396.94
666.50	2274.68
666.69	2218.77
666.88	2137.26
667.08	2341.44
667.27	2227.99
667.47	2117.60
667.66	2062.51
667.85	2401.86
668.05	2211.81
668.24	1975.27
668.43	2249.90
668.63	2134.39
668.82	2406.16
669.02	2169.62
669.21	2071.73
669.40	2061.28
669.60	2553.41
669.79	1950.90
669.98	2674.85
670.18	2044.90
670.37	2014.18
670.56	2075.41
670.76	2139.51
670.95	2219.18
671.15	2411.28
671.34	2199.93
671.53	2221.43
671.73	2213.65
671.92	2163.88
672.11	2023.80
672.31	2071.32
672.50	2294.34
672.69	2007.83
672.89	1823.72
673.08	2048.58
673.27	2298.03
673.47	2217.34
673.66	2062.92
673.85	1940.45
674.05	2593.14
674.24	3455.74
674.43	3810.86
674.63	4556.53
674.82	5447.39
675.01	4778.73
675.21	4494.68
675.40	4034.29
675.59	3910.60
675.79	4141.81
675.98	3523.94
676.17	3506.74
676.37	3386.73
676.56	3046.35
676.75	2727.69
676.95	2575.53
677.14	2504.87
677.33	2610.55
677.52	2080.12
677.72	2108.59
677.91	2306.22
678.10	1992.26
678.30	1968.10
678.49	1950.69
678.68	2554.64
678.88	1888.23
679.07	2160.40
679.26	1989.60
679.45	2480.91
679.65	2393.67
679.84	1818.39
680.03	1884.54
680.23	2115.35
680.42	2608.50
680.61	1939.63
680.81	1995.75
681.00	2201.16
681.19	2247.24
681.38	2126.61
681.58	2135.01
681.77	2189.89
681.96	2390.18
682.15	2063.94
682.35	2233.11
682.54	2356.19
682.73	2071.52
682.93	1996.36
683.12	1988.17
683.31	2332.02
683.50	2685.50
683.70	1917.92
683.89	2093.64
684.08	2043.05
684.27	2385.47
684.47	1937.38
684.66	2044.69
684.85	2578.80
685.04	2424.39
685.24	1970.97
685.43	2004.14
685.62	1885.77
685.81	2356.39
686.01	2804.69
686.20	3113.94
686.39	3467.01
686.58	4311.79
686.78	4017.50
686.97	3790.38
687.16	3659.72
687.35	3480.73
687.55	3220.84
687.74	3210.40
687.93	3061.92
688.12	3121.72
688.32	2961.36
688.51	2644.34
688.70	2818.00
688.89	2402.06
689.08	2187.85
689.28	2194.40
689.47	2364.99
689.66	2367.86
689.85	2234.95
690.05	2041.01
690.24	2101.22
690.43	2251.54
690.62	2079.10
690.81	1972.40
691.01	2213.85
691.20	2112.89
691.39	1896.42
691.58	2063.74
691.77	2495.25
691.97	2218.15
692.16	2134.60
692.35	2069.27
692.54	2216.93
692.73	2648.84
692.93	2627.34
693.12	2762.30
693.31	2985.94
693.50	2991.88
693.69	2739.36
693.89	2472.31
694.08	2898.90
694.27	2923.48
694.46	2465.14
694.65	2510.20
694.85	2739.77
695.04	2725.23
695.23	2756.36
695.42	4162.70
695.61	5501.25
695.80	6339.28
696.00	6957.77
696.19	7382.31
696.38	6527.70
696.57	5483.23
696.76	5159.04
696.95	4736.95
697.15	4737.77
697.34	4419.11
697.53	3747.17
697.72	3624.50
697.91	3296.00
698.10	3325.70
698.30	2660.11
698.49	2470.46
698.68	2533.34
698.87	2322.60
699.06	2117.60
699.25	2155.90
699.45	2451.62
699.64	2268.53
699.83	2243.14
700.02	2019.30
700.21	2295.57
700.40	2086.06
700.59	1994.31
700.79	2034.45
700.98	2266.28
701.17	2035.07
701.36	1944.14
701.55	2007.42
701.74	2635.53
701.93	3012.77
702.12	3713.99
702.32	4159.01
702.51	4842.83
702.70	4900.38
702.89	4236.43
703.08	3665.66
703.27	3926.78
703.46	3621.83
703.65	3131.75
703.85	3035.29
704.04	3000.68
704.23	3173.74
704.42	2609.11
704.61	2429.51
704.80	2764.76
704.99	2225.53
705.18	2248.06
705.37	2352.09
705.57	3612.82
705.76	5315.91
705.95	5971.06
706.14	7239.16
706.33	8036.64
706.52	7943.87
706.71	6126.29
706.90	5450.26
707.09	5334.55
707.28	4974.52
707.47	4389.62
707.67	4221.07
707.86	3860.01
708.05	3934.97
708.24	3231.69
708.43	2935.35
708.62	2656.22
708.81	2380.35
709.00	2124.15
709.19	2071.52
709.38	2431.35
709.57	2152.21
709.76	2326.90
709.96	2301.30
710.15	2818.41
710.34	2616.28
710.53	2560.98
710.72	2296.59
710.91	2652.94
711.10	2507.33
711.29	2311.34
711.48	2233.51
711.67	2296.39
711.86	2519.21
712.05	2188.66
712.24	2186.00
712.43	2532.72
712.62	2554.64
712.81	2152.82
713.00	2305.19
713.19	2084.63
713.39	2322.81
713.58	2103.06
713.77	2338.78
713.96	2607.27
714.15	2542.14
714.34	2425.20
714.53	2239.45
714.72	2820.26
714.91	2406.57
715.10	2508.56
715.29	2393.05
715.48	3160.43
715.67	2726.87
715.86	2404.52
716.05	2315.02
716.24	2364.58
716.43	2264.85
716.62	2113.30
716.81	2030.56
717.00	2266.08
717.19	2590.68
717.38	2119.24
717.57	2044.90
717.76	1980.18
717.95	2367.86
718.14	2023.60
718.33	2062.51
718.52	1899.90
718.71	1905.23
718.90	1910.35
719.09	1932.87
719.28	2169.41
719.47	2427.66
719.66	2406.16
719.85	2583.31
720.04	2725.03
720.23	2881.29
720.42	2629.80
720.61	2639.63
720.80	2355.16
720.99	2606.65
721.18	2358.85
721.37	2234.74
721.56	2373.39
721.75	2537.02
721.94	2148.52
722.13	2179.04
722.32	2271.20
722.51	2400.83
722.70	2143.81
722.89	2160.81
723.08	2177.20
723.27	2319.73
723.46	2072.54
723.65	2062.30
723.84	2067.42
724.03	2382.61
724.22	1887.82
724.41	2028.31
724.60	2107.97
724.79	2313.80
724.98	2014.79
725.16	1952.33
725.35	2297.00
725.54	2036.91
725.73	2105.93
725.92	2230.24
726.11	2551.97
726.30	3089.77
726.49	2907.30
726.68	3162.06
726.87	3493.22
727.06	3572.89
727.25	2862.45
727.44	2890.09
727.63	2930.44
727.82	2812.07
728.01	2684.68
728.20	2683.66
728.38	2867.98
728.57	2558.94
728.76	2323.42
728.95	2393.46
729.14	2169.82
729.33	2103.67
729.52	1845.22
729.71	1967.69
729.90	2110.64
730.09	2303.35
730.28	2315.64
730.47	2476.61
730.66	3001.50
730.84	2904.84
731.03	2704.55
731.22	2616.69
731.41	2717.45
731.60	2675.06
731.79	2226.96
731.98	2253.99
732.17	2567.74
732.36	2476.40
732.55	2191.74
732.73	2061.89
732.92	2533.75
733.11	2357.42
733.30	2071.32
733.49	1953.76
733.68	2367.86
733.87	2332.64
734.06	2160.81
734.25	2581.46
734.43	3068.27
734.62	3393.89
734.81	3411.30
735.00	3402.90
735.19	3295.80
735.38	3113.73
735.57	2740.18
735.76	2930.85
735.94	3373.41
736.13	4568.81
736.32	4751.90
736.51	5154.94
736.70	5979.45
736.89	6189.58
737.08	5743.12
737.27	7000.98
737.45	9523.05
737.64	10319.10
737.83	11499.14
738.02	12021.37
738.21	11250.52
738.40	9212.99
738.59	8223.21
738.77	7558.44
738.96	6990.54
739.15	6465.03
739.34	5786.95
739.53	5234.20
739.72	5090.23
739.90	4543.62
740.09	3647.43
740.28	3391.03
740.47	3255.86
740.66	2989.42
740.85	2465.96
741.03	2436.26
741.22	2345.54
741.41	2445.27
741.60	2208.12
741.79	2468.01
741.98	2768.85
742.16	2946.82
742.35	2564.26
742.54	2820.05
742.73	3429.73
742.92	3128.07
743.10	3026.08
743.29	3043.49
743.48	3403.72
743.67	2774.38
743.86	2488.69
744.05	2497.09
744.23	2500.98
744.42	2472.31
744.61	2425.82
744.80	2214.47
744.99	2368.48
745.17	2085.24
745.36	2009.88
745.55	2204.43
745.74	2274.88
745.93	2094.66
746.11	1982.02
746.30	1933.28
746.49	2388.14
746.68	2014.38
746.86	2068.24
747.05	2041.82
747.24	2366.63
747.43	2464.32
747.62	2140.74
747.80	2256.04
747.99	2748.17
748.18	2652.12
748.37	2357.42
748.56	2364.99
748.74	2647.00
748.93	2554.23
749.12	3033.45
749.31	4758.66
749.49	6267.81
749.68	7285.24
749.87	8207.44
750.06	8492.93
750.24	8843.54
750.43	9761.64
750.62	11029.34
750.81	11977.34
750.99	12804.31
751.18	12636.38
751.37	10438.09
751.56	8838.62
751.74	8909.28
751.93	8191.47
752.12	6703.41
752.31	6023.08
752.49	5572.11
752.68	5322.06
752.87	4383.68
753.06	3958.11
753.24	3577.39
753.43	3456.77
753.62	2715.81
753.81	2505.48
753.99	2834.59
754.18	2516.13
754.37	2192.96
754.55	2168.80
754.74	2616.89
754.93	1984.89
755.12	2038.55
755.30	1981.20
755.49	2420.29
755.68	2250.31
755.86	2126.61
756.05	1908.91
756.24	2460.84
756.43	2008.65
756.61	1953.15
756.80	2091.59
756.99	2418.24
757.17	2216.72
757.36	1993.08
757.55	2070.70
757.74	2311.34
757.92	2226.55
758.11	1957.04
758.30	1872.05
758.48	2191.74
758.67	2025.65
758.86	2089.75
759.04	2003.32
759.23	2137.67
759.42	2223.27
759.60	1989.60
759.79	2059.44
759.98	2120.26
760.16	2084.42
760.35	1976.09
760.54	1909.94
760.73	2250.72
760.91	1995.34
761.10	2026.26
761.29	2133.37
761.47	2216.72
761.66	2614.64
761.85	2175.35
762.03	2642.90
762.22	4794.91
762.41	11404.32
762.59	18407.35
762.78	22124.62
762.97	26990.59
763.15	28961.35
763.34	25848.64
763.52	18877.15
763.71	17736.02
763.90	16152.12
764.08	14956.32
764.27	13757.43
764.46	12801.24
764.64	11142.18
764.83	9873.87
765.02	8687.89
765.20	7561.72
765.39	6270.47
765.58	4654.01
765.76	3852.43
765.95	3396.76
766.13	3000.68
766.32	2562.42
766.51	2428.69
766.69	3269.99
766.88	2510.60
767.07	2090.77
767.25	1960.52
767.44	2450.80
767.62	2473.13
767.81	2048.38
768.00	2130.91
768.18	2287.17
768.37	2220.20
768.56	1969.53
768.74	2040.39
768.93	2059.03
769.11	2320.55
769.30	2124.36
769.49	2017.04
769.67	2199.72
769.86	2147.50
770.04	2063.12
770.23	2018.48
770.42	2413.74
770.60	2170.64
770.79	1961.75
770.97	2145.04
771.16	3342.08
771.35	5309.15
771.53	6962.48
771.72	8113.23
771.90	9537.39
772.09	10216.91
772.27	8796.84
772.46	6760.96
772.65	6861.51
772.83	6271.29
773.02	5914.33
773.20	5314.27
773.39	5266.97
773.58	4866.59
773.76	4131.98
773.95	3812.70
774.13	3712.56
774.32	3239.89
774.50	2728.71
774.69	2526.99
774.87	2399.81
775.06	2723.18
775.25	2054.73
775.43	2045.31
775.62	2235.15
775.80	2285.53
775.99	2078.48
776.17	2048.38
776.36	2277.75
776.54	2486.23
776.73	2152.21
776.92	2228.39
777.10	2531.08
777.29	2344.31
777.47	2064.56
777.66	2069.06
777.84	2275.91
778.03	2220.41
778.21	1994.11
778.40	2115.76
778.58	2280.41
778.77	2424.79
778.95	1924.07
779.14	2003.12
779.32	2519.00
779.51	2379.74
779.70	1980.59
779.88	1881.26
780.07	2071.52
780.25	2614.64
780.44	2022.37
780.62	2085.65
780.81	2297.62
780.99	2240.68
781.18	1966.25
781.36	1929.80
781.55	2126.82
781.73	2400.63
781.92	1842.35
782.10	1911.78
782.29	2259.11
782.47	2441.79
782.66	1958.47
782.84	1855.25
783.03	2046.94
783.21	2352.50
783.40	1934.92
783.58	1950.28
783.77	2037.93
783.95	2122.31
784.14	1899.49
784.32	2030.15
784.51	2418.45
784.69	2127.84
784.88	1994.52
785.06	2145.04
785.24	2090.36
785.43	2442.41
785.61	2158.97
785.80	2047.35
785.98	2391.21
786.17	2263.01
786.35	2031.18
786.54	2209.96
786.72	2404.11
786.91	2426.23
787.09	2038.96
787.28	1965.64
787.46	2225.53
787.65	2356.60
787.83	1912.39
788.01	2128.45
788.20	2175.56
788.38	2393.67
788.57	2240.27
788.75	2252.56
788.94	2742.64
789.12	2569.18
789.31	2195.83
789.49	2283.49
789.67	2224.30
789.86	2388.75
790.04	2120.26
790.23	2039.98
790.41	2735.27
790.60	2320.76
790.78	2162.65
790.96	2167.37
791.15	2438.72
791.33	2247.44
791.52	2090.57
791.70	1961.54
791.89	2248.87
792.07	2359.67
792.25	2087.08
792.44	1933.28
792.62	2379.74
792.81	2106.54
792.99	2058.00
793.17	2013.77
793.36	2180.27
793.54	3011.54
793.73	4063.58
793.91	5677.17
794.10	6942.61
794.28	8100.33
794.46	8135.35
794.65	7799.89
794.83	6237.50
795.01	5815.62
795.20	5555.73
795.38	5206.96
795.57	5057.25
795.75	4846.72
795.93	4298.89
796.12	3983.50
796.30	3990.26
796.49	3694.54
796.67	3088.54
796.85	2995.77
797.04	2856.92
797.22	2755.13
797.40	2235.77
797.59	2283.69
797.77	2375.85
797.96	2170.23
798.14	2049.40
798.32	2089.95
798.51	2371.34
798.69	2575.12
798.87	2066.40
799.06	2045.31
799.24	2069.27
799.42	2882.93
799.61	3588.45
799.79	4366.27
799.98	5362.61
800.16	5751.11
800.34	7322.10
800.53	9351.43
800.71	10059.42
800.89	11885.59
801.08	12112.10
801.26	11990.04
801.44	9962.55
801.63	8205.19
801.81	7994.25
801.99	7215.20
802.18	6878.92
802.36	6513.97
802.54	5876.44
802.73	5126.48
802.91	4830.54
803.09	4395.35
803.28	3948.89
803.46	3584.15
803.64	3557.94
803.83	2795.68
804.01	2521.87
804.19	2343.49
804.38	2727.28
804.56	2599.90
804.74	2353.12
804.92	2353.73
805.11	2293.93
805.29	2559.55
805.47	2162.86
805.66	2098.96
805.84	2183.75
806.02	2522.28
806.21	2107.56
806.39	2354.14
806.57	2476.40
806.76	2463.71
806.94	2222.66
807.12	2202.59
807.30	2312.57
807.49	2501.80
807.67	2362.74
807.85	2433.60
808.04	2570.20
808.22	2781.55
808.40	2089.34
808.58	2013.56
808.77	2415.99
808.95	2774.79
809.13	3238.04
809.31	6206.78
809.50	9456.29
809.68	11166.55
809.86	12598.28
810.05	13779.96
810.23	15013.25
810.41	19593.74
810.59	31026.73
810.78	38012.35
810.96	43853.36
811.14	47466.80
811.32	46390.59
811.51	37132.75
811.69	29821.09
811.87	29281.65
812.05	25442.73
812.24	23838.15
812.42	21942.76
812.60	19536.60
812.78	16428.60
812.97	13959.36
813.15	12501.42
813.33	10633.46
813.51	8926.28
813.70	7095.80
813.88	5739.43
814.06	4719.34
814.24	3678.56
814.42	2931.46
814.61	2922.04
814.79	2963.62
814.97	2199.93
815.15	2195.83
815.34	2416.40
815.52	2523.92
815.70	2014.59
815.88	2095.69
816.06	2120.88
816.25	2173.92
816.43	2048.58
816.61	2180.27
816.79	2512.86
816.98	2075.41
817.16	2078.28
817.34	2115.96
817.52	2412.51
817.70	2618.94
817.89	2188.05
818.07	2024.01
818.25	2235.77
818.43	2303.15
818.61	2082.17
818.80	2034.66
818.98	2519.21
819.16	2251.54
819.34	1938.20
819.52	2282.87
819.70	2081.56
819.89	2168.80
820.07	1906.86
820.25	1860.37
820.43	2224.09
820.61	2337.14
820.80	2004.35
820.98	1858.12
821.16	1889.46
821.34	1931.64
821.52	1950.08
821.70	2101.42
821.89	2151.19
822.07	2109.61
822.25	2025.65
822.43	1922.22
822.61	2420.70
822.79	2182.73
822.98	1982.84
823.16	1815.11
823.34	2177.61
823.52	2366.22
823.70	2031.99
823.88	1783.78
824.06	2267.72
824.25	2151.80
824.43	2146.68
824.61	2031.59
824.79	2319.12
824.97	2416.40
825.15	2473.33
825.33	3298.05
825.52	4614.07
825.70	5158.22
825.88	5539.96
826.06	6049.70
826.24	6379.63
826.42	5688.23
826.60	4534.61
826.78	4599.53
826.97	4210.42
827.15	4370.98
827.33	3693.10
827.51	3654.19
827.69	3436.70
827.87	3291.50
828.05	3011.54
828.23	2730.97
828.41	2987.17
828.60	2823.94
828.78	2270.99
828.96	2395.92
829.14	2235.36
829.32	2215.49
829.50	2069.06
829.68	2038.34
829.86	2123.74
830.04	2296.59
830.22	2161.22
830.41	1928.78
830.59	2132.96
830.77	2287.58
830.95	1934.72
831.13	1939.02
831.31	2033.84
831.49	2313.80
831.67	2137.26
831.85	2098.76
832.03	2106.34
832.21	2295.36
832.39	1896.01
832.57	1970.76
832.76	2358.85
832.94	2195.01
833.12	1887.00
833.30	1975.88
833.48	2350.04
833.66	2243.34
833.84	1954.99
834.02	2011.92
834.20	2320.96
834.38	2306.83
834.56	1826.99
834.74	1937.38
834.92	1981.61
835.10	2468.42
835.28	2012.13
835.46	2030.15
835.64	2145.04
835.82	2029.54
836.01	2243.34
836.19	2181.50
836.37	2067.63
836.55	1977.93
836.73	1909.32
836.91	1899.70
837.09	2287.79
837.27	2391.41
837.45	1896.83
837.63	1928.37
837.81	2032.20
837.99	2237.61
838.17	2153.03
838.35	2128.04
838.53	2756.98
838.71	2548.08
838.89	2233.51
839.07	2248.67
839.25	2468.83
839.43	2656.42
839.61	2919.99
839.79	4919.22
839.97	7451.33
840.15	8746.46
840.33	9711.06
840.51	10346.13
840.69	10158.13
840.87	8216.04
841.05	7175.47
841.23	7818.33
841.41	10090.14
841.59	14199.39
841.77	15881.18
841.95	17404.87
842.13	18597.19
842.31	17772.48
842.49	14188.12
842.67	11683.66
842.85	11610.55
843.03	10028.90
843.21	9312.73
843.39	8647.34
843.57	7862.36
843.75	7093.75
843.93	5946.07
844.11	5267.79
844.29	4945.43
844.47	4471.13
844.65	4164.75
844.83	3594.39
845.01	3299.28
845.19	3137.08
845.36	2583.92
845.54	2421.31
845.72	2404.52
845.90	2429.71
846.08	1988.17
846.26	2105.11
846.44	2286.97
846.62	2248.46
846.80	2089.95
846.98	1927.96
847.16	2113.71
847.34	2190.51
847.52	1914.85
847.70	1820.03
847.88	2102.44
848.06	2361.72
848.24	2064.35
848.41	1865.09
848.59	2331.82
848.77	2200.34
848.95	1940.86
849.13	1938.20
849.31	2271.81
849.49	2173.30
849.67	1898.67
849.85	1870.00
850.03	2164.70
850.21	2159.79
850.39	1855.87
850.57	2067.63
850.74	2390.39
850.92	2544.40
851.10	2819.03
851.28	3570.43
851.46	4326.13
851.64	5066.67
851.82	4770.33
852.00	4809.86
852.18	4582.94
852.36	4042.69
852.53	3632.28
852.71	3480.32
852.89	3559.57
853.07	3431.58
853.25	2977.13
853.43	2787.08
853.61	2940.68
853.79	2822.51
853.97	2413.33
854.14	2351.27
854.32	2712.94
854.50	2525.96
854.68	2174.74
854.86	2085.86
855.04	2095.07
855.22	2343.90
855.40	1830.06
855.57	1944.14
855.75	2281.23
855.93	2213.85
856.11	1833.14
856.29	1937.79
856.47	2039.57
856.65	2140.33
856.82	1857.92
857.00	1850.34
857.18	2105.93
857.36	2044.28
857.54	2050.43
857.72	2103.67
857.89	2256.66
858.07	2149.75
858.25	2103.67
858.43	1825.15
858.61	2064.15
858.79	2097.12
858.97	1844.81
859.14	1993.70
859.32	2067.83
859.50	2054.32
859.68	2084.01
859.86	1997.18
860.03	2281.03
860.21	2406.77
860.39	2077.46
860.57	2211.81
860.75	2288.61
860.93	2552.59
861.10	2243.55
861.28	2057.80
861.46	2307.65
861.64	2354.96
861.82	2082.17
861.99	2181.91
862.17	2373.60
862.35	2344.72
862.53	2040.60
862.71	1998.41
862.88	2224.09
863.06	2299.25
863.24	1962.16
863.42	1902.36
863.60	2082.99
863.77	2194.60
863.95	1802.21
864.13	1920.18
864.31	2070.09
864.49	2200.13
864.66	1828.84
864.84	1838.67
865.02	2156.31
865.20	2594.57
865.37	1985.10
865.55	1883.52
865.73	2006.80
865.91	2491.97
866.09	2446.50
866.26	2408.00
866.44	2770.08
866.62	2613.82
866.80	2311.13
866.97	2278.57
867.15	2411.89
867.33	2459.61
867.51	2275.09
867.68	2224.71
867.86	2275.09
868.04	2224.71
868.22	1902.97
868.39	2024.83
868.57	2268.74
868.75	2450.19
868.93	1882.90
869.10	1940.25
869.28	2459.00
869.46	2382.40
869.64	1963.80
869.81	1929.39
869.99	2141.77
870.17	2141.15
870.35	1866.52
870.52	1919.97
870.70	2265.46
870.88	2016.43
871.05	1872.25
871.23	1752.86
871.41	2119.85
871.59	2105.72
871.76	1912.80
871.94	1847.47
872.12	2085.04
872.29	1894.78
872.47	1904.61
872.65	1822.69
872.83	2148.32
873.00	2378.31
873.18	1968.71
873.36	1909.73
873.53	2268.53
873.71	1906.04
873.89	1829.66
874.06	1939.02
874.24	2205.87
874.42	2328.13
874.60	2048.99
874.77	1987.96
874.95	1985.51
875.13	2306.01
875.30	1962.16
875.48	1941.88
875.66	2463.30
875.83	2109.61
876.01	1998.82
876.19	2104.90
876.36	2005.17
876.54	2173.30
876.72	1889.25
876.89	2055.96
877.07	2267.31
877.25	1851.57
877.42	1964.41
877.60	1930.62
877.78	2431.76
877.95	2026.67
878.13	1850.75
878.31	2050.63
878.48	2256.04
878.66	2217.13
878.84	1882.29
879.01	1908.50
879.19	2207.30
879.37	2223.89
879.54	1929.60
879.72	1802.83
879.90	1829.45
880.07	2235.77
880.25	1671.55
880.42	2066.20
880.60	2122.72
880.78	2249.69
880.95	1863.04
881.13	1961.34
881.31	2087.08
881.48	1998.82
881.66	1869.18
881.83	2024.42
882.01	1982.84
882.19	1892.73
882.36	1915.06
882.54	1861.60
882.72	2211.81
882.89	2094.87
883.07	1852.39
883.24	1878.81
883.42	2248.46
883.60	2123.54
883.77	1862.22
883.95	1998.41
884.12	2381.17
884.30	2305.81
884.48	2205.87
884.65	2170.23
884.83	2372.37
885.00	2356.60
885.18	1967.07
885.36	2032.20
885.53	2338.78
885.71	2427.87
885.88	1880.65
886.06	1912.39
886.23	2249.69
886.41	2081.35
886.59	1897.85
886.76	1841.74
886.94	2208.12
887.11	2601.94
887.29	1940.86
887.47	1837.03
887.64	2317.69
887.82	2332.23
887.99	1744.25
888.17	1924.07
888.34	2004.35
888.52	1907.27
888.69	1841.74
888.87	1798.32
889.05	2029.13
889.22	2023.60
889.40	1894.37
889.57	2103.06
889.75	2332.23
889.92	2034.86
890.10	1785.83
890.27	1919.36
890.45	1970.56
890.62	1812.04
890.80	1803.03
890.98	1718.25
891.15	2358.24
891.33	2241.91
891.50	1830.68
891.68	1763.51
891.85	2200.34
892.03	2200.75
892.20	1856.69
892.38	1797.09
892.55	2180.88
892.73	2208.53
892.90	1737.29
893.08	1828.63
893.25	1982.02
893.43	1998.61
893.60	1947.82
893.78	1697.36
893.95	2125.18
894.13	2067.22
894.30	1836.82
894.48	1877.78
894.65	2227.99
894.83	2105.31
895.00	1722.55
895.18	1729.51
895.35	2258.09
895.53	2225.53
895.70	1806.92
895.88	2081.35
896.05	2224.50
896.23	1934.72
896.40	1933.90
896.58	1974.04
896.75	2250.31
896.93	2366.43
897.10	1889.46
897.28	1780.09
897.45	2168.39
897.63	2183.54
897.80	1982.64
897.98	1868.16
898.15	2182.32
898.33	2027.90
898.50	1916.28
898.67	1911.98
898.85	2104.49
899.02	2194.60
899.20	2128.86
899.37	1895.40
899.55	2109.82
899.72	2332.64
899.90	1866.31
900.07	1838.87
900.25	2176.17
900.42	2253.38
900.59	1858.74
900.77	1983.05
900.94	2172.49
901.12	2130.30
901.29	1876.14
901.47	1991.65
901.64	2169.41
901.82	2099.99
901.99	1676.47
902.16	1849.11
902.34	2294.75
902.51	2124.36
902.69	1835.80
902.86	1887.20
903.03	2704.34
903.21	2102.24
903.38	1837.03
903.56	1831.50
903.73	2249.49
903.91	2027.28
904.08	1831.09
904.25	1728.49
904.43	1978.75
904.60	2207.10
904.78	1863.86
904.95	1832.52
905.12	2054.93
905.30	2394.89
905.47	2011.92
905.65	2114.73
905.82	2175.76
905.99	2332.02
906.17	2049.81
906.34	2027.08
906.52	2165.73
906.69	2434.42
906.86	2183.54
907.04	2176.58
907.21	2461.45
907.38	2443.43
907.56	1962.77
907.73	1928.57
907.91	2422.13
908.08	2354.96
908.25	1946.59
908.43	1837.44
908.60	2227.78
908.77	2178.42
908.95	1931.44
909.12	1860.37
909.30	2248.26
909.47	1903.38
909.64	1954.38
909.82	2075.21
909.99	2085.45
910.16	2123.95
910.34	1861.40
910.51	1862.01
910.68	2124.77
910.86	2134.39
911.03	1921.61
911.20	2420.70
911.38	4095.53
911.55	6142.68
911.72	6918.04
911.90	7506.83
912.07	8341.79
912.24	8186.96
912.42	6296.68
912.59	4742.28
912.76	4659.74
912.94	3937.63
913.11	3471.92
913.28	3107.18
913.46	3067.65
913.63	3121.10
913.80	3106.56
913.98	2669.73
914.15	2999.86
914.32	2987.78
914.49	2615.87
914.67	2431.14
914.84	2691.85
915.01	2749.60
915.19	2471.49
915.36	2288.40
915.53	2571.43
915.71	2439.34
915.88	2131.94
916.05	1979.57
916.22	2314.41
916.40	2187.44
916.57	1802.01
916.74	2039.98
916.92	2389.16
917.09	1949.67
917.26	1847.27
917.43	1802.01
917.61	2050.02
917.78	1883.11
917.95	1827.81
918.13	1815.52
918.30	2485.01
918.47	2153.85
918.64	1910.14
918.82	1911.57
918.99	2265.26
919.16	2628.36
919.33	2196.04
919.51	2193.37
919.68	2342.47
919.85	2523.30
920.02	1899.90
920.20	2011.51
920.37	2478.04
920.54	2322.60
920.71	1888.23
920.89	1928.37
921.06	2460.63
921.23	2028.72
921.40	2025.44
921.58	2586.17
921.75	3653.78
921.92	3162.47
922.09	3274.09
922.27	3235.59
922.44	3286.38
922.61	2992.90
922.78	2392.03
922.96	2335.50
923.13	2406.57
923.30	2547.47
923.47	2022.98
923.64	2064.97
923.82	2372.37
923.99	2337.96
924.16	2160.20
924.33	1974.86
924.50	2241.09
924.68	2494.63
924.85	1943.32
925.02	2031.79
925.19	2364.99
925.36	2277.34
925.54	2029.95
925.71	2042.85
925.88	2736.50
926.05	2126.00
926.22	1902.56
926.40	2002.71
926.57	2190.10
926.74	2231.26
926.91	1867.95
927.08	2013.97
927.26	2254.20
927.43	2128.04
927.60	1836.00
927.77	1892.53
927.94	2383.43
928.11	2326.90
928.29	1766.78
928.46	1943.52
928.63	2016.23
928.80	2080.94
928.97	1999.43
929.14	1899.90
929.32	2486.23
929.49	2118.83
929.66	1831.09
929.83	1776.00
930.00	1983.87
930.17	2169.62
930.35	1804.47
930.52	1848.50
930.69	2328.54
930.86	1915.06
931.03	1894.78
931.20	1689.16
931.37	2290.04
931.55	2068.65
931.72	1923.45
931.89	1783.99
932.06	1888.23
932.23	2389.57
932.40	1958.47
932.57	1987.76
932.74	2295.57
932.92	2304.99
933.09	2038.75
933.26	1623.42
933.43	2023.19
933.60	2148.73
933.77	1910.35
933.94	1941.88
934.11	2064.76
934.29	2110.23
934.46	1824.54
934.63	2020.12
934.80	1948.23
934.97	2137.46
935.14	1968.51
935.31	1807.54
935.48	2014.18
935.65	2183.75
935.82	1960.52
936.00	1802.83
936.17	2366.63
936.34	2090.36
936.51	1967.28
936.68	1800.57
936.85	2158.97
937.02	2157.33
937.19	1985.92
937.36	1922.84
937.53	2198.08
937.70	2243.75
937.87	1866.72
938.05	1996.36
938.22	2129.27
938.39	1920.38
938.56	1891.71
938.73	1786.24
938.90	2050.43
939.07	1967.89
939.24	1962.16
939.41	1723.98
939.58	2189.89
939.75	2186.21
939.92	1873.28
940.09	2143.20
940.26	2063.12
940.43	2267.31
940.60	1899.29
940.77	1866.72
940.95	2132.75
941.12	2236.38
941.29	1880.44
941.46	1867.95
941.63	2323.22
941.80	2335.30
941.97	1763.30
942.14	1723.78
942.31	2207.10
942.48	2063.94
942.65	1979.57
942.82	1902.36
942.99	2189.28
943.16	2087.08
943.33	1750.19
943.50	1817.57
943.67	2233.92
943.84	2269.35
944.01	1844.61
944.18	1834.98
944.35	2323.01
944.52	1953.56
944.69	1920.59
944.86	1755.52
945.03	2243.96
945.20	2587.81
945.37	1772.11
945.54	1969.53
945.71	2379.94
945.88	2441.38
946.05	1865.29
946.22	1829.25
946.39	2333.66
946.56	2087.70
946.73	1755.52
946.90	1827.40
947.07	2011.51
947.24	2065.79
947.41	1729.92
947.58	1986.32
947.75	2230.85
947.92	2155.69
948.09	1661.11
948.26	1739.34
948.43	2120.06
948.60	2430.12
948.77	1810.61
948.94	1858.94
949.11	2215.90
949.27	2147.91
949.44	1836.00
949.61	1773.54
949.78	2156.10
949.95	2273.65
950.12	1732.38
950.29	1731.35
950.46	1982.64
950.63	2279.80
950.80	1774.16
950.97	1849.93
951.14	2235.97
951.31	2015.82
951.48	1792.59
951.65	1745.89
951.82	2419.27
951.99	2118.21
952.15	1728.69
952.32	1838.05
952.49	1984.48
952.66	2034.04
952.83	1818.80
953.00	1781.53
953.17	2076.85
953.34	2233.31
953.51	1879.42
953.68	1880.65
953.85	2290.24
954.02	2281.44
954.18	1871.02
954.35	1841.94
954.52	1947.41
954.69	2118.01
954.86	1716.81
955.03	1913.21
955.20	2196.45
955.37	2061.08
955.54	1831.91
955.71	1791.97
955.87	2138.28
956.04	2366.43
956.21	1826.38
956.38	1786.85
956.55	2079.30
956.72	2523.10
956.89	1906.45
957.06	1765.96
957.23	1955.81
957.39	2299.66
957.56	1880.85
957.73	1757.98
957.90	1740.57
958.07	2406.57
958.24	1873.48
958.41	1838.87
958.57	2230.24
958.74	2067.63
958.91	1756.13
959.08	1776.41
959.25	2202.39
959.42	2045.51
959.59	1870.00
959.75	1865.09
959.92	2292.29
960.09	2266.28
960.26	1819.62
960.43	1908.30
960.60	2116.99
960.76	2057.18
960.93	1735.86
961.10	1889.66
961.27	2248.87
961.44	2035.07
961.61	1733.20
961.77	1719.06
961.94	2106.75
962.11	2245.60
962.28	1821.87
962.45	1731.35
962.62	2030.36
962.78	2239.04
962.95	1721.32
963.12	1816.14
963.29	2191.94
963.46	2571.84
963.62	1907.27
963.79	1831.09
963.96	2507.12
964.13	2026.87
964.30	1920.59
964.46	1843.38
964.63	1964.41
964.80	2624.47
964.97	1872.46
965.14	2231.67
965.30	2502.00
965.47	2579.62
965.64	2369.30
965.81	2295.16
965.98	2637.17
966.14	2327.31
966.31	2014.18
966.48	1983.25
966.65	2511.01
966.81	2309.70
966.98	1974.24
967.15	1969.33
967.32	2216.93
967.49	2070.09
967.65	1825.35
967.82	1783.99
967.99	2141.36
968.16	1932.46
968.32	2079.51
968.49	1871.84
968.66	2100.60
968.83	2419.47
968.99	2000.25
969.16	1847.06
969.33	2339.19
969.50	2209.55
969.66	1996.16
969.83	2129.89
970.00	2232.70
970.17	2204.43
970.33	1878.40
970.50	1760.84
970.67	2379.33
970.84	2324.03
971.00	1773.54
971.17	1752.04
971.34	2200.75
971.50	2082.99
971.67	1938.81
971.84	1835.80
972.01	1916.28
972.17	1744.46
972.34	1742.21
972.51	1969.33
972.67	2279.80
972.84	2118.83
973.01	1780.30
973.18	1822.08
973.34	2232.90
973.51	1933.08
973.68	1853.62
973.84	1877.78
974.01	2027.28
974.18	2376.26
974.34	1897.03
974.51	1906.25
974.68	1967.48
974.85	2425.00
975.01	1930.01
975.18	1826.17
975.35	2101.63
975.51	1918.54
975.68	1699.81
975.85	2002.30
976.01	1964.82
976.18	2328.95
976.35	1823.51
976.51	1850.54
976.68	2362.54
976.85	2269.76
977.01	1847.68
977.18	1915.26
977.35	2212.22
977.51	1912.39
977.68	1690.39
977.85	1806.51
978.01	2308.88
978.18	2253.79
978.35	1951.92
978.51	1938.61
978.68	2326.90
978.85	2411.48
979.01	1916.90
979.18	1899.49
979.34	2089.13
979.51	2143.61
979.68	1818.19
979.84	1905.43
980.01	2544.40
980.18	2113.71
980.34	1812.04
980.51	1919.56
980.67	2271.61
980.84	2245.19
981.01	1867.13
981.17	1914.24
981.34	1822.08
981.51	2217.75
981.67	1813.48
981.84	1917.10
982.00	2162.25
982.17	2100.81
982.34	1696.74
982.50	1601.10
982.67	2366.84
982.83	2015.41
983.00	1737.91
983.17	1620.56
983.33	2252.15
983.50	1831.09
983.66	1719.27
983.83	1646.77
984.00	2021.75
984.16	2091.39
984.33	1607.45
984.49	1602.13
984.66	1954.99
984.83	2231.67
984.99	1664.79
985.16	1590.66
985.32	2219.18
985.49	2228.19
985.65	1744.05
985.82	1629.36
985.99	2340.42
986.15	2119.44
986.32	1757.36
986.48	1689.78
986.65	1995.54
986.81	2184.16
986.98	1628.34
987.14	1711.69
987.31	2092.20
987.48	1845.42
987.64	1576.12
987.81	1586.15
987.97	2466.98
988.14	1952.33
988.30	1640.42
988.47	1505.26
988.63	2142.38
988.80	1918.33
988.96	1724.18
989.13	1739.34
989.30	2025.44
989.46	2230.03
989.63	1571.20
989.79	1588.61
989.96	2065.79
990.12	2338.17
990.29	1644.52
990.45	1716.40
990.62	2094.46
990.78	2329.36
990.95	1726.44
991.11	1679.33
991.28	1990.01
991.44	2124.36
991.61	1544.99
991.77	1747.53
991.94	2118.01
992.10	2299.05
992.27	1699.61
992.43	1686.91
992.60	2172.08
992.76	2027.69
992.93	1850.13
993.09	1583.90
993.26	2241.50
993.42	2394.28
993.59	1632.44
993.75	1569.36
993.92	1962.98
994.08	1966.25
994.25	1738.93
994.41	1609.70
994.58	2173.71
994.74	2317.28
994.91	1624.45
995.07	1748.35
995.24	2060.26
995.40	2055.34
995.56	1815.93
995.73	1746.10
995.89	2361.51
996.06	2045.51
996.22	1647.39
996.39	1584.92
996.55	2047.56
996.72	2130.71
996.88	1587.38
997.05	1618.71
997.21	2418.65
997.37	2181.29
997.54	1723.37
997.70	1687.32
997.87	2120.26
998.03	2058.00
998.20	1556.25
998.36	1556.05
998.52	2181.29
998.69	2232.08
998.85	1586.97
999.02	1670.53
999.18	2248.06
999.35	2228.80
999.51	1738.11
999.67	1667.46
999.84	1901.54
1000.00	2185.59
1000.17	1750.40
1000.33	1654.14
1000.49	1985.10
1000.66	2050.22
1000.82	1658.45
1000.99	1727.67
1001.15	2271.20
1001.31	2014.38
1001.48	1665.00
1001.64	1726.44
1001.81	2038.96
1001.97	2444.87
1002.13	1666.64
1002.30	1712.72
1002.46	2306.22
1002.63	2021.55
1002.79	1743.64
1002.95	1639.60
1003.12	2245.80
1003.28	2168.18
1003.45	1656.81
1003.61	1628.54
1003.77	2105.11
1003.94	1880.04
1004.10	1671.96
1004.26	1743.44
1004.43	2181.50
1004.59	2395.30
1004.75	1671.76
1004.92	1651.28
1005.08	2019.71
1005.25	2163.47
1005.41	1692.65
1005.57	1789.72
1005.74	2342.88
1005.90	2048.58
1006.06	1828.22
1006.23	1689.16
1006.39	2232.49
1006.55	2602.56
1006.72	1819.42
1006.88	1592.09
1007.04	1979.36
1007.21	2061.08
1007.37	1693.26
1007.53	1664.79
1007.70	2376.05
1007.86	2235.15
1008.02	1776.61
1008.19	1631.62
1008.35	2119.85
1008.51	1934.10
1008.68	1663.57
1008.84	1622.61
1009.00	1925.30
1009.17	2290.24
1009.33	1855.66
1009.49	1763.30
1009.65	1964.21
1009.82	2171.05
1009.98	1723.37
1010.14	1577.14
1010.31	2211.40
1010.47	2182.52
1010.63	1715.58
1010.80	1726.03
1010.96	2185.18
1011.12	2046.74
1011.28	1697.15
1011.45	1629.16
1011.61	2567.54
1011.77	1931.44
1011.94	1655.17
1012.10	1618.71
1012.26	1927.75
1012.42	1985.92
1012.59	1716.40
1012.75	1726.23
1012.91	2064.35
1013.07	2244.37
1013.24	1612.37
1013.40	1655.17
1013.56	2103.67
1013.72	2061.89
1013.89	1719.68
1014.05	1746.10
1014.21	2420.08
1014.37	2523.71
1014.54	1704.93
1014.70	1604.99
1014.86	2032.61
1015.02	1890.28
1015.19	1659.88
1015.35	1625.47
1015.51	2028.51
1015.67	2010.08
1015.84	1655.78
1016.00	1683.43
1016.16	2250.92
1016.32	2199.11
1016.49	1662.13
1016.65	1614.00
1016.81	2041.82
1016.97	2193.58
1017.14	1789.52
1017.30	1671.14
1017.46	1994.31
1017.62	2110.02
1017.78	1737.29
1017.95	1663.57
1018.11	2231.47
1018.27	2494.02
1018.43	1812.66
1018.59	1732.99
1018.76	2211.81
1018.92	2514.29
1019.08	1649.02
1019.24	1666.43
1019.40	2263.62
1019.57	2126.82
1019.73	1769.04
1019.89	1684.25
1020.05	2105.31
1020.21	2450.60
1020.38	1641.65
1020.54	1837.64
1020.70	2182.11
1020.86	2176.38
1021.02	1666.02
1021.18	1658.45
1021.35	2000.46
1021.51	2155.69
1021.67	1827.61
1021.83	1693.67
1021.99	2060.87
1022.15	2128.66
1022.32	1752.86
1022.48	1703.50
1022.64	2301.71
1022.80	2356.60
1022.96	1724.59
1023.12	1593.32
1023.29	2270.79
1023.45	2132.14
1023.61	1647.80
1023.77	1893.76
1023.93	2107.56
1024.09	1945.57
1024.25	1633.26
1024.42	1597.01
1024.58	1997.59
1024.74	2129.48
1024.90	1670.94
1025.06	1728.28
1025.22	1985.92
1025.38	2364.18
1025.54	1617.49
1025.71	1781.32
1025.87	2167.77
1026.03	2166.96
1026.19	1612.78
1026.35	1841.94
1026.51	2175.97
1026.67	2100.40
1026.83	1696.54
1026.99	1841.12
1027.16	2152.21
1027.32	2046.13
1027.48	1671.14
1027.64	1629.16
1027.80	2189.89
1027.96	2115.35
1028.12	1675.24
1028.28	1641.86
1028.44	2119.85
1028.60	2361.10
1028.77	1803.03
1028.93	1752.86
1029.09	2015.41
1029.25	1900.92
1029.41	1738.32
1029.57	1756.54
1029.73	2150.57
1029.89	2351.89
1030.05	1784.40
1030.21	1751.63
1030.37	2508.15
1030.53	2194.60
1030.69	1735.24
1030.85	1596.60
1031.02	1930.62
1031.18	2076.64
1031.34	1676.06
1031.50	1774.97
1031.66	1961.54
1031.82	2346.56
1031.98	1711.08
1032.14	1586.15
1032.30	1946.18
1032.46	2232.49
1032.62	1790.95
1032.78	1602.33
1032.94	1988.99
1033.10	2024.42
1033.26	1740.77
1033.42	1812.45
1033.58	2496.88
1033.74	1986.32
1033.90	1663.36
1034.06	1847.47
1034.22	2462.27
1034.38	2272.84
1034.54	1713.95
1034.70	1723.16
1034.86	2432.37
>>>>>End Processed Spectral Data<<<<<
