SpectraSuite Data File
++++++++++++++++++++++++++++++++++++
Date: Thu Mar 30 16:29:28 PDT 2017
User: UCSD _CER
Dark Spectrum Present: No
Reference Spectrum Present: No
Number of Sampled Component Spectra: 1
Spectrometers: USB4C00073
Integration Time (usec): 250000 (USB4C00073)
Spectra Averaged: 10 (USB4C00073)
Boxcar Smoothing: 0 (USB4C00073)
Correct for Electrical Dark: No (USB4C00073)
Strobe/Lamp Enabled: No (USB4C00073)
Correct for Detector Non-linearity: No (USB4C00073)
Correct for Stray Light: No (USB4C00073)
Number of Pixels in Processed Spectrum: 3648
>>>>>Begin Processed Spectral Data<<<<<
345.37	1286.74
345.58	1286.74
345.80	1286.74
346.01	1271.17
346.22	1282.23
346.43	1967.69
346.65	1756.13
346.86	2127.84
347.07	2110.02
347.28	1783.78
347.50	1807.95
347.71	1904.41
347.92	1744.25
348.13	1798.53
348.35	1719.68
348.56	1905.63
348.77	1772.52
348.98	1791.97
349.20	1684.04
349.41	1917.51
349.62	2003.73
349.83	1880.04
350.05	1764.33
350.26	1973.63
350.47	2094.46
350.68	1797.50
350.90	1734.63
351.11	2131.12
351.32	2088.72
351.53	1844.20
351.75	1751.22
351.96	1988.58
352.17	1929.19
352.38	1877.58
352.60	1886.59
352.81	1944.34
353.02	2152.82
353.23	1826.17
353.44	1831.50
353.66	1874.51
353.87	1909.53
354.08	1918.95
354.29	1824.74
354.51	1842.35
354.72	1904.00
354.93	1789.52
355.14	1734.83
355.35	1748.15
355.57	2057.39
355.78	1841.53
355.99	1881.88
356.20	1957.04
356.42	1931.64
356.63	1913.62
356.84	1874.92
357.05	2045.31
357.26	2198.90
357.48	1928.78
357.69	1857.10
357.90	2010.08
358.11	1898.26
358.32	1842.76
358.54	1891.50
358.75	1870.61
358.96	2035.27
359.17	1846.65
359.38	1819.83
359.60	2054.93
359.81	1903.38
360.02	1797.71
360.23	1766.37
360.44	1852.80
360.66	2067.42
360.87	1788.90
361.08	1756.95
361.29	1986.73
361.50	1938.20
361.72	1802.83
361.93	1874.10
362.14	1985.10
362.35	1724.39
362.56	1939.22
362.77	1717.84
362.99	1989.60
363.20	1915.26
363.41	1854.64
363.62	1720.70
363.83	1976.90
364.05	2058.62
364.26	1726.44
364.47	1790.54
364.68	2028.51
364.89	1815.93
365.10	1716.61
365.32	1834.98
365.53	1817.78
365.74	1851.57
365.95	1810.40
366.16	1724.18
366.37	1904.61
366.59	1891.30
366.80	1807.33
367.01	1669.91
367.22	2160.61
367.43	2276.52
367.64	1801.80
367.86	1803.44
368.07	2013.97
368.28	2055.96
368.49	1760.23
368.70	1860.99
368.91	1860.17
369.12	1889.87
369.34	1728.49
369.55	1745.28
369.76	1948.64
369.97	1863.04
370.18	1765.76
370.39	1746.92
370.60	1765.96
370.82	1796.89
371.03	1813.07
371.24	1778.25
371.45	2024.83
371.66	2033.63
371.87	1792.38
372.08	1806.31
372.30	1822.49
372.51	2109.00
372.72	1925.71
372.93	1831.91
373.14	2171.05
373.35	1861.60
373.56	1771.49
373.78	1829.04
373.99	2018.89
374.20	2280.62
374.41	1815.52
374.62	1828.84
374.83	2125.38
375.04	1885.77
375.25	1808.77
375.47	1768.01
375.68	1861.40
375.89	2012.33
376.10	1839.08
376.31	1910.14
376.52	1979.77
376.73	1957.45
376.94	1869.59
377.15	1801.39
377.37	1926.11
377.58	1882.70
377.79	1717.63
378.00	1776.41
378.21	1969.74
378.42	2015.00
378.63	1840.51
378.84	1906.04
379.05	2071.73
379.27	1942.50
379.48	1961.34
379.69	1778.25
379.90	2098.55
380.11	1738.73
380.32	1865.09
380.53	1935.54
380.74	2113.50
380.95	1996.16
381.16	1844.20
381.37	1843.79
381.59	2153.85
381.80	2054.32
382.01	1795.86
382.22	1743.44
382.43	2022.16
382.64	1945.98
382.85	1786.03
383.06	1898.26
383.27	2040.80
383.48	1915.26
383.69	1885.16
383.91	1795.45
384.12	2072.34
384.33	2058.62
384.54	1935.13
384.75	1819.62
384.96	2402.47
385.17	2143.40
385.38	1878.40
385.59	1852.80
385.80	2076.03
386.01	2174.74
386.22	1964.82
386.43	1885.97
386.64	2275.50
386.86	1969.53
387.07	2011.11
387.28	1805.69
387.49	1951.51
387.70	2152.01
387.91	1969.53
388.12	1827.61
388.33	2021.75
388.54	1925.09
388.75	1855.05
388.96	1903.38
389.17	1884.54
389.38	1930.62
389.59	1908.50
389.80	1854.64
390.01	1920.18
390.22	1893.35
390.43	1940.45
390.64	1747.94
390.86	1971.37
391.07	2096.71
391.28	1835.18
391.49	1906.25
391.70	1793.00
391.91	1862.83
392.12	1850.95
392.33	1841.53
392.54	1986.94
392.75	1931.23
392.96	1939.63
393.17	1807.54
393.38	2215.90
393.59	2093.02
393.80	1741.59
394.01	1872.46
394.22	1949.46
394.43	2217.34
394.64	1820.03
394.85	1999.02
395.06	1955.81
395.27	1978.54
395.48	1838.87
395.69	1772.72
395.90	1901.74
396.11	1934.10
396.32	1826.58
396.53	1931.64
396.74	1917.72
396.95	2053.91
397.16	1795.66
397.37	1723.16
397.58	2049.81
397.79	1937.17
398.00	1868.16
398.21	1829.04
398.42	1963.59
398.63	2199.31
398.84	1815.11
399.05	1788.08
399.26	2099.17
399.47	1982.23
399.68	1668.48
399.89	1779.89
400.10	1801.80
400.31	1892.32
400.52	1860.37
400.73	1853.82
400.94	1805.08
401.15	2038.14
401.36	1875.94
401.57	1941.47
401.78	2091.18
401.99	2067.42
402.20	1759.21
402.41	1970.15
402.62	2130.91
402.83	1913.01
403.04	1810.61
403.25	2003.32
403.46	2006.80
403.67	2192.56
403.88	1918.54
404.09	1904.20
404.30	1925.30
404.51	1923.86
404.72	1798.94
404.93	1971.17
405.14	1888.02
405.35	1934.92
405.56	1865.49
405.77	1797.71
405.98	1990.22
406.19	1930.21
406.40	1813.27
406.61	1874.10
406.82	1929.60
407.03	2314.41
407.24	1819.83
407.45	1952.12
407.66	2059.23
407.87	2087.70
408.08	1914.85
408.29	1916.08
408.49	2027.90
408.70	1946.80
408.91	1838.26
409.12	1925.50
409.33	1814.50
409.54	2105.52
409.75	1802.01
409.96	1834.98
410.17	2067.63
410.38	1937.38
410.59	1822.49
410.80	1916.69
411.01	1917.72
411.22	1919.97
411.43	1881.06
411.64	1788.49
411.85	1827.40
412.06	1811.02
412.27	1657.42
412.47	1804.87
412.68	1941.27
412.89	2024.21
413.10	1830.47
413.31	1738.73
413.52	2214.06
413.73	2210.78
413.94	1772.93
414.15	1946.80
414.36	1881.26
414.57	1819.21
414.78	1778.66
414.99	1969.53
415.19	2320.76
415.40	2362.95
415.61	2410.25
415.82	2274.06
416.03	2374.21
416.24	2193.78
416.45	2000.46
416.66	1896.83
416.87	1813.89
417.08	2043.87
417.29	1811.84
417.50	1952.74
417.70	2074.18
417.91	2075.82
418.12	1966.25
418.33	1967.89
418.54	2147.91
418.75	2299.66
418.96	2329.97
419.17	2379.94
419.38	2855.89
419.59	2790.77
419.79	2656.83
420.00	2498.93
420.21	2772.34
420.42	2232.49
420.63	2033.63
420.84	2003.94
421.05	1990.22
421.26	1915.87
421.47	1800.57
421.67	2118.62
421.88	1857.10
422.09	1847.88
422.30	2062.71
422.51	1900.72
422.72	2212.83
422.93	2077.25
423.14	1884.75
423.35	1777.64
423.55	1768.83
423.76	1842.97
423.97	1859.76
424.18	1725.41
424.39	1922.02
424.60	2044.90
424.81	1887.00
425.02	2069.06
425.22	2149.34
425.43	2179.65
425.64	2325.67
425.85	2289.83
426.06	2601.53
426.27	2431.35
426.48	2335.91
426.68	2247.65
426.89	2401.24
427.10	2472.51
427.31	2110.43
427.52	1962.16
427.73	2159.99
427.94	2056.37
428.14	1986.94
428.35	1856.69
428.56	2134.60
428.77	2082.99
428.98	1942.09
429.19	1951.10
429.40	2017.66
429.60	2065.38
429.81	2091.18
430.02	2040.19
430.23	2024.83
430.44	2102.04
430.65	1866.52
430.85	1915.67
431.06	2035.68
431.27	1762.89
431.48	1856.28
431.69	1879.83
431.90	1942.91
432.10	1979.36
432.31	1992.06
432.52	1988.37
432.73	2534.98
432.94	2462.89
433.15	2302.12
433.35	2119.44
433.56	2323.01
433.77	2206.89
433.98	2608.50
434.19	2767.22
434.40	3002.12
434.60	2960.75
434.81	2852.82
435.02	2554.02
435.23	2368.27
435.44	2252.36
435.64	1986.73
435.85	1899.90
436.06	1972.60
436.27	1967.89
436.48	1869.80
436.68	1949.46
436.89	2341.65
437.10	2231.06
437.31	2076.03
437.52	2163.27
437.73	2142.99
437.93	2128.86
438.14	2032.20
438.35	1790.74
438.56	1941.06
438.77	1962.98
438.97	2010.49
439.18	1883.52
439.39	2288.61
439.60	2050.02
439.80	2019.91
440.01	2126.00
440.22	2065.58
440.43	2153.03
440.64	1829.86
440.84	1940.66
441.05	1854.03
441.26	2287.99
441.47	1911.37
441.68	1966.87
441.88	2263.01
442.09	2391.00
442.30	2590.07
442.51	2572.25
442.71	2480.91
442.92	2396.74
443.13	2158.35
443.34	2010.29
443.55	1983.05
443.75	2095.28
443.96	1835.59
444.17	1801.60
444.38	2065.38
444.58	1847.88
444.79	1904.61
445.00	1874.71
445.21	1910.96
445.41	1905.84
445.62	1653.12
445.83	1901.95
446.04	1953.56
446.24	1790.95
446.45	1668.07
446.66	1848.91
446.87	1992.06
447.07	1881.88
447.28	2049.40
447.49	1910.55
447.70	2115.55
447.90	2133.78
448.11	1926.32
448.32	1981.00
448.53	2136.44
448.73	2119.44
448.94	1863.65
449.15	1969.74
449.36	1971.37
449.56	1979.98
449.77	1812.04
449.98	1760.23
450.19	1903.18
450.39	2008.03
450.60	2019.09
450.81	2011.72
451.02	2061.69
451.22	2212.63
451.43	1884.13
451.64	1868.36
451.84	1936.56
452.05	2161.02
452.26	1926.93
452.47	1874.92
452.67	1884.95
452.88	2132.14
453.09	1819.62
453.30	1785.01
453.50	2032.81
453.71	2246.42
453.92	2030.56
454.12	2143.20
454.33	2035.27
454.54	2109.82
454.75	1864.47
454.95	1834.37
455.16	2004.76
455.37	2095.28
455.57	1913.42
455.78	1882.49
455.99	1944.75
456.19	1991.65
456.40	1791.77
456.61	1872.66
456.82	1940.04
457.02	2095.28
457.23	2111.25
457.44	2229.01
457.64	2074.80
457.85	2207.51
458.06	2024.01
458.26	2036.50
458.47	2079.30
458.68	2210.37
458.89	1926.93
459.09	2153.44
459.30	2336.53
459.51	2019.09
459.71	1815.93
459.92	1887.20
460.13	2193.17
460.33	2406.16
460.54	2047.97
460.75	2080.94
460.95	2012.74
461.16	2127.63
461.37	1896.01
461.57	1957.65
461.78	2002.30
461.99	1868.57
462.19	2095.89
462.40	1826.17
462.61	2439.75
462.81	2118.21
463.02	1815.11
463.23	1842.15
463.43	2030.15
463.64	1886.18
463.85	2694.51
464.05	1786.03
464.26	2328.13
464.47	2104.70
464.67	2000.05
464.88	1952.94
465.09	1993.29
465.29	2158.35
465.50	2176.17
465.71	2077.66
465.91	2041.01
466.12	1992.88
466.33	1950.90
466.53	1892.53
466.74	2159.17
466.94	1937.99
467.15	1898.67
467.36	2062.10
467.56	1861.60
467.77	1961.75
467.98	1896.83
468.18	1820.44
468.39	1888.43
468.60	2196.86
468.80	1897.44
469.01	1806.51
469.21	1985.71
469.42	2095.28
469.63	1880.44
469.83	1819.01
470.04	2098.35
470.25	2181.09
470.45	1946.59
470.66	1829.66
470.86	1995.54
471.07	1912.60
471.28	1953.97
471.48	2002.30
471.69	1979.16
471.90	2565.08
472.10	2083.81
472.31	2155.90
472.51	2194.60
472.72	2223.48
472.93	2158.76
473.13	2344.11
473.34	2357.21
473.54	2290.45
473.75	2137.26
473.96	2189.28
474.16	2016.63
474.37	2074.39
474.57	1942.50
474.78	1848.29
474.99	2056.57
475.19	1988.78
475.40	1826.17
475.60	1857.51
475.81	2369.09
476.02	2226.96
476.22	2196.04
476.43	2321.78
476.63	2103.06
476.84	2180.47
477.05	1757.16
477.25	1911.37
477.46	2388.14
477.66	1998.82
477.87	1778.25
478.08	1873.28
478.28	2086.47
478.49	1918.95
478.69	1824.54
478.90	1861.81
479.10	2048.58
479.31	2166.34
479.52	1918.33
479.72	2245.80
479.93	2605.43
480.13	2584.33
480.34	2572.45
480.54	2687.55
480.75	2321.37
480.96	2351.68
481.16	2003.32
481.37	2102.85
481.57	2161.63
481.78	2102.85
481.98	2171.87
482.19	1997.18
482.40	2255.22
482.60	2047.56
482.81	1963.59
483.01	1810.20
483.22	2036.91
483.42	2049.81
483.63	1958.68
483.83	1942.29
484.04	2004.76
484.24	2213.44
484.45	2147.30
484.66	2007.21
484.86	2156.51
485.07	1944.96
485.27	1962.98
485.48	1861.60
485.68	2166.34
485.89	1911.37
486.09	1988.17
486.30	1869.80
486.50	1984.48
486.71	1967.48
486.91	1950.69
487.12	2362.13
487.33	2930.44
487.53	3080.55
487.74	3019.12
487.94	2887.43
488.15	2606.86
488.35	2367.25
488.56	2167.77
488.76	2107.56
488.97	2114.53
489.17	2177.81
489.38	2018.07
489.58	1999.43
489.79	2119.44
489.99	2065.17
490.20	1950.28
490.40	1969.74
490.61	2054.32
490.81	1918.33
491.02	1911.37
491.22	1957.65
491.43	2062.92
491.63	1953.56
491.84	2026.06
492.04	1787.26
492.25	2012.74
492.45	1960.32
492.66	1923.66
492.86	1853.82
493.07	2026.67
493.27	2326.08
493.48	1826.79
493.68	1915.26
493.89	1953.15
494.09	2065.58
494.30	1865.70
494.50	2109.41
494.71	2001.48
494.91	1789.11
495.12	1875.94
495.32	1954.58
495.53	1970.35
495.73	1870.61
495.94	2070.70
496.14	1967.69
496.35	2443.84
496.55	2144.63
496.76	1975.27
496.96	2000.05
497.17	1991.24
497.37	2026.26
497.58	1859.76
497.78	1811.43
497.98	1915.26
498.19	1927.34
498.39	1903.79
498.60	1945.37
498.80	1745.28
499.01	2029.95
499.21	1798.32
499.42	1896.21
499.62	1927.96
499.83	2203.61
500.03	1815.52
500.24	2060.87
500.44	2289.42
500.64	2230.65
500.85	2065.99
501.05	2132.55
501.26	1863.45
501.46	2200.34
501.67	1913.01
501.87	1833.14
502.08	1866.93
502.28	1941.68
502.48	1961.34
502.69	2013.97
502.89	1771.90
503.10	1858.74
503.30	1907.89
503.51	1913.01
503.71	1779.07
503.92	2053.09
504.12	1969.33
504.32	1891.30
504.53	2046.94
504.73	2077.87
504.94	2012.54
505.14	2082.37
505.35	2107.77
505.55	2132.96
505.75	2079.71
505.96	2193.17
506.16	2375.03
506.37	2004.14
506.57	1867.75
506.78	1999.84
506.98	2148.73
507.18	1816.96
507.39	1838.46
507.59	1925.30
507.80	1901.13
508.00	1989.40
508.20	2057.18
508.41	1915.67
508.61	2104.70
508.82	2066.40
509.02	2008.65
509.22	1837.23
509.43	1859.56
509.63	1886.59
509.84	1917.10
510.04	1783.58
510.24	2158.56
510.45	2039.37
510.65	1797.50
510.86	1897.65
511.06	1859.76
511.26	2054.32
511.47	1978.34
511.67	1812.66
511.88	2029.33
512.08	2094.25
512.28	1785.21
512.49	1972.19
512.69	2001.28
512.90	1993.70
513.10	1851.57
513.30	1944.34
513.51	2038.55
513.71	2214.47
513.91	2067.01
514.12	2072.95
514.32	2149.75
514.53	1986.73
514.73	1991.65
514.93	1944.96
515.14	1999.23
515.34	2138.08
515.54	1935.33
515.75	1979.36
515.95	2059.85
516.15	2115.14
516.36	2000.25
516.56	1996.36
516.77	1727.67
516.97	2022.57
517.17	1901.33
517.38	1970.76
517.58	2156.51
517.78	1930.21
517.99	1968.30
518.19	1940.66
518.39	2161.02
518.60	1945.16
518.80	1825.76
519.00	1992.67
519.21	1933.08
519.41	2185.80
519.61	1839.69
519.82	1967.69
520.02	1971.99
520.22	1944.14
520.43	1893.76
520.63	1903.79
520.83	1842.76
521.04	1737.09
521.24	1969.74
521.44	1862.01
521.65	1862.42
521.85	2022.98
522.05	1814.50
522.26	1865.29
522.46	2158.15
522.66	2080.12
522.87	1874.30
523.07	2024.42
523.27	1892.73
523.48	2105.93
523.68	1943.73
523.88	1902.77
524.09	2096.30
524.29	1966.05
524.49	1710.26
524.70	1996.97
524.90	2114.12
525.10	2005.37
525.31	1811.84
525.51	1786.24
525.71	2032.40
525.91	2014.79
526.12	1846.86
526.32	1792.38
526.52	1892.12
526.73	1879.63
526.93	1950.49
527.13	1782.35
527.34	1920.38
527.54	1927.75
527.74	1854.44
527.94	1779.48
528.15	1832.32
528.35	1976.70
528.55	1974.65
528.76	1950.28
528.96	1745.28
529.16	2086.88
529.36	2029.33
529.57	1788.49
529.77	2113.30
529.97	1817.16
530.18	1969.12
530.38	1842.56
530.58	2026.47
530.78	1950.69
530.99	1843.58
531.19	1982.64
531.39	1843.17
531.60	1956.83
531.80	1860.99
532.00	2019.91
532.20	1945.98
532.41	1845.42
532.61	1850.54
532.81	1889.66
533.01	1928.16
533.22	2011.31
533.42	2008.65
533.62	1748.35
533.82	2120.47
534.03	1932.26
534.23	1981.61
534.43	1834.57
534.63	1884.34
534.84	1990.83
535.04	1943.32
535.24	1949.26
535.44	2300.07
535.65	1910.96
535.85	1873.89
536.05	1873.89
536.25	1970.97
536.46	1851.57
536.66	2062.92
536.86	1962.36
537.06	2022.78
537.27	2108.38
537.47	1983.25
537.67	1874.51
537.87	2172.28
538.08	1944.75
538.28	1808.77
538.48	1789.52
538.68	1932.67
538.88	2012.54
539.09	1764.94
539.29	1880.65
539.49	2056.37
539.69	2017.45
539.90	1956.22
540.10	1824.54
540.30	2110.64
540.50	1897.24
540.70	1824.54
540.91	1913.01
541.11	2084.83
541.31	2152.01
541.51	1959.70
541.72	1978.54
541.92	2015.61
542.12	1895.19
542.32	1903.79
542.52	1860.78
542.73	1896.62
542.93	2036.30
543.13	1896.21
543.33	1972.81
543.53	2068.45
543.74	2064.15
543.94	1869.39
544.14	2023.19
544.34	2131.32
544.54	2004.35
544.75	2010.70
544.95	2169.82
545.15	2095.28
545.35	2214.47
545.55	2036.91
545.75	1880.85
545.96	2259.32
546.16	1870.41
546.36	1926.11
546.56	1924.68
546.76	2097.12
546.97	2186.21
547.17	1927.75
547.37	1998.61
547.57	1915.87
547.77	2045.92
547.97	1935.74
548.18	1975.27
548.38	1950.90
548.58	2155.49
548.78	1868.57
548.98	1981.00
549.18	2122.11
549.39	2225.73
549.59	2039.98
549.79	1977.31
549.99	2186.41
550.19	2102.04
550.39	2056.16
550.60	1917.92
550.80	2006.80
551.00	2015.20
551.20	1898.88
551.40	1894.37
551.60	2014.59
551.80	2012.95
552.01	2029.33
552.21	1916.28
552.41	1974.45
552.61	2192.76
552.81	1970.15
553.01	1843.99
553.21	2018.89
553.42	1839.49
553.62	1860.99
553.82	1867.75
554.02	2150.78
554.22	2056.16
554.42	1821.67
554.62	1965.44
554.83	2202.39
555.03	2177.81
555.23	2007.62
555.43	2252.36
555.63	2094.46
555.83	2050.22
556.03	1999.23
556.23	1826.38
556.44	2022.16
556.64	2140.74
556.84	1697.56
557.04	1927.75
557.24	1992.67
557.44	1972.40
557.64	1943.32
557.84	1853.62
558.04	1911.37
558.25	2059.23
558.45	1835.80
558.65	1917.10
558.85	1942.50
559.05	1730.94
559.25	1894.58
559.45	2000.25
559.65	2231.47
559.85	2639.83
560.05	2034.66
560.26	2059.64
560.46	2064.76
560.66	1977.31
560.86	1940.04
561.06	1885.56
561.26	2166.34
561.46	2045.51
561.66	1914.44
561.86	2001.68
562.06	1866.31
562.26	1926.93
562.47	1947.62
562.67	1805.69
562.87	2000.05
563.07	1780.50
563.27	1952.12
563.47	1943.93
563.67	1900.92
563.87	2043.87
564.07	1873.48
564.27	1941.47
564.47	1997.59
564.67	2066.40
564.87	1903.79
565.08	2026.26
565.28	1927.96
565.48	2036.70
565.68	1991.44
565.88	2006.19
566.08	2215.90
566.28	1955.61
566.48	1819.83
566.68	1909.73
566.88	1916.28
567.08	2088.11
567.28	1937.58
567.48	1958.68
567.68	2024.83
567.88	1796.89
568.08	1968.51
568.28	2067.22
568.48	1922.43
568.68	2117.60
568.89	1914.24
569.09	1777.64
569.29	2034.66
569.49	2044.69
569.69	1857.51
569.89	1830.88
570.09	1742.00
570.29	1867.54
570.49	1790.54
570.69	1896.62
570.89	2042.03
571.09	2229.42
571.29	1776.00
571.49	2079.51
571.69	1994.31
571.89	2039.37
572.09	1896.21
572.29	1899.49
572.49	2034.86
572.69	2056.98
572.89	1950.08
573.09	1701.66
573.29	1957.04
573.49	1976.70
573.69	1915.67
573.89	2048.58
574.09	1913.62
574.29	2118.62
574.49	1889.87
574.69	1893.55
574.89	1821.46
575.09	1833.75
575.29	1866.72
575.49	1942.91
575.69	1998.41
575.89	1796.68
576.09	1959.50
576.29	1975.88
576.49	1810.81
576.69	1948.85
576.89	1871.84
577.09	1951.51
577.29	1780.50
577.49	2200.95
577.69	1874.30
577.89	2011.11
578.09	1963.39
578.29	1775.79
578.49	1959.29
578.69	1878.81
578.89	2085.24
579.09	1950.90
579.29	1843.38
579.49	2044.69
579.69	1919.36
579.89	2189.69
580.09	1736.68
580.29	1756.54
580.49	1876.96
580.69	1833.14
580.89	1913.62
581.09	1891.91
581.29	1890.89
581.49	1959.29
581.69	1825.15
581.89	1846.04
582.09	1845.63
582.28	1836.82
582.48	2024.62
582.68	2102.24
582.88	2138.28
583.08	1933.69
583.28	1959.09
583.48	1936.97
583.68	1822.69
583.88	1969.53
584.08	1972.81
584.28	1945.16
584.48	2208.94
584.68	2010.70
584.88	1917.10
585.08	2079.10
585.28	2076.23
585.48	2126.41
585.68	2009.88
585.87	2037.73
586.07	2049.40
586.27	1992.06
586.47	2010.29
586.67	1931.44
586.87	1948.44
587.07	1887.20
587.27	1808.77
587.47	1969.53
587.67	2214.47
587.87	2364.38
588.07	2081.35
588.27	1987.55
588.46	2170.64
588.66	2171.46
588.86	2006.39
589.06	2056.37
589.26	2148.11
589.46	2098.55
589.66	1873.28
589.86	1858.74
590.06	1985.51
590.26	2075.00
590.46	1962.57
590.66	2121.90
590.85	1964.82
591.05	2110.43
591.25	1926.11
591.45	1964.62
591.65	2071.93
591.85	2026.06
592.05	1957.86
592.25	2059.23
592.45	2125.59
592.64	1976.29
592.84	1980.59
593.04	1881.47
593.24	2290.24
593.44	1906.25
593.64	2027.49
593.84	2036.09
594.04	1930.42
594.24	2179.04
594.43	1897.65
594.63	1968.51
594.83	2085.86
595.03	2093.84
595.23	1891.30
595.43	1794.64
595.63	1872.05
595.83	2070.09
596.02	1729.30
596.22	1929.60
596.42	2000.46
596.62	1920.99
596.82	1901.54
597.02	2005.17
597.22	2127.63
597.41	1988.37
597.61	1887.61
597.81	2023.80
598.01	2055.75
598.21	1935.33
598.41	1910.96
598.61	1854.23
598.80	1991.04
599.00	2002.91
599.20	2056.98
599.40	1931.03
599.60	1929.39
599.80	2100.19
599.99	2142.99
600.19	1937.79
600.39	2009.67
600.59	2056.98
600.79	2020.32
600.99	1993.70
601.19	2185.80
601.38	2219.38
601.58	1982.43
601.78	1761.66
601.98	2061.69
602.18	2156.72
602.37	2364.18
602.57	2258.91
602.77	2406.77
602.97	2344.31
603.17	2438.52
603.37	2280.62
603.56	2351.89
603.76	2319.73
603.96	2255.22
604.16	2238.84
604.36	2319.94
604.56	2255.43
604.75	1997.79
604.95	2092.61
605.15	2264.64
605.35	2168.59
605.55	2008.85
605.74	1936.35
605.94	2194.40
606.14	2028.72
606.34	2004.76
606.54	1966.05
606.73	1910.55
606.93	2054.73
607.13	1866.31
607.33	1961.54
607.53	2158.56
607.72	2081.35
607.92	2021.14
608.12	2022.78
608.32	1952.12
608.51	2036.91
608.71	1858.74
608.91	1988.99
609.11	2057.18
609.31	1956.01
609.50	1996.77
609.70	2161.43
609.90	2117.80
610.10	2072.95
610.29	1959.09
610.49	1898.67
610.69	2107.56
610.89	2013.97
611.09	2042.64
611.28	2142.18
611.48	2126.00
611.68	1973.22
611.88	1896.83
612.07	1861.60
612.27	2062.92
612.47	1850.75
612.67	1978.95
612.86	2058.62
613.06	1963.80
613.26	1774.77
613.46	1895.60
613.65	1920.38
613.85	2304.99
614.05	2053.29
614.25	2050.02
614.44	1925.50
614.64	1956.22
614.84	1893.76
615.04	1852.39
615.23	1888.84
615.43	2035.48
615.63	2051.66
615.83	1843.79
616.02	1782.76
616.22	2056.98
616.42	1864.68
616.62	1898.26
616.81	1939.02
617.01	2046.74
617.21	1996.97
617.41	1885.77
617.60	1957.45
617.80	2039.57
618.00	2018.07
618.19	1969.33
618.39	1985.71
618.59	2017.25
618.79	1934.92
618.98	1748.35
619.18	1897.65
619.38	2239.66
619.57	1930.82
619.77	1931.64
619.97	1898.26
620.17	1885.36
620.36	1814.71
620.56	2026.26
620.76	1817.57
620.95	1844.40
621.15	1886.18
621.35	1861.81
621.54	1888.64
621.74	1965.64
621.94	1864.68
622.14	1808.36
622.33	1767.40
622.53	1893.76
622.73	1903.79
622.92	1760.64
623.12	1937.58
623.32	2153.44
623.51	2065.17
623.71	1771.08
623.91	2084.22
624.10	1842.97
624.30	1961.54
624.50	1833.96
624.69	1817.37
624.89	2438.93
625.09	1909.73
625.29	1741.39
625.48	1809.79
625.68	1969.12
625.88	2085.65
626.07	1966.46
626.27	1852.80
626.47	1872.46
626.66	1761.46
626.86	1922.22
627.06	1893.76
627.25	1933.08
627.45	2135.01
627.64	1889.46
627.84	2101.83
628.04	1866.11
628.23	2203.61
628.43	1817.57
628.63	1847.27
628.82	1901.33
629.02	2174.12
629.22	2007.83
629.41	2123.54
629.61	1996.97
629.81	2234.13
630.00	1874.92
630.20	1841.74
630.40	1976.90
630.59	2017.04
630.79	1930.82
630.98	1927.75
631.18	1944.96
631.38	1923.45
631.57	2059.44
631.77	1795.25
631.97	1960.32
632.16	1977.52
632.36	1934.31
632.56	1931.64
632.75	1956.63
632.95	2084.63
633.14	1802.21
633.34	2107.77
633.54	1735.65
633.73	1891.50
633.93	1850.34
634.12	1778.87
634.32	2251.54
634.52	1923.66
634.71	1819.83
634.91	1992.47
635.11	1825.97
635.30	1868.36
635.50	1949.46
635.69	1850.95
635.89	2187.44
636.09	2090.57
636.28	1834.98
636.48	1856.69
636.67	2043.46
636.87	2037.73
637.07	2017.45
637.26	1875.73
637.46	2013.77
637.65	2098.96
637.85	1982.02
638.04	1892.32
638.24	1939.84
638.44	2027.28
638.63	1937.99
638.83	1908.71
639.02	2030.97
639.22	2034.86
639.42	1932.46
639.61	1958.88
639.81	1962.77
640.00	1941.88
640.20	2041.82
640.39	2007.83
640.59	2292.50
640.79	2214.06
640.98	2155.69
641.18	2102.04
641.37	2149.14
641.57	2062.51
641.76	2058.62
641.96	1863.86
642.15	2048.58
642.35	1992.06
642.55	2024.42
642.74	1858.74
642.94	2101.22
643.13	2149.34
643.33	1936.15
643.52	1885.36
643.72	1910.96
643.91	1969.53
644.11	1915.06
644.31	1851.98
644.50	1914.24
644.70	2135.01
644.89	1942.29
645.09	1988.37
645.28	1977.93
645.48	2006.39
645.67	1870.41
645.87	1762.07
646.06	1881.47
646.26	2019.91
646.45	1724.39
646.65	1723.98
646.84	2182.11
647.04	1907.89
647.24	1819.21
647.43	1966.05
647.63	1987.76
647.82	2151.60
648.02	1824.33
648.21	1878.19
648.41	2144.02
648.60	1943.32
648.80	2075.00
648.99	1952.74
649.19	1893.76
649.38	1769.44
649.58	1953.35
649.77	1986.73
649.97	2107.77
650.16	2036.70
650.36	1716.61
650.55	2078.69
650.75	2002.30
650.94	2159.58
651.14	1954.99
651.33	1970.56
651.53	2153.03
651.72	1861.40
651.92	1956.01
652.11	1762.89
652.31	2030.97
652.50	2008.03
652.70	1998.61
652.89	1836.41
653.09	2184.77
653.28	1955.61
653.48	1755.31
653.67	1776.41
653.87	2390.39
654.06	1973.42
654.25	2079.10
654.45	1875.12
654.64	1905.23
654.84	1953.97
655.03	1725.21
655.23	2069.06
655.42	2073.16
655.62	2213.85
655.81	1973.01
656.01	1860.17
656.20	2083.40
656.40	2173.51
656.59	1967.69
656.79	2082.78
656.98	2002.30
657.17	2058.41
657.37	1942.29
657.56	1891.09
657.76	2025.03
657.95	2076.85
658.15	1624.65
658.34	1928.16
658.54	1965.44
658.73	1839.49
658.92	1892.12
659.12	1978.34
659.31	2038.96
659.51	1838.87
659.70	2005.58
659.90	1923.45
660.09	2086.06
660.29	1983.87
660.48	1869.18
660.67	2094.87
660.87	1916.69
661.06	2019.71
661.26	2036.09
661.45	2012.54
661.65	2008.65
661.84	1910.14
662.03	1870.41
662.23	1883.11
662.42	2215.08
662.62	1818.80
662.81	1849.52
663.00	1915.87
663.20	2040.80
663.39	2121.70
663.59	2101.63
663.78	2024.21
663.97	2035.68
664.17	2203.61
664.36	1885.16
664.56	1951.10
664.75	2142.18
664.94	2070.50
665.14	2021.96
665.33	1951.10
665.53	2028.31
665.72	1991.85
665.91	2074.18
666.11	1978.13
666.30	1982.23
666.50	1978.13
666.69	2053.91
666.88	2015.61
667.08	2120.88
667.27	2072.75
667.47	2142.99
667.66	2032.61
667.85	2192.56
668.05	2072.75
668.24	1990.42
668.43	2173.92
668.63	1970.56
668.82	2139.72
669.02	2070.91
669.21	1966.25
669.40	1840.92
669.60	2215.70
669.79	1798.12
669.98	2393.67
670.18	1851.16
670.37	1821.46
670.56	1896.62
670.76	1962.98
670.95	1930.01
671.15	2062.71
671.34	1959.91
671.53	1913.83
671.73	1871.64
671.92	1852.18
672.11	1791.56
672.31	1850.54
672.50	2009.06
672.69	1803.65
672.89	1697.15
673.08	1876.14
673.27	2053.91
673.47	1987.76
673.66	1973.83
673.85	1836.21
674.05	2022.16
674.24	2162.04
674.43	2120.67
674.63	2403.50
674.82	2701.27
675.01	2151.39
675.21	2389.16
675.40	2227.58
675.59	2147.70
675.79	2374.62
675.98	2101.42
676.17	2218.56
676.37	2153.85
676.56	2020.12
676.75	2013.15
676.95	1993.49
677.14	1956.22
677.33	2103.47
677.52	1830.88
677.72	1876.76
677.91	1988.78
678.10	1774.77
678.30	1824.74
678.49	1802.01
678.68	2207.10
678.88	1704.73
679.07	2029.95
679.26	1882.29
679.45	2164.91
679.65	2085.24
679.84	1728.49
680.03	1755.52
680.23	1881.47
680.42	2255.63
680.61	1800.16
680.81	1854.85
681.00	1925.09
681.19	1956.22
681.38	2009.47
681.58	1972.40
681.77	1874.92
681.96	2013.36
682.15	1877.17
682.35	1919.97
682.54	1982.64
682.73	1800.57
682.93	1839.49
683.12	1832.52
683.31	2052.27
683.50	2265.05
683.70	1840.92
683.89	1922.22
684.08	1822.90
684.27	2056.37
684.47	1765.96
684.66	1945.16
684.85	2208.53
685.04	2096.71
685.24	1842.76
685.43	1954.58
685.62	1746.92
685.81	1988.37
686.01	2076.85
686.20	2077.87
686.39	2101.83
686.58	2549.11
686.78	2337.76
686.97	2262.39
687.16	2320.35
687.35	2206.28
687.55	2116.17
687.74	2070.09
687.93	1963.59
688.12	2060.46
688.32	2062.92
688.51	1848.29
688.70	2052.47
688.89	1866.31
689.08	1810.20
689.28	1865.70
689.47	1974.45
689.66	1973.22
689.85	2026.87
690.05	1867.34
690.24	1856.89
690.43	1966.46
690.62	1936.76
690.81	1853.82
691.01	1954.58
691.20	1866.11
691.39	1838.26
691.58	1952.94
691.77	2181.70
691.97	1987.35
692.16	1982.02
692.35	1903.18
692.54	1907.27
692.73	2072.54
692.93	2015.20
693.12	2084.83
693.31	2120.26
693.50	2065.58
693.69	2099.58
693.89	1963.18
694.08	2201.77
694.27	2179.86
694.46	1922.02
694.65	1969.74
694.85	2058.00
695.04	2105.93
695.23	2257.68
695.42	3543.81
695.61	4796.34
695.80	5549.18
696.00	6339.69
696.19	6697.27
696.38	5876.03
696.57	4939.91
696.76	4736.75
696.95	4342.10
697.15	4223.12
697.34	3967.53
697.53	3463.12
697.72	3288.63
697.91	2979.79
698.10	2898.69
698.30	2452.24
698.49	2238.63
698.68	2171.87
698.87	2024.83
699.06	1887.00
699.25	1932.26
699.45	2104.08
699.64	1977.31
699.83	2018.48
700.02	1818.39
700.21	2003.73
700.40	1875.53
700.59	1930.62
700.79	1858.74
700.98	2008.85
701.17	1864.27
701.36	1865.70
701.55	1846.86
701.74	2138.49
701.93	1926.52
702.12	2119.24
702.32	2087.08
702.51	2343.08
702.70	2331.82
702.89	2203.41
703.08	2068.24
703.27	2279.18
703.46	2142.58
703.65	2039.78
703.85	1882.49
704.04	1992.47
704.23	2156.92
704.42	1905.02
704.61	1917.92
704.80	2166.55
704.99	1877.78
705.18	1982.84
705.37	2096.10
705.57	3027.31
705.76	4318.14
705.95	4780.37
706.14	5709.94
706.33	6208.01
706.52	6016.32
706.71	4770.95
706.90	4375.49
707.09	4185.84
707.28	3939.06
707.47	3552.41
707.67	3479.91
707.86	3097.76
708.05	3147.73
708.24	2743.87
708.43	2508.35
708.62	2263.21
708.81	2056.16
709.00	1922.84
709.19	1901.33
709.38	2101.22
709.57	1874.71
709.76	2018.48
709.96	1910.96
710.15	2170.85
710.34	2006.80
710.53	2042.03
710.72	1964.41
710.91	2107.77
711.10	2032.81
711.29	2010.08
711.48	1885.56
711.67	1833.75
711.86	2011.92
712.05	1824.13
712.24	1863.04
712.43	2068.45
712.62	2116.99
712.81	1918.54
713.00	2073.36
713.19	1831.09
713.39	2029.74
713.58	1900.31
713.77	2153.64
713.96	2303.35
714.15	2311.54
714.34	2320.76
714.53	2147.30
714.72	2448.55
714.91	2067.22
715.10	2153.03
715.29	2025.85
715.48	2511.01
715.67	2192.56
715.86	2087.29
716.05	2021.35
716.24	1983.66
716.43	1934.72
716.62	1818.19
716.81	1823.10
717.00	1896.01
717.19	2128.04
717.38	1935.13
717.57	1920.59
717.76	1765.14
717.95	2052.27
718.14	1924.07
718.33	1887.00
718.52	1750.19
718.71	1773.75
718.90	1761.05
719.09	1882.08
719.28	1946.39
719.47	2055.34
719.66	2016.63
719.85	2020.32
720.04	1949.05
720.23	2001.89
720.42	1904.41
720.61	2029.74
720.80	1808.97
720.99	1995.13
721.18	1894.99
721.37	1868.98
721.56	1905.43
721.75	2063.74
721.94	1837.44
722.13	1909.73
722.32	1928.57
722.51	2086.68
722.70	1915.67
722.89	1982.23
723.08	1962.77
723.27	2063.74
723.46	1983.87
723.65	1887.61
723.84	1874.92
724.03	2130.71
724.22	1801.39
724.41	1989.40
724.60	1918.74
724.79	2043.26
724.98	1977.72
725.16	1891.30
725.35	2017.25
725.54	1811.63
725.73	1936.97
725.92	1988.78
726.11	2189.48
726.30	2592.32
726.49	2586.58
726.68	2860.19
726.87	3013.18
727.06	3072.77
727.25	2597.44
727.44	2611.98
727.63	2511.63
727.82	2446.71
728.01	2415.17
728.20	2423.16
728.38	2457.56
728.57	2226.35
728.76	2178.42
728.95	2223.27
729.14	1923.25
729.33	1903.38
729.52	1795.86
729.71	1879.22
729.90	1875.73
730.09	1949.67
730.28	1973.63
730.47	1919.77
730.66	2156.51
730.84	2067.22
731.03	2029.54
731.22	2050.22
731.41	2055.55
731.60	2066.81
731.79	1828.63
731.98	1895.80
732.17	2052.47
732.36	2016.63
732.55	1935.54
732.73	1828.02
732.92	2142.18
733.11	2034.04
733.30	1909.73
733.49	1820.64
733.68	2105.93
733.87	2029.13
734.06	1876.55
734.25	1918.74
734.43	2007.21
734.62	2111.66
734.81	2068.24
735.00	2058.62
735.19	2056.16
735.38	2135.01
735.57	1913.62
735.76	2099.99
735.94	2153.64
736.13	2456.54
736.32	2365.61
736.51	2366.02
736.70	2639.42
736.89	2746.53
737.08	2986.55
737.27	4563.28
737.45	6783.69
737.64	7705.89
737.83	8988.33
738.02	9597.60
738.21	9013.52
738.40	7207.21
738.59	6469.74
738.77	6061.37
738.96	5612.87
739.15	5349.50
739.34	4943.18
739.53	4559.39
739.72	4280.46
739.90	3856.33
740.09	3171.07
740.28	2926.55
740.47	2684.89
740.66	2425.61
740.85	2123.54
741.03	2104.70
741.22	1954.58
741.41	2028.72
741.60	1845.63
741.79	2064.15
741.98	2198.70
742.16	2282.67
742.35	2050.84
742.54	2023.39
742.73	2326.70
742.92	2064.56
743.10	1940.04
743.29	2053.70
743.48	2412.51
743.67	2019.50
743.86	1926.32
744.05	1937.79
744.23	1943.11
744.42	1976.90
744.61	2009.06
744.80	1901.13
744.99	1978.54
745.17	1811.22
745.36	1860.37
745.55	2066.40
745.74	2030.15
745.93	1967.69
746.11	1975.88
746.30	1929.80
746.49	2173.51
746.68	1916.28
746.86	1998.20
747.05	1981.61
747.24	2106.54
747.43	2137.46
747.62	1896.01
747.80	1964.21
747.99	2212.42
748.18	2179.24
748.37	2125.38
748.56	2152.21
748.74	2244.98
748.93	2323.63
749.12	3601.97
749.31	7514.82
749.49	10952.33
749.68	13176.02
749.87	15358.74
750.06	16301.83
750.24	15438.20
750.43	14705.64
750.62	16104.20
750.81	16684.19
750.99	17278.51
751.18	16837.38
751.37	14119.11
751.56	11793.23
751.74	11306.02
751.93	10155.47
752.12	8388.89
752.31	7296.91
752.49	6332.32
752.68	5698.27
752.87	4803.92
753.06	4146.11
753.24	3605.86
753.43	3280.03
753.62	2688.57
753.81	2380.56
753.99	2484.80
754.18	2233.51
754.37	2016.02
754.55	2086.88
754.74	2285.12
754.93	1870.82
755.12	1953.76
755.30	1923.25
755.49	2150.78
755.68	2046.54
755.86	2027.69
756.05	1895.80
756.24	2200.75
756.43	1864.47
756.61	1874.10
756.80	2038.14
756.99	2161.84
757.17	2001.68
757.36	1888.23
757.55	1983.66
757.74	2055.55
757.92	2004.55
758.11	1872.25
758.30	1822.49
758.48	1999.23
758.67	1880.65
758.86	2046.74
759.04	1935.13
759.23	2034.66
759.42	2070.09
759.60	1967.07
759.79	2029.33
759.98	1995.13
760.16	1927.14
760.35	1922.63
760.54	1861.19
760.73	2035.07
760.91	1867.75
761.10	2015.61
761.29	2028.51
761.47	2013.77
761.66	2309.49
761.85	2073.57
762.03	2430.94
762.22	4429.35
762.41	11221.44
762.59	19051.84
762.78	23154.74
762.97	28189.47
763.15	30372.61
763.34	27371.31
763.52	20059.65
763.71	18396.08
763.90	16764.88
764.08	15635.42
764.27	14264.51
764.46	13185.44
764.64	11502.62
764.83	10229.81
765.02	8920.13
765.20	7640.97
765.39	6219.89
765.58	4646.64
765.76	3831.95
765.95	3146.09
766.13	2695.13
766.32	2370.52
766.51	2277.96
766.69	2756.36
766.88	2156.92
767.07	1976.70
767.25	1862.22
767.44	2120.67
767.62	2175.97
767.81	1936.56
768.00	1993.29
768.18	2006.60
768.37	1902.56
768.56	1821.46
768.74	1903.59
768.93	1808.36
769.11	2021.55
769.30	1953.97
769.49	1880.24
769.67	1928.98
769.86	1904.82
770.04	1893.55
770.23	1900.52
770.42	2110.64
770.60	1934.10
770.79	1863.24
770.97	2015.61
771.16	2942.93
771.35	4708.89
771.53	6347.27
771.72	7426.55
771.90	8544.54
772.09	9126.16
772.27	8052.20
772.46	6215.18
772.65	6120.97
772.83	5654.24
773.02	5372.85
773.20	4895.46
773.39	4739.00
773.58	4363.81
773.76	3804.31
773.95	3568.38
774.13	3363.99
774.32	2954.81
774.50	2533.54
774.69	2412.30
774.87	2172.28
775.06	2416.60
775.25	1961.54
775.43	1975.47
775.62	2014.38
775.80	2110.84
775.99	1996.36
776.17	1874.92
776.36	1984.07
776.54	2104.90
776.73	1918.54
776.92	2030.77
777.10	2093.02
777.29	2036.30
777.47	1867.34
777.66	1911.98
777.84	1970.56
778.03	1960.32
778.21	1833.96
778.40	1936.35
778.58	2028.51
778.77	2103.88
778.95	1798.12
779.14	1865.09
779.32	2163.27
779.51	2064.76
779.70	1897.44
779.88	1767.19
780.07	1876.76
780.25	2273.65
780.44	1897.44
780.62	2042.64
780.81	2009.67
780.99	1962.98
781.18	1826.58
781.36	1868.57
781.55	1917.92
781.73	2140.54
781.92	1814.91
782.10	1797.09
782.29	1997.18
782.47	2148.11
782.66	1932.87
782.84	1790.54
783.03	1876.76
783.21	2103.47
783.40	1914.24
783.58	1879.22
783.77	1866.31
783.95	1930.01
784.14	1825.76
784.32	1934.51
784.51	2082.78
784.69	1854.44
784.88	1757.98
785.06	1886.79
785.24	1786.85
785.43	2081.97
785.61	1984.28
785.80	1822.28
785.98	2028.31
786.17	1939.43
786.35	1840.92
786.54	1988.78
786.72	2066.81
786.91	2102.44
787.09	1932.67
787.28	1832.52
787.46	1997.79
787.65	2072.95
787.83	1833.75
788.01	1966.66
788.20	1854.03
788.38	2000.46
788.57	1924.89
788.75	1958.88
788.94	2216.11
789.12	2164.70
789.31	1968.51
789.49	2081.56
789.67	1891.09
789.86	2024.83
790.04	1858.12
790.23	1800.37
790.41	2270.38
790.60	1974.65
790.78	1944.55
790.96	1956.01
791.15	2080.94
791.33	1960.52
791.52	1947.82
791.70	1861.81
791.89	1990.83
792.07	2104.29
792.25	1931.03
792.44	1832.73
792.62	2119.44
792.81	1936.97
792.99	1982.23
793.17	1935.94
793.36	2015.82
793.54	2739.36
793.73	4054.57
793.91	5712.19
794.10	6801.71
794.28	7864.20
794.46	8196.79
794.65	7846.18
794.83	6167.66
795.01	5693.35
795.20	5591.98
795.38	5145.11
795.57	4855.73
795.75	4641.52
795.93	4220.45
796.12	3982.48
796.30	3770.11
796.49	3561.62
796.67	3033.86
796.85	2983.07
797.04	2683.04
797.22	2530.67
797.40	2186.00
797.59	2242.32
797.77	2203.82
797.96	2062.10
798.14	2020.12
798.32	1998.00
798.51	2178.63
798.69	2321.37
798.87	2037.93
799.06	2029.95
799.24	1986.73
799.42	2670.14
799.61	3573.09
799.79	4357.87
799.98	5195.90
800.16	5722.64
800.34	7168.71
800.53	9017.21
800.71	9540.26
800.89	11058.83
801.08	11452.65
801.26	11384.86
801.44	9592.28
801.63	7772.25
801.81	7595.71
801.99	6838.17
802.18	6394.78
802.36	6051.95
802.54	5529.52
802.73	4839.96
802.91	4458.22
803.09	4043.10
803.28	3703.96
803.46	3373.62
803.64	3146.50
803.83	2574.30
804.01	2349.63
804.19	2138.90
804.38	2295.16
804.56	2254.40
804.74	2074.18
804.92	2070.09
805.11	1956.22
805.29	2179.04
805.47	1995.95
805.66	1882.90
805.84	1918.13
806.02	2197.47
806.21	1984.89
806.39	2125.18
806.57	2164.70
806.76	2172.69
806.94	2044.90
807.12	2029.54
807.30	2044.90
807.49	2213.24
807.67	2164.50
807.85	2248.67
808.04	2228.80
808.22	2372.98
808.40	1943.32
808.58	1902.15
808.77	2142.18
808.95	2394.08
809.13	2929.82
809.31	5435.51
809.50	8170.17
809.68	9731.95
809.86	11057.19
810.05	12214.70
810.23	13878.06
810.41	20618.13
810.59	35739.31
810.78	44750.98
810.96	52056.70
811.14	56674.46
811.32	55946.21
811.51	45192.94
811.69	35490.68
811.87	35240.22
812.05	30566.34
812.24	28643.51
812.42	26172.02
812.60	23194.07
812.78	19757.16
812.97	16721.66
813.15	14732.68
813.33	12402.50
813.51	10518.78
813.70	8325.40
813.88	6519.30
814.06	5134.67
814.24	3980.84
814.42	3100.62
814.61	2827.84
814.79	2785.24
814.97	2203.00
815.15	2234.13
815.34	2243.14
815.52	2266.90
815.70	1993.90
815.88	2002.30
816.06	1958.27
816.25	1996.36
816.43	1925.71
816.61	2044.49
816.79	2166.55
816.98	1812.45
817.16	1873.89
817.34	1841.53
817.52	1995.75
817.70	2144.43
817.89	1904.41
818.07	1828.84
818.25	1927.14
818.43	1955.40
818.61	1881.67
818.80	1860.37
818.98	2164.09
819.16	1968.51
819.34	1808.36
819.52	2092.20
819.70	1824.54
819.89	1928.78
820.07	1754.90
820.25	1757.36
820.43	1965.03
820.61	2038.96
820.80	1906.04
820.98	1794.84
821.16	1723.37
821.34	1793.82
821.52	1891.91
821.70	1926.93
821.89	1912.39
822.07	1900.11
822.25	1885.36
822.43	1804.47
822.61	2114.94
822.79	1958.68
822.98	1889.05
823.16	1721.73
823.34	1952.12
823.52	2110.43
823.70	1993.90
823.88	1749.78
824.06	2018.27
824.25	1914.24
824.43	2002.91
824.61	1789.11
824.79	1925.50
824.97	2002.71
825.15	2165.93
825.33	2824.97
825.52	3916.13
825.70	4559.60
825.88	5016.50
826.06	5566.38
826.24	5652.39
826.42	5044.35
826.60	4205.91
826.78	4240.52
826.97	3800.62
827.15	3848.54
827.33	3417.86
827.51	3394.51
827.69	3116.80
827.87	2996.79
828.05	2820.05
828.23	2558.94
828.41	2640.86
828.60	2520.64
828.78	2121.08
828.96	2207.10
829.14	2025.24
829.32	2032.20
829.50	1934.92
829.68	1938.20
829.86	1924.48
830.04	2021.35
830.22	1975.88
830.41	1795.25
830.59	1934.92
830.77	1993.29
830.95	1847.88
831.13	1842.56
831.31	1838.67
831.49	2043.67
831.67	2028.10
831.85	1992.47
832.03	1893.14
832.21	1993.08
832.39	1764.73
832.57	1773.75
832.76	2027.28
832.94	1882.70
833.12	1740.77
833.30	1882.90
833.48	2031.18
833.66	1958.47
833.84	1828.22
834.02	1907.89
834.20	2035.07
834.38	2012.33
834.56	1735.45
834.74	1792.18
834.92	1774.77
835.10	2144.02
835.28	1952.94
835.46	1897.65
835.64	1893.55
835.82	1842.15
836.01	2103.67
836.19	2017.45
836.37	1858.94
836.55	1839.49
836.73	1808.15
836.91	1787.47
837.09	2011.92
837.27	2140.54
837.45	1804.26
837.63	1809.99
837.81	1812.25
837.99	1960.73
838.17	1909.53
838.35	1847.47
838.53	2251.33
838.71	2038.34
838.89	1901.54
839.07	1879.83
839.25	1985.30
839.43	2140.13
839.61	2496.88
839.79	4303.81
839.97	6304.88
840.15	7451.53
840.33	8510.13
840.51	9129.03
840.69	8827.56
840.87	7152.12
841.05	6356.90
841.23	6911.08
841.41	8909.07
841.59	12712.77
841.77	14475.45
841.95	15843.29
842.13	17058.76
842.31	16322.52
842.49	13108.84
842.67	10784.40
842.85	10600.70
843.03	9194.36
843.21	8638.74
843.39	7854.37
843.57	7075.94
843.75	6351.37
843.93	5459.68
844.11	4752.93
844.29	4371.18
844.47	3970.81
844.65	3803.08
844.83	3305.01
845.01	2957.47
845.19	2775.61
845.36	2398.17
845.54	2274.47
845.72	2148.52
845.90	2127.43
846.08	1873.69
846.26	1959.29
846.44	2040.80
846.62	2043.05
846.80	1944.14
846.98	1840.51
847.16	1902.97
847.34	1968.71
847.52	1791.56
847.70	1804.47
847.88	1916.49
848.06	2106.34
848.24	1947.82
848.41	1743.85
848.59	2078.69
848.77	1992.47
848.95	1838.46
849.13	1854.44
849.31	1977.31
849.49	1952.94
849.67	1796.48
849.85	1764.33
850.03	1948.03
850.21	1935.74
850.39	1811.02
850.57	1969.94
850.74	2119.24
850.92	2274.88
851.10	2716.22
851.28	3518.82
851.46	4113.75
851.64	4784.46
851.82	4721.39
852.00	4791.84
852.18	4335.96
852.36	3780.96
852.53	3584.97
852.71	3436.49
852.89	3366.66
853.07	3182.13
853.25	2904.63
853.43	2714.99
853.61	2748.37
853.79	2593.75
853.97	2351.07
854.14	2220.00
854.32	2449.58
854.50	2308.27
854.68	2060.46
854.86	2019.50
855.04	1929.80
855.22	2072.54
855.40	1824.13
855.57	1834.37
855.75	2015.20
855.93	1951.10
856.11	1717.02
856.29	1803.65
856.47	1834.57
856.65	1927.14
856.82	1791.56
857.00	1742.82
857.18	1879.83
857.36	1849.11
857.54	1906.04
857.72	1980.80
857.89	1975.68
858.07	1923.04
858.25	2001.28
858.43	1746.30
858.61	1864.06
858.79	1859.56
858.97	1790.54
859.14	1919.97
859.32	1892.94
859.50	1872.05
859.68	1903.79
859.86	1834.98
860.03	1936.15
860.21	1987.55
860.39	1813.48
860.57	1919.77
860.75	1955.61
860.93	2177.20
861.10	2000.05
861.28	1822.08
861.46	1952.12
861.64	1972.40
861.82	1861.60
861.99	1932.67
862.17	2010.49
862.35	2052.47
862.53	1881.67
862.71	1885.36
862.88	1936.97
863.06	1986.32
863.24	1847.27
863.42	1786.24
863.60	1893.14
863.77	1950.90
863.95	1695.51
864.13	1872.66
864.31	1866.72
864.49	2011.51
864.66	1756.54
864.84	1837.85
865.02	1902.77
865.20	2240.89
865.37	1897.85
865.55	1838.05
865.73	1850.95
865.91	2221.43
866.09	2259.32
866.26	2300.28
866.44	2475.38
866.62	2339.39
866.80	2211.19
866.97	2176.99
867.15	2173.71
867.33	2189.89
867.51	2187.85
867.68	2106.54
867.86	2039.37
868.04	2007.42
868.22	1825.56
868.39	1908.30
868.57	2023.39
868.75	2152.01
868.93	1795.25
869.10	1853.82
869.28	2194.19
869.46	2094.05
869.64	1899.90
869.81	1875.53
869.99	1940.45
870.17	1936.76
870.35	1789.52
870.52	1779.68
870.70	2040.80
870.88	1832.93
871.05	1730.53
871.23	1665.82
871.41	1892.94
871.59	1900.31
871.76	1829.45
871.94	1786.65
872.12	1876.55
872.29	1735.45
872.47	1823.92
872.65	1750.60
872.83	1943.93
873.00	2059.03
873.18	1839.28
873.36	1804.06
873.53	1974.04
873.71	1716.81
873.89	1771.29
874.06	1869.80
874.24	1951.10
874.42	2079.30
874.60	1943.11
874.77	1885.77
874.95	1812.45
875.13	2024.83
875.30	1784.80
875.48	1823.92
875.66	2102.24
875.83	1837.85
876.01	1825.15
876.19	1947.41
876.36	1743.23
876.54	1890.07
876.72	1782.35
876.89	1920.38
877.07	1961.75
877.25	1698.99
877.42	1877.37
877.60	1838.05
877.78	2115.14
877.95	1842.56
878.13	1794.43
878.31	1925.91
878.48	1980.39
878.66	1981.82
878.84	1816.96
879.01	1847.68
879.19	1951.71
879.37	1953.35
879.54	1801.60
879.72	1743.44
879.90	1675.03
880.07	1989.40
880.25	1606.43
880.42	1952.12
880.60	1902.15
880.78	1990.83
880.95	1832.73
881.13	1835.39
881.31	1887.61
881.48	1830.06
881.66	1790.33
881.83	1872.05
882.01	1821.05
882.19	1731.97
882.36	1882.08
882.54	1829.25
882.72	1994.72
882.89	1902.15
883.07	1748.35
883.24	1824.54
883.42	1975.06
883.60	1918.13
883.77	1767.19
883.95	1808.77
884.12	1965.23
884.30	1934.10
884.48	1966.87
884.65	1859.15
884.83	1926.52
885.00	1930.01
885.18	1751.22
885.36	1819.42
885.53	1973.22
885.71	2061.49
885.88	1725.41
886.06	1837.23
886.23	1986.12
886.41	1837.03
886.59	1813.27
886.76	1813.48
886.94	1945.78
887.11	2254.81
887.29	1852.18
887.47	1726.44
887.64	2043.46
887.82	2059.85
887.99	1681.38
888.17	1875.12
888.34	1871.84
888.52	1761.05
888.69	1854.64
888.87	1740.36
889.05	1864.68
889.22	1808.56
889.40	1802.21
889.57	1977.11
889.75	2047.35
889.92	1838.05
890.10	1773.75
890.27	1850.95
890.45	1835.39
890.62	1716.40
890.80	1755.93
890.98	1728.08
891.15	2046.54
891.33	2019.50
891.50	1808.56
891.68	1720.29
891.85	1981.20
892.03	1976.09
892.20	1794.02
892.38	1753.27
892.55	1983.66
892.73	1993.49
892.90	1734.42
893.08	1803.24
893.25	1794.43
893.43	1824.33
893.60	1940.45
893.78	1662.34
893.95	1932.46
894.13	1890.89
894.30	1770.67
894.48	1859.97
894.65	2024.01
894.83	1886.38
895.00	1689.98
895.18	1721.32
895.35	2017.66
895.53	1975.88
895.70	1725.62
895.88	1888.64
896.05	1932.67
896.23	1719.06
896.40	1813.89
896.58	1852.80
896.75	1968.10
896.93	2048.58
897.10	1803.65
897.28	1717.22
897.45	1899.90
897.63	1939.22
897.80	1946.59
897.98	1838.05
898.15	1941.68
898.33	1793.41
898.50	1887.20
898.67	1849.52
898.85	1868.57
899.02	1955.81
899.20	1975.68
899.37	1835.80
899.55	1909.12
899.72	2066.40
899.90	1782.55
900.07	1791.36
900.25	1951.30
900.42	2061.08
900.59	1784.40
900.77	1897.03
900.94	1939.02
901.12	1918.95
901.29	1809.79
901.47	1942.91
901.64	1947.82
901.82	1905.63
901.99	1657.63
902.16	1790.13
902.34	2007.83
902.51	1905.84
902.69	1804.06
902.86	1845.63
903.03	2317.69
903.21	1887.82
903.38	1853.00
903.56	1796.68
903.73	2010.08
903.91	1849.93
904.08	1753.06
904.25	1673.40
904.43	1800.98
904.60	1993.90
904.78	1838.87
904.95	1766.17
905.12	1874.51
905.30	2100.40
905.47	1907.68
905.65	1941.47
905.82	1899.29
905.99	1953.97
906.17	1863.65
906.34	1776.41
906.52	1794.84
906.69	2005.17
906.86	1932.67
907.04	1882.08
907.21	2037.73
907.38	2034.45
907.56	1788.90
907.73	1793.20
907.91	2084.01
908.08	2020.53
908.25	1783.78
908.43	1750.19
908.60	1980.59
908.77	1950.08
908.95	1820.23
909.12	1770.88
909.30	1995.95
909.47	1743.23
909.64	1885.56
909.82	1975.06
909.99	1868.77
910.16	1927.14
910.34	1780.71
910.51	1856.07
910.68	1947.62
910.86	1943.73
911.03	1926.52
911.20	2591.29
911.38	4449.01
911.55	7213.77
911.72	8586.93
911.90	9454.04
912.07	10284.69
912.24	9954.56
912.42	7713.26
912.59	5599.35
912.76	5186.48
912.94	4392.89
913.11	3936.40
913.28	3524.14
913.46	3305.01
913.63	3315.25
913.80	3338.19
913.98	2940.88
914.15	3040.82
914.32	2987.37
914.49	2756.77
914.67	2595.19
914.84	2756.98
915.01	2753.29
915.19	2609.73
915.36	2381.79
915.53	2462.27
915.71	2280.62
915.88	2129.68
916.05	1950.69
916.22	2119.03
916.40	2008.44
916.57	1805.49
916.74	1941.47
916.92	2137.06
917.09	1800.16
917.26	1788.90
917.43	1756.75
917.61	1845.42
917.78	1708.01
917.95	1687.94
918.13	1751.83
918.30	2186.82
918.47	1914.24
918.64	1791.77
918.82	1802.21
918.99	1930.42
919.16	2131.94
919.33	1884.13
919.51	1796.48
919.68	1902.97
919.85	2043.46
920.02	1720.09
920.20	1843.99
920.37	2094.46
920.54	2007.62
920.71	1779.68
920.89	1817.57
921.06	2134.19
921.23	1828.22
921.40	1912.19
921.58	2479.07
921.75	3268.56
921.92	2995.36
922.09	3221.25
922.27	3249.72
922.44	3109.64
922.61	2777.25
922.78	2368.07
922.96	2277.34
923.13	2215.49
923.30	2330.38
923.47	1973.63
923.64	2038.96
923.82	2157.54
923.99	2128.66
924.16	2083.19
924.33	1962.36
924.50	2040.80
924.68	2219.79
924.85	1875.73
925.02	1942.70
925.19	2107.97
925.36	2035.27
925.54	1994.31
925.71	1904.20
925.88	2347.38
926.05	1893.55
926.22	1793.20
926.40	1866.52
926.57	1929.19
926.74	1975.06
926.91	1787.26
927.08	1968.51
927.26	2026.67
927.43	1890.68
927.60	1765.14
927.77	1834.98
927.94	2087.29
928.11	2021.35
928.29	1718.86
928.46	1865.90
928.63	1788.90
928.80	1892.12
928.97	1921.40
929.14	1765.96
929.32	2184.57
929.49	1881.47
929.66	1772.31
929.83	1722.14
930.00	1819.21
930.17	1940.45
930.35	1711.49
930.52	1801.60
930.69	2073.36
930.86	1773.54
931.03	1861.60
931.20	1642.47
931.37	2036.09
931.55	1890.48
931.72	1847.06
931.89	1714.56
932.06	1771.08
932.23	2090.77
932.40	1896.01
932.57	1893.76
932.74	2046.74
932.92	2049.81
933.09	1913.62
933.26	1565.67
933.43	1844.40
933.60	1919.77
933.77	1824.54
933.94	1877.99
934.11	1874.92
934.29	1896.62
934.46	1759.21
934.63	1905.84
934.80	1787.88
934.97	1951.71
935.14	1878.60
935.31	1754.29
935.48	1846.45
935.65	1947.21
935.82	1888.43
936.00	1767.40
936.17	2070.50
936.34	1873.69
936.51	1907.48
936.68	1720.29
936.85	1949.67
937.02	1936.15
937.19	1918.54
937.36	1822.49
937.53	1940.86
937.70	2012.13
937.87	1841.12
938.05	1905.63
938.22	1912.60
938.39	1787.88
938.56	1834.37
938.73	1754.09
938.90	1860.17
939.07	1800.98
939.24	1834.57
939.41	1658.45
939.58	1920.99
939.75	1937.99
939.92	1749.17
940.09	1952.33
940.26	1860.58
940.43	1989.40
940.60	1793.20
940.77	1786.44
940.95	1935.33
941.12	1977.52
941.29	1791.97
941.46	1843.99
941.63	2035.68
941.80	2074.80
941.97	1711.08
942.14	1720.29
942.31	1985.92
942.48	1868.98
942.65	1894.17
942.82	1832.73
942.99	1936.35
943.16	1874.30
943.33	1744.25
943.50	1791.15
943.67	2003.12
943.84	2039.57
944.01	1796.07
944.18	1730.74
944.35	2055.34
944.52	1759.41
944.69	1855.05
944.86	1705.14
945.03	1951.51
945.20	2172.89
945.37	1632.85
945.54	1812.25
945.71	2063.74
945.88	2106.54
946.05	1759.21
946.22	1726.85
946.39	2051.86
946.56	1867.34
946.73	1717.22
946.90	1751.63
947.07	1808.36
947.24	1841.33
947.41	1678.11
947.58	1921.40
947.75	1962.16
947.92	1931.64
948.09	1608.88
948.26	1684.86
948.43	1901.13
948.60	2116.78
948.77	1742.82
948.94	1751.22
949.11	1978.95
949.27	1937.79
949.44	1742.82
949.61	1745.89
949.78	1919.15
949.95	2034.86
950.12	1734.02
950.29	1700.02
950.46	1818.39
950.63	2011.92
950.80	1766.99
950.97	1816.75
951.14	2032.81
951.31	1841.74
951.48	1768.42
951.65	1718.04
951.82	2116.17
951.99	1931.64
952.15	1695.51
952.32	1794.43
952.49	1799.14
952.66	1820.85
952.83	1735.86
953.00	1731.97
953.17	1853.21
953.34	1999.64
953.51	1836.21
953.68	1823.72
953.85	2011.11
954.02	2015.82
954.18	1792.38
954.35	1828.02
954.52	1795.66
954.69	1901.33
954.86	1663.97
955.03	1795.25
955.20	1966.87
955.37	1873.07
955.54	1787.88
955.71	1773.13
955.87	1935.13
956.04	2109.82
956.21	1786.24
956.38	1712.72
956.55	1900.31
956.72	2196.45
956.89	1841.12
957.06	1751.22
957.23	1803.03
957.39	2075.41
957.56	1794.23
957.73	1748.76
957.90	1623.02
958.07	2119.44
958.24	1815.73
958.41	1801.39
958.57	1978.34
958.74	1871.23
958.91	1712.10
959.08	1760.84
959.25	1960.32
959.42	1870.61
959.59	1821.05
959.75	1795.86
959.92	2039.37
960.09	2011.31
960.26	1757.98
960.43	1840.92
960.60	1900.31
960.76	1847.27
960.93	1672.37
961.10	1837.64
961.27	1989.40
961.44	1871.23
961.61	1706.16
961.77	1745.69
961.94	1909.53
962.11	1978.75
962.28	1784.19
962.45	1721.11
962.62	1838.05
962.78	1976.09
962.95	1746.71
963.12	1779.89
963.29	1935.74
963.46	2237.41
963.62	1839.49
963.79	1770.47
963.96	2183.95
964.13	1860.58
964.30	1872.05
964.46	1807.74
964.63	1809.59
964.80	2328.34
964.97	1871.84
965.14	2245.80
965.30	2403.50
965.47	2524.12
965.64	2460.02
965.81	2387.11
965.98	2497.09
966.14	2208.53
966.31	2033.43
966.48	1992.67
966.65	2232.49
966.81	2141.77
966.98	1975.68
967.15	1970.35
967.32	2056.78
967.49	1922.22
967.65	1765.55
967.82	1760.43
967.99	1989.60
968.16	1817.37
968.32	2030.77
968.49	1855.87
968.66	1946.18
968.83	2167.57
968.99	1898.47
969.16	1798.12
969.33	2128.04
969.50	2033.22
969.66	1984.28
969.83	2034.25
970.00	2010.29
970.17	1986.73
970.33	1817.16
970.50	1719.47
970.67	2107.77
970.84	2033.22
971.00	1724.39
971.17	1712.10
971.34	1976.49
971.50	1912.19
971.67	1893.76
971.84	1847.27
972.01	1736.88
972.17	1648.82
972.34	1717.43
972.51	1886.59
972.67	1985.71
972.84	1948.64
973.01	1715.38
973.18	1768.22
973.34	1998.61
973.51	1781.53
973.68	1810.40
973.84	1823.51
974.01	1849.73
974.18	2105.52
974.34	1854.03
974.51	1865.90
974.68	1784.40
974.85	2128.25
975.01	1887.20
975.18	1800.16
975.35	1879.22
975.51	1800.16
975.68	1674.21
975.85	1923.45
976.01	1802.21
976.18	2052.27
976.35	1799.14
976.51	1740.36
976.68	2091.39
976.85	2043.46
977.01	1823.72
977.18	1893.35
977.35	1952.74
977.51	1750.60
977.68	1648.61
977.85	1728.49
978.01	2062.51
978.18	2006.80
978.35	1884.54
978.51	1879.63
978.68	2046.94
978.85	2121.08
979.01	1824.33
979.18	1816.75
979.34	1882.90
979.51	1932.87
979.68	1762.69
979.84	1838.46
980.01	2228.19
980.18	1904.61
980.34	1782.76
980.51	1870.00
980.67	2032.61
980.84	1975.06
981.01	1815.11
981.17	1872.87
981.34	1696.33
981.51	1976.09
981.67	1723.78
981.84	1911.57
982.00	1960.93
982.17	1884.34
982.34	1665.82
982.50	1602.13
982.67	2097.32
982.83	1808.36
983.00	1710.46
983.17	1601.92
983.33	2012.33
983.50	1710.87
983.66	1692.65
983.83	1606.84
984.00	1829.66
984.16	1900.31
984.33	1634.48
984.49	1634.07
984.66	1756.95
984.83	2000.46
984.99	1650.25
985.16	1608.47
985.32	1962.16
985.49	1979.16
985.65	1752.86
985.82	1621.79
985.99	2088.11
986.15	1891.50
986.32	1720.09
986.48	1673.19
986.65	1840.71
986.81	1974.24
986.98	1616.46
987.14	1679.54
987.31	1887.61
987.48	1696.54
987.64	1549.90
987.81	1631.62
987.97	2136.44
988.14	1773.13
988.30	1650.87
988.47	1513.04
988.63	1930.82
988.80	1773.54
988.96	1713.33
989.13	1715.38
989.30	1864.68
989.46	1990.22
989.63	1611.55
989.79	1600.90
989.96	1874.30
990.12	2109.20
990.29	1653.73
990.45	1673.60
990.62	1873.07
990.78	2027.69
990.95	1752.86
991.11	1654.14
991.28	1822.90
991.44	1899.29
991.61	1568.33
991.77	1682.41
991.94	1914.44
992.10	2016.02
992.27	1697.56
992.43	1674.83
992.60	1933.90
992.76	1829.45
992.93	1793.82
993.09	1621.38
993.26	1994.93
993.42	2103.06
993.59	1654.35
993.75	1555.64
993.92	1786.44
994.08	1799.14
994.25	1737.29
994.41	1635.71
994.58	1967.07
994.74	2080.33
994.91	1594.55
995.07	1716.81
995.24	1854.64
995.40	1856.69
995.56	1780.30
995.73	1734.02
995.89	2072.95
996.06	1838.67
996.22	1599.26
996.39	1566.90
996.55	1868.57
996.72	1921.61
996.88	1562.60
997.05	1626.09
997.21	2123.13
997.37	1955.20
997.54	1723.98
997.70	1670.32
997.87	1901.95
998.03	1857.10
998.20	1553.59
998.36	1575.91
998.52	1957.65
998.69	1992.26
998.85	1569.56
999.02	1642.27
999.18	1978.34
999.35	1989.19
999.51	1670.12
999.67	1653.53
999.84	1759.41
1000.00	1972.40
1000.17	1733.81
1000.33	1631.41
1000.49	1818.19
1000.66	1851.36
1000.82	1644.52
1000.99	1714.35
1001.15	1996.36
1001.31	1850.54
1001.48	1673.19
1001.64	1737.50
1001.81	1829.86
1001.97	2155.28
1002.13	1645.95
1002.30	1660.29
1002.46	2060.87
1002.63	1860.17
1002.79	1723.98
1002.95	1664.59
1003.12	1983.46
1003.28	1928.57
1003.45	1615.44
1003.61	1591.89
1003.77	1905.84
1003.94	1722.34
1004.10	1678.72
1004.26	1710.05
1004.43	1931.44
1004.59	2109.00
1004.75	1631.82
1004.92	1609.09
1005.08	1813.48
1005.25	1896.83
1005.41	1653.33
1005.57	1706.78
1005.74	2015.20
1005.90	1821.87
1006.06	1745.48
1006.23	1655.37
1006.39	1950.08
1006.55	2213.65
1006.72	1785.21
1006.88	1575.91
1007.04	1760.64
1007.21	1844.81
1007.37	1672.17
1007.53	1651.89
1007.70	2056.16
1007.86	1989.60
1008.02	1718.86
1008.19	1655.58
1008.35	1898.67
1008.51	1784.80
1008.68	1663.97
1008.84	1579.19
1009.00	1756.75
1009.17	2016.43
1009.33	1781.12
1009.49	1732.99
1009.65	1789.11
1009.82	1926.93
1009.98	1713.54
1010.14	1576.73
1010.31	1969.53
1010.47	1935.74
1010.63	1717.02
1010.80	1700.63
1010.96	1910.96
1011.12	1869.59
1011.28	1661.72
1011.45	1659.88
1011.61	2210.37
1011.77	1798.32
1011.94	1635.71
1012.10	1619.33
1012.26	1773.54
1012.42	1826.17
1012.59	1713.54
1012.75	1708.83
1012.91	1860.17
1013.07	1985.71
1013.24	1620.56
1013.40	1636.12
1013.56	1894.78
1013.72	1876.14
1013.89	1722.75
1014.05	1727.67
1014.21	2133.16
1014.37	2192.76
1014.54	1695.10
1014.70	1624.45
1014.86	1833.75
1015.02	1747.12
1015.19	1669.30
1015.35	1621.17
1015.51	1853.00
1015.67	1820.23
1015.84	1641.86
1016.00	1627.73
1016.16	2011.11
1016.32	1977.11
1016.49	1646.36
1016.65	1601.51
1016.81	1865.70
1016.97	1966.25
1017.14	1748.97
1017.30	1627.32
1017.46	1796.89
1017.62	1916.90
1017.78	1727.05
1017.95	1629.16
1018.11	1987.14
1018.27	2186.41
1018.43	1781.32
1018.59	1740.77
1018.76	1971.78
1018.92	2224.09
1019.08	1641.65
1019.24	1668.68
1019.40	2039.57
1019.57	1903.38
1019.73	1713.74
1019.89	1655.58
1020.05	1903.18
1020.21	2162.04
1020.38	1611.96
1020.54	1791.97
1020.70	1965.64
1020.86	1966.87
1021.02	1660.70
1021.18	1647.18
1021.35	1813.68
1021.51	1958.68
1021.67	1787.06
1021.83	1673.19
1021.99	1888.02
1022.15	1903.18
1022.32	1750.81
1022.48	1705.96
1022.64	2063.74
1022.80	2077.66
1022.96	1692.44
1023.12	1619.12
1023.29	2033.63
1023.45	1933.90
1023.61	1658.45
1023.77	1816.75
1023.93	1901.13
1024.09	1794.43
1024.25	1630.18
1024.42	1633.46
1024.58	1815.32
1024.74	1901.95
1024.90	1690.19
1025.06	1713.54
1025.22	1803.44
1025.38	2072.34
1025.54	1597.01
1025.71	1737.70
1025.87	1959.91
1026.03	1946.18
1026.19	1638.58
1026.35	1787.47
1026.51	1935.94
1026.67	1892.94
1026.83	1706.57
1026.99	1770.88
1027.16	1945.98
1027.32	2017.45
1027.48	1679.95
1027.64	1617.28
1027.80	1955.20
1027.96	1920.59
1028.12	1690.19
1028.28	1630.59
1028.44	1915.87
1028.60	2071.93
1028.77	1762.07
1028.93	1688.55
1029.09	1833.96
1029.25	1764.73
1029.41	1691.62
1029.57	1748.15
1029.73	1899.90
1029.89	2045.31
1030.05	1785.21
1030.21	1729.71
1030.37	2146.68
1030.53	1979.16
1030.69	1687.53
1030.85	1601.10
1031.02	1762.89
1031.18	1862.83
1031.34	1664.38
1031.50	1714.76
1031.66	1775.59
1031.82	2047.35
1031.98	1719.88
1032.14	1630.18
1032.30	1762.28
1032.46	1983.05
1032.62	1770.06
1032.78	1607.04
1032.94	1795.45
1033.10	1821.05
1033.26	1724.59
1033.42	1765.96
1033.58	2106.34
1033.74	1814.30
1033.90	1662.54
1034.06	1839.49
1034.22	2157.33
1034.38	2017.45
1034.54	1667.87
1034.70	1687.53
1034.86	2112.68
>>>>>End Processed Spectral Data<<<<<
