SpectraSuite Data File
++++++++++++++++++++++++++++++++++++
Date: Thu Mar 30 16:21:20 PDT 2017
User: UCSD _CER
Dark Spectrum Present: No
Reference Spectrum Present: No
Number of Sampled Component Spectra: 1
Spectrometers: USB4C00073
Integration Time (usec): 250000 (USB4C00073)
Spectra Averaged: 10 (USB4C00073)
Boxcar Smoothing: 0 (USB4C00073)
Correct for Electrical Dark: No (USB4C00073)
Strobe/Lamp Enabled: No (USB4C00073)
Correct for Detector Non-linearity: No (USB4C00073)
Correct for Stray Light: No (USB4C00073)
Number of Pixels in Processed Spectrum: 3648
>>>>>Begin Processed Spectral Data<<<<<
345.37	1256.63
345.58	1256.63
345.80	1256.63
346.01	1295.14
346.22	1283.87
346.43	1964.82
346.65	1774.36
346.86	2132.75
347.07	2097.32
347.28	1802.83
347.50	1796.07
347.71	1904.00
347.92	1737.09
348.13	1813.68
348.35	1706.57
348.56	1896.01
348.77	1747.12
348.98	1800.78
349.20	1663.36
349.41	1892.53
349.62	1981.82
349.83	1843.99
350.05	1723.78
350.26	1951.30
350.47	2111.05
350.68	1763.30
350.90	1721.73
351.11	2093.23
351.32	2042.03
351.53	1800.98
351.75	1720.91
351.96	1936.97
352.17	1917.31
352.38	1853.41
352.60	1853.82
352.81	1907.07
353.02	2151.39
353.23	1768.01
353.44	1800.57
353.66	1836.82
353.87	1821.46
354.08	1891.30
354.29	1790.74
354.51	1837.03
354.72	1867.95
354.93	1753.47
355.14	1718.04
355.35	1715.99
355.57	2018.68
355.78	1794.23
355.99	1850.54
356.20	1905.43
356.42	1876.14
356.63	1887.61
356.84	1802.62
357.05	2005.37
357.26	2192.76
357.48	1876.76
357.69	1824.74
357.90	1930.21
358.11	1847.47
358.32	1805.49
358.54	1833.34
358.75	1850.34
358.96	1974.86
359.17	1776.41
359.38	1809.79
359.60	1975.88
359.81	1886.59
360.02	1803.24
360.23	1770.26
360.44	1811.63
360.66	2041.42
360.87	1744.05
361.08	1752.04
361.29	1965.44
361.50	1926.73
361.72	1796.27
361.93	1827.20
362.14	1923.45
362.35	1738.73
362.56	1902.36
362.77	1692.65
362.99	1973.83
363.20	1925.50
363.41	1846.45
363.62	1687.73
363.83	1988.17
364.05	2026.87
364.26	1693.06
364.47	1770.88
364.68	2053.09
364.89	1795.45
365.10	1714.35
365.32	1806.72
365.53	1796.07
365.74	1830.88
365.95	1795.25
366.16	1687.73
366.37	1883.93
366.59	1848.29
366.80	1785.21
367.01	1697.97
367.22	2176.58
367.43	2287.17
367.64	1778.87
367.86	1814.30
368.07	1963.39
368.28	2044.90
368.49	1725.41
368.70	1855.46
368.91	1847.68
369.12	1869.39
369.34	1705.34
369.55	1718.66
369.76	1916.90
369.97	1840.51
370.18	1743.85
370.39	1729.92
370.60	1747.74
370.82	1792.79
371.03	1797.71
371.24	1744.87
371.45	2002.09
371.66	1969.33
371.87	1796.89
372.08	1746.10
372.30	1769.04
372.51	2021.75
372.72	1852.39
372.93	1746.30
373.14	2085.24
373.35	1824.94
373.56	1756.13
373.78	1810.40
373.99	2029.54
374.20	2243.75
374.41	1802.21
374.62	1809.38
374.83	2064.76
375.04	1863.86
375.25	1812.25
375.47	1766.58
375.68	1841.94
375.89	1996.36
376.10	1827.81
376.31	1890.68
376.52	1968.51
376.73	1936.35
376.94	1820.44
377.15	1773.75
377.37	1884.54
377.58	1870.21
377.79	1685.48
378.00	1747.53
378.21	1938.81
378.42	1968.51
378.63	1796.07
378.84	1906.25
379.05	2017.45
379.27	1909.32
379.48	1914.65
379.69	1743.44
379.90	2063.33
380.11	1669.91
380.32	1794.23
380.53	1876.96
380.74	2073.16
380.95	1915.67
381.16	1794.23
381.37	1770.67
381.59	2091.59
381.80	2017.04
382.01	1766.78
382.22	1698.38
382.43	1963.80
382.64	1900.11
382.85	1715.79
383.06	1835.80
383.27	1980.80
383.48	1862.63
383.69	1867.34
383.91	1710.87
384.12	1968.51
384.33	1971.99
384.54	1797.09
384.75	1691.01
384.96	2293.32
385.17	2010.90
385.38	1756.54
385.59	1757.77
385.80	1992.06
386.01	2085.24
386.22	1889.46
386.43	1816.34
386.64	2209.35
386.86	1893.96
387.07	1892.53
387.28	1714.35
387.49	1823.72
387.70	2072.54
387.91	1859.15
388.12	1734.02
388.33	1948.85
388.54	1842.15
388.75	1765.96
388.96	1850.54
389.17	1827.61
389.38	1877.58
389.59	1858.53
389.80	1814.71
390.01	1899.29
390.22	1837.85
390.43	1890.48
390.64	1695.72
390.86	1945.37
391.07	2032.40
391.28	1802.42
391.49	1849.73
391.70	1751.63
391.91	1809.59
392.12	1800.37
392.33	1772.31
392.54	1923.45
392.75	1867.34
392.96	1885.56
393.17	1748.97
393.38	2206.48
393.59	2035.89
393.80	1707.60
394.01	1802.62
394.22	1900.11
394.43	2176.79
394.64	1741.59
394.85	1905.02
395.06	1918.74
395.27	1923.86
395.48	1821.67
395.69	1729.10
395.90	1850.13
396.11	1892.73
396.32	1749.17
396.53	1903.38
396.74	1871.84
396.95	2027.49
397.16	1759.82
397.37	1705.75
397.58	2017.45
397.79	1920.38
398.00	1870.21
398.21	1767.40
398.42	1945.98
398.63	2178.01
398.84	1791.97
399.05	1763.30
399.26	2054.93
399.47	1933.49
399.68	1605.81
399.89	1744.25
400.10	1780.30
400.31	1858.12
400.52	1822.49
400.73	1782.55
400.94	1717.02
401.15	1937.38
401.36	1799.96
401.57	1870.00
401.78	2066.61
401.99	2028.72
402.20	1723.37
402.41	1896.21
402.62	2074.80
402.83	1893.35
403.04	1747.33
403.25	1922.84
403.46	1951.92
403.67	2103.47
403.88	1816.14
404.09	1788.90
404.30	1856.48
404.51	1859.35
404.72	1731.76
404.93	1891.50
405.14	1818.80
405.35	1915.47
405.56	1805.08
405.77	1785.42
405.98	1925.09
406.19	1879.42
406.40	1756.75
406.61	1769.65
406.82	1807.13
407.03	2164.09
407.24	1721.73
407.45	1836.41
407.66	1944.14
407.87	2020.73
408.08	1860.37
408.29	1867.34
408.49	1956.63
408.70	1900.31
408.91	1821.67
409.12	1866.11
409.33	1780.71
409.54	2064.76
409.75	1767.40
409.96	1788.70
410.17	2007.62
410.38	1861.81
410.59	1755.93
410.80	1895.80
411.01	1888.84
411.22	1882.49
411.43	1836.62
411.64	1757.77
411.85	1810.20
412.06	1761.25
412.27	1642.06
412.47	1778.87
412.68	1905.63
412.89	1940.04
413.10	1754.09
413.31	1682.82
413.52	2160.40
413.73	2155.90
413.94	1765.14
414.15	1900.51
414.36	1818.60
414.57	1791.77
414.78	1688.35
414.99	1801.80
415.19	2123.74
415.40	2107.56
415.61	2126.82
415.82	1993.29
416.03	2158.15
416.24	2060.05
416.45	1852.39
416.66	1792.59
416.87	1760.84
417.08	2011.11
417.29	1741.80
417.50	1837.85
417.70	2014.38
417.91	1995.75
418.12	1851.36
418.33	1878.19
418.54	2011.11
418.75	2112.27
418.96	2069.06
419.17	2058.41
419.38	2367.86
419.59	2286.35
419.79	2129.07
420.00	2052.27
420.21	2475.58
420.42	1987.55
420.63	1863.45
420.84	1895.80
421.05	1885.36
421.26	1925.30
421.47	1720.50
421.67	2031.99
421.88	1794.84
422.09	1773.75
422.30	1916.69
422.51	1807.95
422.72	2086.27
422.93	1994.72
423.14	1798.73
423.35	1703.50
423.55	1706.78
423.76	1783.99
423.97	1808.56
424.18	1715.79
424.39	1868.77
424.60	2005.78
424.81	1824.74
425.02	1915.67
425.22	1932.05
425.43	1920.18
425.64	2037.32
425.85	1917.72
426.06	2239.86
426.27	2124.15
426.48	1991.44
426.68	1953.97
426.89	2094.25
427.10	2220.82
427.31	1872.25
427.52	1789.31
427.73	1961.13
427.94	1948.64
428.14	1873.48
428.35	1807.54
428.56	2092.61
428.77	2034.25
428.98	1871.43
429.19	1878.40
429.40	1905.84
429.60	1919.77
429.81	1969.53
430.02	1880.85
430.23	1908.91
430.44	2002.30
430.65	1798.12
430.85	1844.40
431.06	1969.33
431.27	1732.58
431.48	1782.35
431.69	1838.87
431.90	1919.15
432.10	1904.00
432.31	1849.52
432.52	1746.92
432.73	2248.06
432.94	2140.33
433.15	2009.06
433.35	1883.52
433.56	2096.92
433.77	1944.55
433.98	1955.81
434.19	1845.02
434.40	1930.42
434.60	1888.23
434.81	1811.63
435.02	1848.09
435.23	1884.75
435.44	1848.91
435.64	1683.43
435.85	1746.10
436.06	1863.04
436.27	1836.82
436.48	1718.04
436.68	1750.81
436.89	2114.53
437.10	1974.24
437.31	1825.15
437.52	1892.94
437.73	1924.68
437.93	1922.84
438.14	1875.12
438.35	1661.31
438.56	1833.55
438.77	1885.36
438.97	1923.86
439.18	1747.94
439.39	2011.92
439.60	1748.15
439.80	1694.08
440.01	1819.62
440.22	1822.49
440.43	1987.35
440.64	1718.66
440.84	1847.47
441.05	1763.51
441.26	2246.01
441.47	1859.76
441.68	1759.21
441.88	1857.51
442.09	1878.60
442.30	1928.16
442.51	1845.83
442.71	1851.77
442.92	1913.62
443.13	1753.06
443.34	1735.24
443.55	1776.41
443.75	1965.85
443.96	1740.16
444.17	1742.00
444.38	2026.47
444.58	1774.77
444.79	1874.30
445.00	1839.90
445.21	1860.99
445.41	1880.65
445.62	1595.98
445.83	1857.92
446.04	1922.43
446.24	1750.81
446.45	1649.84
446.66	1759.21
446.87	1956.22
447.07	1821.67
447.28	1987.76
447.49	1806.10
447.70	1999.64
447.90	2038.55
448.11	1795.66
448.32	1881.47
448.53	2092.20
448.73	2062.51
448.94	1805.69
449.15	1924.48
449.36	1888.02
449.56	1981.41
449.77	1777.43
449.98	1716.81
450.19	1876.76
450.39	1891.50
450.60	1899.29
450.81	1889.05
451.02	1928.57
451.22	2068.45
451.43	1796.07
451.64	1815.93
451.84	1880.85
452.05	2057.18
452.26	1867.95
452.47	1824.74
452.67	1835.39
452.88	2074.39
453.09	1775.38
453.30	1710.05
453.50	2013.36
453.71	2055.96
453.92	1802.83
454.12	1881.47
454.33	1812.86
454.54	1844.61
454.75	1751.01
454.95	1743.85
455.16	1922.02
455.37	1966.46
455.57	1822.49
455.78	1788.49
455.99	1874.71
456.19	1891.50
456.40	1737.70
456.61	1828.63
456.82	1909.53
457.02	1976.09
457.23	1877.17
457.44	1974.24
457.64	1830.06
457.85	1938.20
458.06	1801.19
458.26	1978.34
458.47	1886.59
458.68	1957.45
458.89	1722.14
459.09	1920.99
459.30	2154.46
459.51	1925.50
459.71	1705.55
459.92	1793.61
460.13	1987.14
460.33	2142.58
460.54	1780.09
460.75	1803.65
460.95	1781.32
461.16	1952.74
461.37	1780.50
461.57	1813.89
461.78	1938.81
461.99	1784.19
462.19	1999.64
462.40	1763.71
462.61	2147.50
462.81	2042.23
463.02	1762.69
463.23	1776.82
463.43	1988.17
463.64	1839.90
463.85	2721.75
464.05	1757.36
464.26	2318.51
464.47	2063.12
464.67	1985.10
464.88	1853.62
465.09	1837.03
465.29	1906.86
465.50	1925.30
465.71	1823.92
465.91	1834.98
466.12	1886.59
466.33	1838.87
466.53	1816.75
466.74	2083.60
466.94	1871.64
467.15	1830.27
467.36	2000.66
467.56	1770.06
467.77	1950.49
467.98	1855.46
468.18	1773.34
468.39	1843.99
468.60	2162.66
468.80	1828.63
469.01	1745.89
469.21	1962.16
469.42	2025.65
469.63	1821.05
469.83	1737.50
470.04	1994.52
470.25	2083.81
470.45	1873.69
470.66	1781.94
470.86	1951.92
471.07	1856.48
471.28	1885.16
471.48	1925.91
471.69	1918.33
471.90	2353.53
472.10	1797.91
472.31	1823.92
472.51	1830.47
472.72	1800.16
472.93	1751.01
473.13	1925.71
473.34	1904.41
473.54	1890.68
473.75	1836.21
473.96	1969.33
474.16	1909.32
474.37	1946.18
474.57	1863.65
474.78	1805.49
474.99	1965.23
475.19	1912.80
475.40	1794.23
475.60	1713.13
475.81	2074.39
476.02	1846.86
476.22	1843.58
476.43	1954.79
476.63	1873.69
476.84	2081.15
477.05	1693.67
477.25	1768.22
477.46	2300.89
477.66	1928.98
477.87	1693.47
478.08	1814.50
478.28	2013.15
478.49	1884.34
478.69	1780.30
478.90	1817.98
479.10	1965.44
479.31	2093.64
479.52	1861.19
479.72	1939.02
479.93	1958.68
480.13	1835.59
480.34	1794.23
480.54	1883.31
480.75	1805.28
480.96	2047.35
481.16	1776.20
481.37	1915.06
481.57	1996.36
481.78	1993.90
481.98	2004.14
482.19	1862.83
482.40	2125.79
482.60	1992.26
482.81	1895.80
483.01	1807.74
483.22	2025.24
483.42	2020.32
483.63	1938.61
483.83	1910.96
484.04	1848.29
484.24	1983.66
484.45	1857.51
484.66	1718.45
484.86	1964.62
485.07	1793.00
485.27	1872.87
485.48	1783.58
485.68	2061.69
485.89	1803.03
486.09	1879.22
486.30	1776.20
486.50	1902.97
486.71	1900.72
486.91	1865.09
487.12	1914.65
487.33	2155.90
487.53	2158.35
487.74	1912.80
487.94	1885.97
488.15	1961.54
488.35	2015.20
488.56	1880.85
488.76	1863.86
488.97	1930.21
489.17	2000.87
489.38	1850.75
489.58	1808.36
489.79	1956.42
489.99	1967.89
490.20	1846.65
490.40	1925.30
490.61	1962.16
490.81	1856.48
491.02	1844.20
491.22	1898.26
491.43	1979.16
491.63	1925.91
491.84	1970.15
492.04	1731.56
492.25	1983.46
492.45	1863.45
492.66	1775.79
492.86	1711.90
493.07	1865.49
493.27	2181.29
493.48	1702.89
493.68	1836.41
493.89	1870.00
494.09	2011.72
494.30	1824.94
494.50	2066.61
494.71	1980.39
494.91	1748.76
495.12	1840.71
495.32	1945.37
495.53	1897.65
495.73	1694.69
495.94	1829.66
496.14	1674.01
496.35	2116.37
496.55	1863.24
496.76	1815.32
496.96	1888.43
497.17	1885.56
497.37	1941.88
497.58	1786.65
497.78	1766.37
497.98	1893.76
498.19	1863.24
498.39	1867.54
498.60	1894.58
498.80	1722.55
499.01	2003.73
499.21	1771.29
499.42	1862.63
499.62	1874.51
499.83	2186.21
500.03	1725.82
500.24	1885.97
500.44	2098.35
500.64	2021.96
500.85	1801.19
501.05	1934.51
501.26	1738.11
501.46	2058.00
501.67	1771.49
501.87	1717.43
502.08	1846.65
502.28	1879.01
502.48	1928.78
502.69	1943.32
502.89	1755.31
503.10	1819.01
503.30	1850.54
503.51	1890.07
503.71	1765.76
503.92	1979.36
504.12	1894.58
504.32	1831.09
504.53	2013.97
504.73	1987.96
504.94	2003.12
505.14	2082.99
505.35	2059.03
505.55	2051.45
505.75	1948.44
505.96	2034.45
506.16	2190.51
506.37	1888.43
506.57	1781.94
506.78	1898.67
506.98	2020.32
507.18	1732.99
507.39	1764.94
507.59	1837.85
507.80	1821.87
508.00	1925.91
508.20	1985.71
508.41	1880.44
508.61	2071.93
508.82	2013.56
509.02	1959.29
509.22	1766.99
509.43	1761.05
509.63	1825.97
509.84	1841.74
510.04	1752.65
510.24	2074.39
510.45	1979.98
510.65	1738.73
510.86	1875.53
511.06	1783.78
511.26	2007.62
511.47	1945.98
511.67	1808.15
511.88	1968.51
512.08	2061.89
512.28	1729.30
512.49	1929.19
512.69	1917.92
512.90	1947.41
513.10	1785.42
513.30	1883.11
513.51	1965.03
513.71	2084.42
513.91	1902.77
514.12	1883.72
514.32	2022.78
514.53	1829.45
514.73	1923.25
514.93	1858.33
515.14	1952.74
515.34	2101.42
515.54	1937.58
515.75	1988.37
515.95	2093.64
516.15	2140.95
516.36	1993.90
516.56	1939.22
516.77	1662.75
516.97	1981.82
517.17	1870.82
517.38	1963.18
517.58	2121.29
517.78	1896.42
517.99	1982.23
518.19	1989.81
518.39	2174.74
518.60	1995.95
518.80	1914.44
519.00	1979.77
519.21	1940.45
519.41	2179.45
519.61	1821.87
519.82	1945.78
520.02	1936.76
520.22	1909.12
520.43	1871.02
520.63	1896.62
520.83	1851.16
521.04	1740.77
521.24	1988.99
521.44	1913.83
521.65	1928.98
521.85	2124.97
522.05	1904.82
522.26	1898.47
522.46	2213.65
522.66	2025.44
522.87	1874.30
523.07	1994.31
523.27	1886.79
523.48	2136.03
523.68	1936.15
523.88	1897.85
524.09	2079.10
524.29	1974.65
524.49	1745.48
524.70	2016.84
524.90	2158.76
525.10	2061.28
525.31	1799.75
525.51	1800.78
525.71	2009.47
525.91	1993.08
526.12	1835.59
526.32	1762.28
526.52	1870.21
526.73	1840.71
526.93	1909.32
527.13	1730.94
527.34	1907.48
527.54	1928.98
527.74	1829.86
527.94	1780.50
528.15	1782.76
528.35	1923.04
528.55	1944.55
528.76	1928.78
528.96	1728.90
529.16	2030.97
529.36	1983.46
529.57	1769.65
529.77	2056.98
529.97	1808.36
530.18	1938.61
530.38	1843.38
530.58	1966.87
530.78	1965.85
530.99	1829.86
531.19	1931.64
531.39	1815.52
531.60	1902.97
531.80	1830.88
532.00	1980.59
532.20	1943.73
532.41	1832.52
532.61	1819.62
532.81	1859.97
533.01	1849.73
533.22	1928.57
533.42	1985.92
533.62	1711.28
533.82	2069.27
534.03	1877.99
534.23	1919.97
534.43	1768.01
534.63	1842.35
534.84	1921.61
535.04	1893.35
535.24	1876.76
535.44	2243.75
535.65	1855.66
535.85	1790.54
536.05	1800.37
536.25	1905.23
536.46	1785.83
536.66	2015.00
536.86	1907.68
537.06	2019.30
537.27	2077.66
537.47	1953.35
537.67	1845.63
537.87	2124.36
538.08	1880.24
538.28	1770.06
538.48	1765.35
538.68	1907.48
538.88	1986.32
539.09	1728.90
539.29	1851.36
539.49	2011.51
539.69	1959.09
539.90	1938.61
540.10	1789.31
540.30	2061.28
540.50	1854.85
540.70	1755.72
540.91	1893.96
541.11	2041.42
541.31	2147.30
541.51	1963.39
541.72	1990.42
541.92	2023.39
542.12	1890.28
542.32	1890.28
542.52	1833.55
542.73	1825.56
542.93	1994.31
543.13	1834.57
543.33	1970.97
543.53	2042.64
543.74	2031.18
543.94	1866.31
544.14	1992.26
544.34	2114.94
544.54	1987.35
544.75	2052.47
544.95	2181.29
545.15	2094.05
545.35	2169.21
545.55	2054.93
545.75	1837.64
545.96	2242.94
546.16	1858.53
546.36	1897.85
546.56	1933.69
546.76	2054.32
546.97	2137.06
547.17	1874.51
547.37	1921.20
547.57	1828.84
547.77	2001.48
547.97	1905.84
548.18	1937.17
548.38	1908.50
548.58	2172.28
548.78	2012.54
548.98	2168.80
549.18	2332.64
549.39	2440.36
549.59	2213.24
549.79	2069.88
549.99	2302.94
550.19	2166.14
550.39	2099.17
550.60	1989.60
550.80	2021.75
551.00	2045.51
551.20	1877.37
551.40	1863.24
551.60	2005.17
551.80	1956.01
552.01	2032.40
552.21	1899.70
552.41	1942.09
552.61	2151.80
552.81	1922.43
553.01	1785.01
553.21	1979.98
553.42	1809.99
553.62	1828.22
553.82	1811.22
554.02	2108.59
554.22	2002.71
554.42	1805.90
554.62	1960.32
554.83	2135.42
555.03	2195.63
555.23	2049.20
555.43	2278.37
555.63	2175.76
555.83	2119.03
556.03	2027.08
556.23	1863.65
556.44	2055.55
556.64	2162.04
556.84	1742.62
557.04	1938.20
557.24	2049.40
557.44	1967.89
557.64	1928.78
557.84	1820.03
558.04	1889.25
558.25	2022.16
558.45	1825.56
558.65	1926.52
558.85	1948.85
559.05	1717.02
559.25	1880.85
559.45	1995.34
559.65	2262.19
559.85	2671.37
560.05	2026.26
560.26	2101.01
560.46	2094.87
560.66	1981.82
560.86	1973.42
561.06	1883.72
561.26	2151.39
561.46	2042.03
561.66	1909.73
561.86	2009.47
562.06	1839.69
562.26	1923.86
562.47	1915.67
562.67	1795.25
562.87	1995.95
563.07	1728.69
563.27	1930.01
563.47	1922.43
563.67	1860.58
563.87	2014.59
564.07	1832.11
564.27	1964.41
564.47	1976.70
564.67	2052.06
564.87	1890.48
565.08	1988.17
565.28	1900.11
565.48	2009.47
565.68	1987.96
565.88	1959.50
566.08	2173.10
566.28	1941.06
566.48	1765.76
566.68	1882.70
566.88	1931.64
567.08	2010.90
567.28	1872.66
567.48	1878.19
567.68	1983.87
567.88	1779.68
568.08	1959.29
568.28	2064.76
568.48	1921.61
568.68	2076.23
568.89	1927.75
569.09	1747.53
569.29	2022.57
569.49	2020.94
569.69	1808.15
569.89	1799.96
570.09	1704.93
570.29	1802.42
570.49	1730.94
570.69	1807.74
570.89	1982.02
571.09	2147.91
571.29	1715.99
571.49	2023.19
571.69	1953.35
571.89	1977.72
572.09	1813.48
572.29	1813.89
572.49	1997.38
572.69	1969.53
572.89	1872.25
573.09	1656.60
573.29	1931.64
573.49	1954.38
573.69	1937.58
573.89	1999.02
574.09	1859.97
574.29	2073.98
574.49	1845.02
574.69	1817.78
574.89	1786.24
575.09	1801.19
575.29	1779.07
575.49	1849.93
575.69	1950.90
575.89	1780.09
576.09	1874.10
576.29	1902.97
576.49	1781.94
576.69	1903.18
576.89	1838.26
577.09	1888.23
577.29	1778.25
577.49	2130.30
577.69	1834.37
577.89	1951.30
578.09	1920.18
578.29	1696.33
578.49	1888.84
578.69	1822.49
578.89	2024.62
579.09	1893.96
579.29	1814.09
579.49	2004.14
579.69	1851.77
579.89	2147.30
580.09	1670.32
580.29	1718.66
580.49	1842.76
580.69	1786.24
580.89	1864.47
581.09	1871.02
581.29	1836.62
581.49	1861.81
581.69	1800.98
581.89	1805.49
582.09	1797.71
582.28	1779.07
582.48	1991.65
582.68	2041.82
582.88	2102.85
583.08	1894.99
583.28	1892.53
583.48	1880.65
583.68	1835.80
583.88	1915.06
584.08	1890.68
584.28	1860.99
584.48	2133.57
584.68	1988.99
584.88	1845.63
585.08	2010.70
585.28	2004.96
585.48	2057.59
585.68	1952.12
585.87	1972.60
586.07	1980.18
586.27	1909.73
586.47	1957.45
586.67	1898.88
586.87	1889.05
587.07	1867.34
587.27	1770.06
587.47	1902.56
587.67	2140.54
587.87	2305.60
588.07	2059.44
588.27	2003.12
588.46	2173.71
588.66	2192.96
588.86	2030.77
589.06	2043.05
589.26	2069.88
589.46	2072.54
589.66	1823.92
589.86	1818.80
590.06	1899.08
590.26	2033.84
590.46	1893.96
590.66	1989.60
590.85	1922.22
591.05	2035.27
591.25	1884.54
591.45	1911.37
591.65	2034.86
591.85	1967.28
592.05	1929.60
592.25	2041.82
592.45	2111.05
592.64	1931.23
592.84	1966.66
593.04	1854.85
593.24	2275.09
593.44	1909.12
593.64	1980.59
593.84	1992.47
594.04	1884.34
594.24	2128.25
594.43	1859.15
594.63	1926.52
594.83	2052.27
595.03	2005.17
595.23	1816.55
595.43	1738.32
595.63	1828.84
595.83	2025.85
596.02	1670.94
596.22	1880.85
596.42	1968.30
596.62	1888.64
596.82	1841.12
597.02	1990.42
597.22	2095.28
597.41	1954.17
597.61	1822.69
597.81	1965.64
598.01	2022.37
598.21	1847.47
598.41	1864.27
598.61	1841.53
598.80	1908.50
599.00	1962.98
599.20	2009.67
599.40	1857.92
599.60	1900.92
599.80	2045.51
599.99	2048.38
600.19	1893.76
600.39	1924.48
600.59	1992.47
600.79	1956.83
600.99	1922.02
601.19	2150.37
601.38	2187.03
601.58	1942.50
601.78	1719.68
601.98	2015.00
602.18	2242.73
602.37	2545.01
602.57	2446.30
602.77	2656.83
602.97	2621.20
603.17	2613.62
603.37	2473.74
603.56	2571.84
603.76	2508.56
603.96	2429.51
604.16	2404.52
604.36	2408.21
604.56	2285.33
604.75	2014.79
604.95	2051.66
605.15	2212.63
605.35	2141.56
605.55	1938.61
605.74	1900.92
605.94	2116.17
606.14	1965.23
606.34	1977.11
606.54	1903.79
606.73	1872.66
606.93	2020.73
607.13	1810.81
607.33	1923.25
607.53	2079.71
607.72	2052.88
607.92	1964.82
608.12	1983.05
608.32	1899.49
608.51	1994.11
608.71	1832.93
608.91	1964.62
609.11	2045.92
609.31	1927.75
609.50	1999.43
609.70	2141.77
609.90	2108.59
610.10	2111.46
610.29	1967.69
610.49	1878.60
610.69	2057.39
610.89	1968.92
611.09	1963.18
611.28	2037.11
611.48	2066.61
611.68	1907.68
611.88	1839.28
612.07	1846.86
612.27	2007.62
612.47	1850.95
612.67	1922.02
612.86	2012.95
613.06	1934.31
613.26	1739.14
613.46	1853.21
613.65	1931.85
613.85	2306.83
614.05	2065.79
614.25	2012.33
614.44	1933.90
614.64	1928.98
614.84	1901.54
615.04	1850.34
615.23	1877.37
615.43	2048.79
615.63	2013.36
615.83	1840.71
616.02	1782.76
616.22	2075.62
616.42	1844.20
616.62	1888.43
616.81	1942.29
617.01	2041.82
617.21	1988.99
617.41	1851.36
617.60	1942.29
617.80	1998.61
618.00	2042.64
618.19	1963.18
618.39	1978.95
618.59	1981.41
618.79	1883.11
618.98	1720.91
619.18	1859.56
619.38	2202.39
619.57	1869.39
619.77	1884.34
619.97	1841.12
620.17	1838.87
620.36	1779.68
620.56	2070.91
620.76	1834.57
620.95	1871.84
621.15	1928.16
621.35	1844.61
621.54	1901.95
621.74	1943.93
621.94	1837.03
622.14	1784.80
622.33	1748.97
622.53	1926.52
622.73	1881.67
622.92	1729.71
623.12	1901.33
623.32	2128.45
623.51	1977.11
623.71	1743.85
623.91	1974.45
624.10	1791.77
624.30	1905.23
624.50	1766.17
624.69	1742.00
624.89	2409.03
625.09	1859.97
625.29	1681.18
625.48	1741.39
625.68	1929.39
625.88	2018.89
626.07	1904.82
626.27	1807.95
626.47	1822.28
626.66	1712.10
626.86	1855.87
627.06	1843.38
627.25	1871.43
627.45	2114.73
627.64	1857.30
627.84	2051.45
628.04	1780.30
628.23	2147.70
628.43	1760.02
628.63	1804.67
628.82	1881.47
629.02	2155.49
629.22	2007.83
629.41	2089.13
629.61	1974.65
629.81	2190.71
630.00	1865.49
630.20	1806.31
630.40	1971.99
630.59	2016.84
630.79	1940.66
630.98	1882.90
631.18	1915.87
631.38	1904.82
631.57	2013.56
631.77	1753.47
631.97	1923.66
632.16	1928.78
632.36	1881.88
632.56	1892.32
632.75	1939.84
632.95	2023.60
633.14	1790.95
633.34	2033.84
633.54	1718.25
633.73	1846.86
633.93	1836.21
634.12	1724.18
634.32	2229.42
634.52	1884.34
634.71	1772.11
634.91	1930.62
635.11	1754.90
635.30	1793.00
635.50	1922.02
635.69	1803.85
635.89	2136.65
636.09	2006.60
636.28	1788.49
636.48	1821.67
636.67	1983.46
636.87	1985.10
637.07	1942.91
637.26	1840.30
637.46	1935.94
637.65	2034.86
637.85	1945.37
638.04	1811.43
638.24	1865.09
638.44	1957.86
638.63	1895.60
638.83	1846.86
639.02	1936.56
639.22	1982.23
639.42	1894.17
639.61	1894.58
639.81	1894.99
640.00	1881.47
640.20	1932.26
640.39	1939.43
640.59	2174.53
640.79	2082.58
640.98	2043.87
641.18	1985.10
641.37	2056.57
641.57	1929.60
641.76	1965.85
641.96	1762.28
642.15	1973.63
642.35	1894.99
642.55	1933.08
642.74	1796.89
642.94	2039.16
643.13	2058.62
643.33	1843.58
643.52	1813.07
643.72	1836.82
643.91	1905.23
644.11	1829.66
644.31	1783.17
644.50	1819.01
644.70	2045.72
644.89	1861.19
645.09	1938.81
645.28	1876.55
645.48	1952.33
645.67	1783.78
645.87	1708.21
646.06	1842.56
646.26	1941.68
646.45	1669.71
646.65	1660.49
646.84	2149.55
647.04	1835.59
647.24	1749.17
647.43	1870.82
647.63	1921.61
647.82	2059.23
648.02	1738.73
648.21	1802.21
648.41	2039.16
648.60	1838.05
648.80	2005.58
648.99	1880.65
649.19	1820.44
649.38	1698.99
649.58	1890.68
649.77	1894.99
649.97	2032.61
650.16	1934.51
650.36	1665.61
650.55	1943.11
650.75	1912.80
650.94	2088.93
651.14	1826.99
651.33	1901.13
651.53	2087.70
651.72	1807.54
651.92	1873.48
652.11	1668.28
652.31	1952.94
652.50	1926.73
652.70	1888.64
652.89	1740.57
653.09	2046.74
653.28	1877.58
653.48	1693.67
653.67	1712.31
653.87	2277.14
654.06	1908.91
654.25	2017.86
654.45	1815.32
654.64	1855.87
654.84	1876.76
655.03	1651.48
655.23	1960.52
655.42	1976.70
655.62	2118.42
655.81	1899.90
656.01	1761.46
656.20	1979.77
656.40	2096.92
656.59	1889.25
656.79	1967.48
656.98	1922.84
657.17	1998.00
657.37	1877.17
657.56	1813.89
657.76	1940.86
657.95	2036.30
658.15	1567.31
658.34	1876.96
658.54	1889.46
658.73	1735.45
658.92	1833.14
659.12	1887.20
659.31	1943.32
659.51	1782.35
659.70	1910.75
659.90	1866.52
660.09	2026.26
660.29	1906.66
660.48	1790.95
660.67	2028.31
660.87	1829.66
661.06	1940.04
661.26	1994.31
661.45	1930.82
661.65	1950.90
661.84	1839.90
662.03	1790.74
662.23	1855.46
662.42	2140.95
662.62	1735.65
662.81	1769.85
663.00	1801.39
663.20	1895.80
663.39	1901.13
663.59	1969.94
663.78	1836.82
663.97	1850.95
664.17	1994.72
664.36	1715.38
664.56	1797.50
664.75	1960.93
664.94	1956.01
665.14	1875.73
665.33	1851.16
665.53	1889.25
665.72	1866.31
665.91	2001.89
666.11	1885.77
666.30	1910.14
666.50	1858.94
666.69	1912.39
666.88	1823.92
667.08	1914.24
667.27	1851.57
667.47	1874.71
667.66	1823.92
667.85	2009.67
668.05	1870.41
668.24	1807.95
668.43	1980.18
668.63	1820.85
668.82	2035.27
669.02	1926.11
669.21	1875.32
669.40	1750.19
669.60	2115.14
669.79	1726.03
669.98	2307.04
670.18	1760.43
670.37	1731.76
670.56	1821.46
670.76	1913.83
670.95	1875.94
671.15	1981.41
671.34	1930.21
671.53	1891.50
671.73	1839.69
671.92	1813.27
672.11	1762.48
672.31	1834.98
672.50	1947.21
672.69	1740.98
672.89	1640.01
673.08	1841.74
673.27	1983.46
673.47	1919.97
673.66	1903.38
673.85	1811.22
674.05	1898.26
674.24	1999.84
674.43	1907.68
674.63	2167.98
674.82	2432.58
675.01	1910.75
675.21	2197.47
675.40	2040.39
675.59	1978.95
675.79	2243.34
675.98	1926.73
676.17	2100.60
676.37	2007.62
676.56	1923.66
676.75	1945.98
676.95	1909.12
677.14	1875.12
677.33	2045.92
677.52	1774.97
677.72	1814.50
677.91	1934.92
678.10	1731.56
678.30	1784.80
678.49	1761.46
678.68	2156.10
678.88	1672.99
679.07	1986.32
679.26	1812.04
679.45	2101.22
679.65	2052.88
679.84	1683.02
680.03	1713.95
680.23	1831.09
680.42	2250.72
680.61	1749.37
680.81	1788.70
681.00	1904.82
681.19	1949.26
681.38	1967.07
681.58	1929.60
681.77	1831.50
681.96	1960.93
682.15	1815.11
682.35	1936.56
682.54	1923.86
682.73	1757.36
682.93	1785.21
683.12	1776.61
683.31	1977.11
683.50	2264.85
683.70	1786.44
683.89	1888.64
684.08	1753.88
684.27	1994.72
684.47	1706.78
684.66	1884.75
684.85	2130.30
685.04	2030.36
685.24	1786.65
685.43	1877.17
685.62	1672.37
685.81	1909.73
686.01	1911.37
686.20	1879.83
686.39	1864.06
686.58	2280.62
686.78	2067.63
686.97	2064.15
687.16	2157.54
687.35	2052.47
687.55	1921.40
687.74	1957.45
687.93	1839.28
688.12	1931.03
688.32	1956.63
688.51	1776.61
688.70	1966.25
688.89	1775.38
689.08	1752.65
689.28	1784.80
689.47	1934.10
689.66	1899.49
689.85	1938.81
690.05	1791.56
690.24	1779.28
690.43	1910.35
690.62	1881.88
690.81	1836.41
691.01	1868.36
691.20	1812.04
691.39	1754.49
691.58	1936.76
691.77	2127.84
691.97	1888.84
692.16	1932.46
692.35	1834.98
692.54	1827.81
692.73	1967.07
692.93	1914.44
693.12	1947.41
693.31	2015.61
693.50	1954.58
693.69	2020.53
693.89	1889.66
694.08	2081.97
694.27	2104.70
694.46	1809.38
694.65	1896.83
694.85	1984.89
695.04	1979.36
695.23	1853.21
695.42	2136.65
695.61	2231.47
695.80	2434.63
696.00	2551.15
696.19	2555.86
696.38	2307.86
696.57	2301.10
696.76	2262.80
696.95	2127.63
697.15	2321.99
697.34	2263.82
697.53	2018.07
697.72	2049.40
697.91	1994.11
698.10	2149.75
698.30	1859.76
698.49	1881.67
698.68	1952.12
698.87	1858.74
699.06	1775.38
699.25	1859.76
699.45	2024.42
699.64	1913.83
699.83	1982.23
700.02	1774.16
700.21	1950.69
700.40	1821.26
700.59	1843.58
700.79	1823.92
700.98	1967.48
701.17	1819.62
701.36	1802.01
701.55	1790.74
701.74	2022.98
701.93	1808.15
702.12	1985.10
702.32	1969.53
702.51	2210.58
702.70	2179.86
702.89	2045.51
703.08	1969.12
703.27	2146.07
703.46	2071.11
703.65	1936.97
703.85	1814.71
704.04	1896.83
704.23	2065.38
704.42	1829.04
704.61	1863.04
704.80	2094.25
704.99	1827.20
705.18	1930.42
705.37	1844.20
705.57	2044.28
705.76	2288.61
705.95	2181.50
706.14	2558.32
706.33	2658.67
706.52	2836.64
706.71	2385.88
706.90	2194.81
707.09	2299.87
707.28	2204.64
707.47	2045.10
707.67	2151.60
707.86	1975.47
708.05	2174.94
708.24	1971.17
708.43	1972.40
708.62	1891.50
708.81	1821.87
709.00	1748.35
709.19	1826.58
709.38	2020.53
709.57	1791.15
709.76	1915.26
709.96	1868.57
710.15	2089.34
710.34	1914.24
710.53	1980.80
710.72	1902.77
710.91	2038.75
711.10	1971.58
711.29	1965.85
711.48	1824.33
711.67	1796.27
711.86	1967.69
712.05	1779.68
712.24	1798.94
712.43	1979.36
712.62	2073.98
712.81	1918.13
713.00	2013.56
713.19	1771.90
713.39	1948.23
713.58	1750.40
713.77	1854.64
713.96	1982.23
714.15	1891.71
714.34	1846.04
714.53	1749.99
714.72	2145.86
714.91	1810.81
715.10	1902.97
715.29	1778.66
715.48	2286.97
715.67	2012.54
715.86	1924.48
716.05	1874.92
716.24	1860.58
716.43	1840.30
716.62	1764.33
716.81	1744.25
717.00	1875.94
717.19	2104.49
717.38	1890.28
717.57	1866.93
717.76	1697.36
717.95	2005.17
718.14	1882.08
718.33	1835.80
718.52	1692.44
718.71	1716.20
718.90	1725.62
719.09	1822.49
719.28	1882.70
719.47	2004.76
719.66	1979.57
719.85	1963.59
720.04	1906.45
720.23	1935.74
720.42	1851.36
720.61	1981.61
720.80	1744.46
720.99	1959.29
721.18	1857.30
721.37	1798.32
721.56	1837.85
721.75	1997.38
721.94	1794.23
722.13	1846.45
722.32	1856.89
722.51	1961.75
722.70	1855.66
722.89	1933.08
723.08	1892.53
723.27	2003.94
723.46	1905.84
723.65	1836.41
723.84	1828.43
724.03	2036.91
724.22	1748.56
724.41	1907.68
724.60	1849.93
724.79	1993.08
724.98	1924.07
725.16	1833.55
725.35	1962.36
725.54	1768.22
725.73	1876.14
725.92	1854.85
726.11	1862.63
726.30	2004.55
726.49	1847.06
726.68	1951.71
726.87	2023.80
727.06	2133.16
727.25	1877.58
727.44	2008.65
727.63	1947.41
727.82	1895.80
728.01	1957.65
728.20	1987.14
728.38	2093.64
728.57	1898.06
728.76	1902.97
728.95	1980.39
729.14	1760.02
729.33	1770.47
729.52	1652.30
729.71	1752.24
729.90	1760.64
730.09	1819.83
730.28	1846.86
730.47	1852.18
730.66	2067.42
730.84	1961.54
731.03	1900.52
731.22	1955.61
731.41	1911.57
731.60	1971.37
731.79	1704.32
731.98	1825.76
732.17	1960.93
732.36	1953.76
732.55	1807.95
732.73	1765.35
732.92	2060.05
733.11	1962.16
733.30	1801.19
733.49	1721.32
733.68	1921.81
733.87	1921.20
734.06	1802.83
734.25	1828.02
734.43	1892.32
734.62	2013.15
734.81	1977.11
735.00	1927.34
735.19	1954.99
735.38	2004.76
735.57	1801.80
735.76	1956.83
735.94	2024.42
736.13	2343.08
736.32	2190.30
736.51	2166.96
736.70	2463.30
736.89	2475.58
737.08	2348.00
737.27	2470.06
737.45	2834.39
737.64	2818.62
737.83	3026.08
738.02	2995.15
738.21	3008.88
738.40	2827.43
738.59	2500.16
738.77	2530.47
738.96	2307.86
739.15	2350.25
739.34	2306.83
739.53	2254.81
739.72	2269.56
739.90	2264.85
740.09	1969.33
740.28	1995.75
740.47	2063.33
740.66	1997.18
740.85	1825.76
741.03	1885.97
741.22	1762.48
741.41	1874.10
741.60	1731.56
741.79	1916.69
741.98	2060.26
742.16	2145.04
742.35	1967.07
742.54	1912.19
742.73	2212.42
742.92	1931.23
743.10	1813.48
743.29	1845.63
743.48	2259.93
743.67	1855.87
743.86	1756.54
744.05	1774.16
744.23	1820.64
744.42	1810.40
744.61	1868.57
744.80	1747.74
744.99	1838.26
745.17	1693.87
745.36	1733.81
745.55	1902.77
745.74	1844.20
745.93	1791.97
746.11	1798.94
746.30	1757.36
746.49	1997.18
746.68	1768.22
746.86	1836.62
747.05	1831.50
747.24	1937.99
747.43	1946.39
747.62	1751.63
747.80	1826.79
747.99	2044.69
748.18	1996.16
748.37	1922.63
748.56	1915.87
748.74	2008.03
748.93	1919.15
749.12	2052.27
749.31	2486.85
749.49	2777.25
749.68	3003.55
749.87	3203.84
750.06	3197.90
750.24	3232.51
750.43	3284.53
750.62	3403.93
750.81	3542.17
750.99	3648.46
751.18	3641.90
751.37	3214.90
751.56	3074.00
751.74	3267.74
751.93	3204.87
752.12	2564.06
752.31	2459.41
752.49	2383.22
752.68	2542.55
752.87	2254.40
753.06	2107.77
753.24	2056.37
753.43	2167.77
753.62	1914.65
753.81	1911.16
753.99	2113.50
754.18	1970.56
754.37	1770.06
754.55	1897.65
754.74	2101.63
754.93	1695.51
755.12	1839.69
755.30	1793.20
755.49	1980.18
755.68	1915.26
755.86	1908.71
756.05	1774.97
756.24	2098.14
756.43	1723.16
756.61	1767.19
756.80	1901.74
756.99	2025.44
757.17	1882.90
757.36	1739.75
757.55	1832.73
757.74	1949.05
757.92	1873.07
758.11	1729.30
758.30	1663.97
758.48	1861.40
758.67	1723.98
758.86	1846.65
759.04	1741.39
759.23	1824.33
759.42	1880.44
759.60	1769.85
759.79	1839.08
759.98	1851.77
760.16	1756.34
760.35	1786.85
760.54	1718.66
760.73	1893.96
760.91	1705.75
761.10	1856.28
761.29	1896.21
761.47	1877.99
761.66	2134.80
761.85	1905.84
762.03	1986.53
762.22	2256.66
762.41	3052.29
762.59	3977.97
762.78	4358.08
762.97	5188.12
763.15	5341.10
763.34	5003.80
763.52	4048.83
763.71	3964.66
763.90	3884.38
764.08	3531.93
764.27	3417.04
764.46	3389.59
764.64	3037.96
764.83	2900.33
765.02	2738.13
765.20	2604.40
765.39	2497.50
765.58	2091.59
765.76	2113.09
765.95	2071.11
766.13	1978.34
766.32	1898.67
766.51	1919.36
766.69	2455.72
766.88	1899.90
767.07	1779.28
767.25	1671.96
767.44	2005.78
767.62	2014.38
767.81	1766.37
768.00	1881.67
768.18	1867.13
768.37	1830.47
768.56	1714.76
768.74	1782.96
768.93	1737.50
769.11	1920.18
769.30	1867.95
769.49	1781.94
769.67	1860.17
769.86	1820.03
770.04	1815.52
770.23	1842.15
770.42	2047.56
770.60	1869.59
770.79	1745.07
770.97	1815.11
771.16	2100.19
771.35	2234.33
771.53	2397.76
771.72	2518.18
771.90	2784.42
772.09	3003.76
772.27	2790.56
772.46	2427.25
772.65	2578.80
772.83	2448.76
773.02	2411.07
773.20	2177.81
773.39	2298.23
773.58	2292.09
773.76	1996.36
773.95	2053.09
774.13	2107.56
774.32	1977.93
774.50	1842.15
774.69	1953.56
774.87	1890.68
775.06	2152.01
775.25	1780.09
775.43	1866.93
775.62	1906.45
775.80	1960.11
775.99	1911.37
776.17	1791.36
776.36	1843.58
776.54	1976.49
776.73	1753.88
776.92	1872.05
777.10	1952.12
777.29	1879.63
777.47	1735.65
777.66	1754.70
777.84	1882.08
778.03	1839.08
778.21	1753.88
778.40	1878.40
778.58	1907.89
778.77	2000.46
778.95	1712.10
779.14	1763.10
779.32	2103.06
779.51	1982.43
779.70	1825.35
779.88	1734.42
780.07	1816.14
780.25	2191.94
780.44	1801.60
780.62	1977.93
780.81	1942.09
780.99	1926.73
781.18	1806.72
781.36	1810.40
781.55	1855.25
781.73	2070.29
781.92	1742.82
782.10	1744.05
782.29	1935.33
782.47	2056.37
782.66	1866.11
782.84	1733.40
783.03	1816.75
783.21	2012.33
783.40	1819.62
783.58	1791.36
783.77	1792.79
783.95	1837.03
784.14	1740.77
784.32	1870.61
784.51	2007.42
784.69	1790.33
784.88	1697.77
785.06	1870.82
785.24	1730.12
785.43	1977.72
785.61	1902.97
785.80	1766.37
785.98	1952.12
786.17	1891.30
786.35	1768.63
786.54	1909.94
786.72	1991.65
786.91	2004.96
787.09	1844.81
787.28	1733.40
787.46	1894.17
787.65	1978.75
787.83	1754.70
788.01	1873.07
788.20	1748.76
788.38	1887.41
788.57	1792.18
788.75	1830.68
788.94	2090.98
789.12	2016.23
789.31	1890.48
789.49	1954.99
789.67	1823.31
789.86	1910.75
790.04	1780.50
790.23	1685.27
790.41	2159.79
790.60	1856.48
790.78	1834.98
790.96	1834.98
791.15	1976.09
791.33	1838.46
791.52	1831.50
791.70	1761.05
791.89	1887.82
792.07	1977.52
792.25	1858.94
792.44	1717.43
792.62	1985.30
792.81	1817.98
792.99	1841.74
793.17	1785.62
793.36	1785.42
793.54	2140.13
793.73	2188.87
793.91	2205.66
794.10	2538.25
794.28	2711.31
794.46	2545.01
794.65	2517.57
794.83	2287.58
795.01	2305.81
795.20	2423.57
795.38	2229.42
795.57	2272.63
795.75	2228.60
795.93	2080.12
796.12	2093.02
796.30	2145.25
796.49	2128.45
796.67	1883.93
796.85	2018.89
797.04	1959.29
797.22	2014.79
797.40	1777.02
797.59	1926.73
797.77	1902.15
797.96	1806.10
798.14	1785.42
798.32	1796.48
798.51	1970.76
798.69	2084.63
798.87	1842.97
799.06	1844.61
799.24	1738.32
799.42	2042.44
799.61	2027.69
799.79	2085.45
799.98	2445.48
800.16	2280.00
800.34	2512.24
800.53	2777.46
800.71	2838.48
800.89	3328.15
801.08	3246.03
801.26	3201.79
801.44	2892.14
801.63	2678.74
801.81	2630.82
801.99	2547.47
802.18	2464.73
802.36	2442.00
802.54	2399.60
802.73	2154.87
802.91	2218.36
803.09	2180.27
803.28	2140.54
803.46	2092.20
803.64	2228.80
803.83	1863.04
804.01	1806.51
804.19	1774.56
804.38	1990.42
804.56	1956.22
804.74	1837.23
804.92	1880.04
805.11	1767.60
805.29	2018.89
805.47	1803.24
805.66	1711.08
805.84	1739.54
806.02	2001.48
806.21	1816.34
806.39	1958.68
806.57	1995.34
806.76	1995.13
806.94	1860.99
807.12	1783.99
807.30	1776.82
807.49	1898.26
807.67	1866.52
807.85	1957.04
808.04	1992.06
808.22	2187.64
808.40	1771.29
808.58	1754.29
808.77	1951.51
808.95	2094.46
809.13	1951.51
809.31	2481.11
809.50	2838.69
809.68	3036.32
809.86	3084.86
810.05	3257.09
810.23	3682.25
810.41	4195.88
810.59	6071.61
810.78	7226.87
810.96	8164.02
811.14	8794.80
811.32	8430.26
811.51	7043.37
811.69	6044.37
811.87	6044.37
812.05	5423.02
812.24	5141.22
812.42	5019.16
812.60	4699.68
812.78	3965.28
812.97	3597.87
813.15	3630.02
813.33	3210.60
813.51	3003.76
813.70	2570.20
813.88	2360.49
814.06	2285.12
814.24	2184.16
814.42	1926.32
814.61	2012.95
814.79	2188.66
814.97	1767.19
815.15	1853.82
815.34	1938.20
815.52	2012.74
815.70	1768.22
815.88	1814.91
816.06	1769.65
816.25	1800.16
816.43	1745.07
816.61	1918.95
816.79	2062.71
816.98	1695.51
817.16	1790.74
817.34	1765.35
817.52	1916.28
817.70	2079.92
817.89	1806.72
818.07	1751.01
818.25	1865.29
818.43	1904.41
818.61	1850.13
818.80	1778.46
818.98	2108.18
819.16	1904.20
819.34	1749.78
819.52	2073.77
819.70	1784.40
819.89	1884.13
820.07	1718.86
820.25	1709.64
820.43	1928.16
820.61	1990.01
820.80	1854.03
820.98	1763.10
821.16	1695.72
821.34	1714.97
821.52	1831.91
821.70	1860.17
821.89	1875.73
822.07	1846.45
822.25	1789.92
822.43	1776.82
822.61	2056.16
822.79	1923.25
822.98	1813.07
823.16	1667.87
823.34	1918.74
823.52	2029.74
823.70	1934.92
823.88	1685.27
824.06	1930.82
824.25	1866.52
824.43	1947.82
824.61	1733.40
824.79	1877.17
824.97	1931.44
825.15	1966.46
825.33	2142.18
825.52	2273.25
825.70	2237.00
825.88	2243.14
826.06	2350.66
826.24	2388.14
826.42	2346.97
826.60	2209.55
826.78	2211.40
826.97	2108.59
827.15	2223.07
827.33	1962.77
827.51	2079.71
827.69	1943.73
827.87	2024.42
828.05	2024.01
828.23	1833.55
828.41	2082.58
828.60	1997.79
828.78	1712.10
828.96	1916.08
829.14	1816.75
829.32	1863.04
829.50	1808.56
829.68	1820.44
829.86	1803.44
830.04	1952.33
830.22	1889.46
830.41	1735.65
830.59	1871.23
830.77	1973.42
830.95	1785.62
831.13	1783.78
831.31	1761.05
831.49	1959.29
831.67	1971.37
831.85	1930.42
832.03	1839.90
832.21	1960.32
832.39	1736.88
832.57	1743.85
832.76	1999.23
832.94	1855.66
833.12	1671.55
833.30	1815.93
833.48	2004.14
833.66	1913.62
833.84	1788.70
834.02	1848.91
834.20	1979.57
834.38	1992.67
834.56	1671.35
834.74	1727.67
834.92	1712.92
835.10	2091.59
835.28	1895.60
835.46	1846.65
835.64	1823.72
835.82	1774.56
836.01	2079.51
836.19	1966.05
836.37	1817.16
836.55	1771.08
836.73	1721.73
836.91	1708.01
837.09	1981.00
837.27	2053.29
837.45	1734.83
837.63	1753.68
837.81	1726.23
837.99	1868.98
838.17	1827.81
838.35	1754.70
838.53	2175.97
838.71	1951.92
838.89	1821.05
839.07	1832.73
839.25	1899.49
839.43	2006.19
839.61	1862.63
839.79	2315.02
839.97	2545.22
840.15	2719.70
840.33	2775.82
840.51	3054.95
840.69	2834.59
840.87	2625.91
841.05	2592.93
841.23	2528.01
841.41	2873.30
841.59	3481.34
841.77	3621.22
841.95	3824.17
842.13	4221.48
842.31	3919.20
842.49	3381.61
842.67	3258.52
842.85	3234.77
843.03	2889.89
843.21	2821.49
843.39	2853.84
843.57	2720.52
843.75	2587.61
843.93	2399.60
844.11	2290.65
844.29	2287.79
844.47	2200.54
844.65	2278.98
844.83	2024.83
845.01	1992.88
845.19	2113.50
845.36	1917.51
845.54	1973.01
845.72	1917.92
845.90	2007.62
846.08	1761.25
846.26	1848.50
846.44	1930.82
846.62	1957.24
846.80	1881.47
846.98	1797.30
847.16	1861.40
847.34	1892.73
847.52	1738.73
847.70	1753.68
847.88	1829.66
848.06	2071.32
848.24	1914.65
848.41	1686.30
848.59	2009.47
848.77	1923.86
848.95	1802.01
849.13	1791.77
849.31	1947.00
849.49	1911.98
849.67	1780.71
849.85	1755.72
850.03	1937.79
850.21	1927.55
850.39	1801.60
850.57	1917.92
850.74	2049.20
850.92	2045.10
851.10	1982.02
851.28	2012.95
851.46	2206.69
851.64	2494.22
851.82	2225.53
852.00	2255.22
852.18	2393.26
852.36	2231.67
852.53	2057.18
852.71	2109.61
852.89	2116.78
853.07	2127.02
853.25	1913.42
853.43	1828.63
853.61	1983.46
853.79	1999.02
853.97	1867.95
854.14	1789.11
854.32	2068.65
854.50	1992.67
854.68	1817.78
854.86	1850.13
855.04	1790.33
855.22	1975.68
855.40	1726.85
855.57	1766.78
855.75	1985.51
855.93	1940.04
856.11	1681.59
856.29	1736.47
856.47	1799.55
856.65	1919.77
856.82	1768.22
857.00	1714.15
857.18	1833.34
857.36	1831.09
857.54	1859.35
857.72	1957.45
857.89	1985.30
858.07	1903.38
858.25	1956.83
858.43	1732.58
858.61	1842.56
858.79	1866.72
858.97	1754.09
859.14	1910.55
859.32	1845.63
859.50	1850.54
859.68	1915.87
859.86	1789.92
860.03	1904.20
860.21	1934.92
860.39	1777.43
860.57	1904.41
860.75	1946.80
860.93	2109.82
861.10	1962.98
861.28	1799.75
861.46	1940.86
861.64	1922.63
861.82	1805.28
861.99	1912.80
862.17	1995.34
862.35	2003.12
862.53	1841.33
862.71	1852.18
862.88	1918.13
863.06	1946.80
863.24	1817.37
863.42	1791.77
863.60	1867.13
863.77	1957.65
863.95	1681.79
864.13	1833.34
864.31	1828.22
864.49	1993.90
864.66	1705.75
864.84	1793.41
865.02	1901.13
865.20	2228.19
865.37	1858.53
865.55	1805.08
865.73	1746.10
865.91	1952.74
866.09	1959.50
866.26	1875.53
866.44	2002.09
866.62	1905.02
866.80	1760.84
866.97	1854.85
867.15	1842.35
867.33	1893.35
867.51	1909.94
867.68	1887.61
867.86	1825.97
868.04	1809.79
868.22	1670.94
868.39	1789.11
868.57	1927.75
868.75	2058.41
868.93	1718.86
869.10	1759.82
869.28	2113.30
869.46	2058.62
869.64	1838.67
869.81	1862.63
869.99	1904.20
870.17	1891.91
870.35	1764.33
870.52	1773.75
870.70	2001.48
870.88	1832.32
871.05	1736.27
871.23	1648.82
871.41	1855.25
871.59	1876.35
871.76	1821.87
871.94	1778.66
872.12	1857.10
872.29	1720.29
872.47	1798.53
872.65	1737.09
872.83	1911.37
873.00	2049.40
873.18	1834.98
873.36	1789.72
873.53	1985.71
873.71	1708.01
873.89	1784.60
874.06	1834.98
874.24	1919.77
874.42	2015.20
874.60	1939.84
874.77	1857.92
874.95	1797.50
875.13	2006.19
875.30	1794.43
875.48	1805.28
875.66	2103.47
875.83	1789.72
876.01	1804.67
876.19	1936.35
876.36	1698.59
876.54	1889.66
876.72	1734.02
876.89	1880.24
877.07	1955.40
877.25	1652.10
877.42	1856.28
877.60	1835.80
877.78	2101.63
877.95	1809.59
878.13	1787.67
878.31	1906.04
878.48	1975.47
878.66	1943.52
878.84	1773.13
879.01	1849.52
879.19	1920.59
879.37	1955.20
879.54	1792.38
879.72	1714.56
879.90	1682.41
880.07	1990.01
880.25	1585.13
880.42	1897.44
880.60	1914.65
880.78	1960.52
880.95	1797.71
881.13	1841.53
881.31	1878.81
881.48	1792.79
881.66	1768.42
881.83	1863.04
882.01	1802.42
882.19	1723.98
882.36	1853.62
882.54	1817.78
882.72	1979.57
882.89	1887.20
883.07	1740.77
883.24	1804.87
883.42	1948.85
883.60	1880.04
883.77	1727.05
883.95	1799.55
884.12	2007.42
884.30	1886.18
884.48	1954.17
884.65	1858.74
884.83	1922.84
885.00	1906.66
885.18	1743.44
885.36	1794.02
885.53	1928.37
885.71	2042.85
885.88	1717.02
886.06	1797.71
886.23	1944.75
886.41	1841.33
886.59	1773.54
886.76	1789.52
886.94	1952.33
887.11	2259.11
887.29	1834.78
887.47	1727.26
887.64	2046.33
887.82	2031.58
887.99	1698.79
888.17	1851.57
888.34	1824.74
888.52	1746.51
888.69	1874.51
888.87	1752.45
889.05	1827.61
889.22	1846.24
889.40	1766.78
889.57	1951.51
889.75	2041.21
889.92	1828.43
890.10	1728.08
890.27	1811.22
890.45	1788.90
890.62	1674.83
890.80	1733.61
890.98	1687.73
891.15	2055.55
891.33	1977.31
891.50	1791.56
891.68	1695.10
891.85	1954.58
892.03	1943.93
892.20	1763.51
892.38	1734.83
892.55	1960.32
892.73	1937.58
892.90	1729.92
893.08	1779.68
893.25	1804.47
893.43	1827.61
893.60	1895.80
893.78	1657.83
893.95	1900.72
894.13	1849.52
894.30	1780.09
894.48	1832.11
894.65	1992.47
894.83	1889.66
895.00	1661.72
895.18	1658.04
895.35	1980.80
895.53	1970.56
895.70	1723.98
895.88	1902.36
896.05	1947.41
896.23	1726.03
896.40	1806.31
896.58	1849.11
896.75	1958.27
896.93	2034.86
897.10	1776.61
897.28	1706.16
897.45	1907.27
897.63	1937.58
897.80	1913.01
897.98	1819.42
898.15	1910.35
898.33	1780.30
898.50	1863.65
898.67	1833.34
898.85	1837.23
899.02	1925.30
899.20	1988.37
899.37	1835.80
899.55	1906.86
899.72	2035.27
899.90	1776.00
900.07	1762.69
900.25	1929.39
900.42	2007.01
900.59	1781.73
900.77	1922.84
900.94	1937.79
901.12	1901.95
901.29	1788.49
901.47	1909.53
901.64	1947.00
901.82	1869.80
901.99	1614.62
902.16	1766.99
902.34	1984.28
902.51	1893.55
902.69	1787.26
902.86	1825.56
903.03	2326.08
903.21	1872.25
903.38	1842.35
903.56	1762.89
903.73	2001.48
903.91	1834.16
904.08	1723.37
904.25	1664.79
904.43	1766.17
904.60	1957.65
904.78	1809.59
904.95	1734.22
905.12	1828.22
905.30	2076.23
905.47	1896.83
905.65	1929.19
905.82	1850.13
905.99	1944.14
906.17	1856.69
906.34	1773.13
906.52	1808.97
906.69	1957.04
906.86	1925.71
907.04	1872.87
907.21	2013.36
907.38	1982.64
907.56	1769.45
907.73	1779.89
907.91	2034.45
908.08	2017.25
908.25	1743.64
908.43	1746.10
908.60	1941.06
908.77	1905.23
908.95	1806.10
909.12	1738.32
909.30	1955.40
909.47	1706.78
909.64	1831.91
909.82	1962.77
909.99	1843.38
910.16	1881.88
910.34	1769.24
910.51	1794.84
910.68	1912.39
910.86	1854.23
911.03	1725.82
911.20	1821.05
911.38	2124.56
911.55	2599.08
911.72	2671.37
911.90	2602.15
912.07	2864.90
912.24	3006.62
912.42	2504.46
912.59	2210.17
912.76	2368.68
912.94	2186.41
913.11	2040.80
913.28	1953.56
913.46	1878.19
913.63	2049.20
913.80	2190.92
913.98	1866.31
914.15	2049.20
914.32	2089.13
914.49	1947.41
914.67	1795.86
914.84	1956.63
915.01	1975.47
915.19	1873.48
915.36	1821.87
915.53	2026.87
915.71	1946.39
915.88	1889.46
916.05	1795.66
916.22	2010.70
916.40	1945.16
916.57	1756.54
916.74	1886.38
916.92	2067.01
917.09	1747.33
917.26	1748.97
917.43	1735.24
917.61	1824.94
917.78	1694.69
917.95	1641.65
918.13	1721.52
918.30	2148.52
918.47	1885.36
918.64	1739.54
918.82	1749.58
918.99	1848.09
919.16	2096.30
919.33	1812.86
919.51	1772.93
919.68	1854.44
919.85	2053.29
920.02	1692.44
920.20	1818.80
920.37	2111.46
920.54	1981.00
920.71	1761.25
920.89	1806.31
921.06	2106.13
921.23	1764.94
921.40	1729.51
921.58	1919.15
921.75	2348.00
921.92	1933.90
922.09	1954.58
922.27	1970.56
922.44	1986.32
922.61	1991.85
922.78	1872.05
922.96	1847.06
923.13	1872.25
923.30	2000.25
923.47	1701.04
923.64	1793.61
923.82	1929.19
923.99	1912.19
924.16	1863.24
924.33	1742.62
924.50	1877.78
924.68	2067.83
924.85	1729.30
925.02	1782.14
925.19	1968.51
925.36	1933.49
925.54	1839.08
925.71	1826.99
925.88	2256.86
926.05	1820.64
926.22	1736.47
926.40	1850.54
926.57	1886.18
926.74	1936.56
926.91	1736.68
927.08	1945.37
927.26	1993.70
927.43	1881.88
927.60	1747.94
927.77	1816.75
927.94	2069.27
928.11	2020.73
928.29	1719.47
928.46	1822.28
928.63	1759.00
928.80	1836.21
928.97	1904.20
929.14	1737.29
929.32	2132.55
929.49	1916.69
929.66	1757.77
929.83	1740.16
930.00	1799.96
930.17	1915.87
930.35	1701.66
930.52	1786.24
930.69	2074.18
930.86	1724.39
931.03	1867.34
931.20	1610.93
931.37	2024.01
931.55	1850.54
931.72	1871.64
931.89	1697.15
932.06	1752.24
932.23	2045.72
932.40	1911.78
932.57	1875.73
932.74	2036.09
932.92	2002.71
933.09	1936.97
933.26	1564.44
933.43	1828.02
933.60	1906.04
933.77	1822.69
933.94	1867.34
934.11	1837.85
934.29	1893.76
934.46	1706.98
934.63	1863.65
934.80	1722.96
934.97	1840.71
935.14	1795.04
935.31	1675.44
935.48	1733.61
935.65	1905.63
935.82	1876.14
936.00	1716.40
936.17	2069.68
936.34	1843.58
936.51	1906.66
936.68	1712.51
936.85	1936.15
937.02	1872.87
937.19	1882.49
937.36	1818.39
937.53	1920.18
937.70	1982.02
937.87	1843.79
938.05	1889.05
938.22	1884.54
938.39	1728.49
938.56	1811.02
938.73	1738.73
938.90	1851.36
939.07	1811.84
939.24	1818.60
939.41	1638.78
939.58	1943.73
939.75	1947.00
939.92	1747.33
940.09	1964.62
940.26	1829.04
940.43	1942.29
940.60	1770.06
940.77	1782.14
940.95	1943.32
941.12	1966.87
941.29	1778.05
941.46	1811.84
941.63	2027.28
941.80	2058.62
941.97	1687.12
942.14	1694.90
942.31	1976.09
942.48	1877.78
942.65	1882.90
942.82	1812.04
942.99	1934.51
943.16	1899.90
943.33	1700.22
943.50	1769.65
943.67	1951.51
943.84	2003.73
944.01	1778.05
944.18	1746.71
944.35	2027.69
944.52	1761.46
944.69	1829.25
944.86	1701.66
945.03	1974.86
945.20	2175.35
945.37	1657.83
945.54	1803.85
945.71	2043.67
945.88	2088.31
946.05	1741.59
946.22	1712.51
946.39	2042.85
946.56	1845.42
946.73	1679.95
946.90	1743.23
947.07	1822.90
947.24	1837.03
947.41	1668.89
947.58	1893.14
947.75	1942.70
947.92	1958.68
948.09	1580.01
948.26	1668.48
948.43	1907.68
948.60	2110.64
948.77	1743.85
948.94	1793.20
949.11	1964.21
949.27	1945.98
949.44	1763.10
949.61	1742.21
949.78	1899.70
949.95	2031.58
950.12	1739.14
950.29	1701.04
950.46	1806.10
950.63	2004.76
950.80	1771.90
950.97	1803.24
951.14	1968.30
951.31	1837.23
951.48	1747.53
951.65	1724.59
951.82	2112.68
951.99	1936.76
952.15	1689.57
952.32	1794.64
952.49	1779.68
952.66	1800.78
952.83	1768.83
953.00	1739.95
953.17	1872.66
953.34	1966.87
953.51	1803.65
953.68	1806.10
953.85	2007.21
954.02	2015.61
954.18	1816.96
954.35	1813.48
954.52	1781.73
954.69	1895.19
954.86	1642.68
955.03	1808.56
955.20	1963.80
955.37	1878.81
955.54	1782.55
955.71	1722.55
955.87	1951.71
956.04	2096.51
956.21	1785.21
956.38	1748.97
956.55	1894.99
956.72	2209.76
956.89	1801.19
957.06	1739.75
957.23	1802.42
957.39	2016.23
957.56	1775.59
957.73	1712.51
957.90	1626.91
958.07	2105.72
958.24	1831.29
958.41	1777.02
958.57	1974.04
958.74	1873.07
958.91	1728.49
959.08	1761.87
959.25	1922.63
959.42	1846.45
959.59	1837.44
959.75	1778.25
959.92	2006.19
960.09	1987.14
960.26	1744.25
960.43	1838.05
960.60	1894.99
960.76	1857.92
960.93	1691.01
961.10	1829.25
961.27	2004.14
961.44	1848.70
961.61	1700.02
961.77	1711.90
961.94	1898.26
962.11	1977.52
962.28	1779.48
962.45	1712.72
962.62	1858.94
962.78	1981.41
962.95	1704.73
963.12	1768.63
963.29	1937.17
963.46	2209.14
963.62	1852.59
963.79	1761.66
963.96	2200.13
964.13	1813.48
964.30	1872.87
964.46	1785.21
964.63	1746.10
964.80	2187.85
964.97	1620.76
965.14	1872.66
965.30	1931.85
965.47	1992.67
965.64	1936.76
965.81	1886.38
965.98	2083.81
966.14	1896.42
966.31	1802.62
966.48	1766.58
966.65	2045.51
966.81	1921.40
966.98	1783.99
967.15	1807.13
967.32	1872.87
967.49	1796.07
967.65	1639.81
967.82	1636.94
967.99	1835.18
968.16	1691.42
968.32	1907.27
968.49	1768.83
968.66	1834.16
968.83	2068.45
968.99	1819.01
969.16	1691.83
969.33	2019.50
969.50	1935.94
969.66	1892.32
969.83	1995.54
970.00	1964.82
970.17	1943.11
970.33	1803.85
970.50	1709.23
970.67	2061.28
970.84	2029.95
971.00	1707.19
971.17	1733.20
971.34	1956.01
971.50	1892.94
971.67	1883.11
971.84	1832.32
972.01	1724.59
972.17	1668.48
972.34	1747.53
972.51	1885.56
972.67	2000.05
972.84	1911.16
973.01	1707.19
973.18	1776.82
973.34	1972.60
973.51	1771.90
973.68	1776.20
973.84	1815.73
974.01	1809.38
974.18	2093.84
974.34	1847.47
974.51	1863.86
974.68	1783.78
974.85	2130.30
975.01	1899.49
975.18	1780.09
975.35	1863.65
975.51	1765.35
975.68	1692.85
975.85	1919.77
976.01	1806.10
976.18	2046.94
976.35	1787.88
976.51	1734.02
976.68	2084.22
976.85	2024.21
977.01	1819.01
977.18	1875.53
977.35	1949.67
977.51	1747.33
977.68	1631.00
977.85	1669.30
978.01	1990.83
978.18	1950.90
978.35	1792.38
978.51	1807.54
978.68	1998.20
978.85	2083.40
979.01	1791.15
979.18	1829.45
979.34	1873.28
979.51	1916.49
979.68	1699.81
979.84	1822.49
980.01	2193.17
980.18	1903.79
980.34	1774.36
980.51	1851.36
980.67	1972.19
980.84	1971.99
981.01	1811.22
981.17	1860.99
981.34	1661.31
981.51	1942.09
981.67	1718.25
981.84	1890.89
982.00	1924.48
982.17	1883.93
982.34	1670.73
982.50	1574.89
982.67	2065.99
982.83	1824.94
983.00	1719.06
983.17	1606.22
983.33	2010.29
983.50	1694.08
983.66	1704.11
983.83	1625.27
984.00	1829.86
984.16	1874.71
984.33	1612.78
984.49	1601.72
984.66	1759.21
984.83	1974.86
984.99	1662.54
985.16	1607.66
985.32	1932.26
985.49	1973.63
985.65	1743.64
985.82	1619.12
985.99	2069.68
986.15	1896.83
986.32	1704.52
986.48	1658.65
986.65	1815.32
986.81	1973.63
986.98	1636.12
987.14	1701.45
987.31	1877.58
987.48	1678.31
987.64	1549.90
987.81	1577.55
987.97	2145.66
988.14	1771.90
988.30	1646.57
988.47	1508.53
988.63	1916.08
988.80	1763.30
988.96	1697.97
989.13	1711.69
989.30	1831.70
989.46	1994.31
989.63	1588.81
989.79	1597.42
989.96	1864.88
990.12	2069.88
990.29	1654.14
990.45	1682.61
990.62	1861.40
990.78	2007.42
990.95	1740.77
991.11	1656.60
991.28	1801.80
991.44	1906.45
991.61	1521.03
991.77	1710.46
991.94	1870.61
992.10	2030.97
992.27	1708.62
992.43	1649.43
992.60	1909.73
992.76	1818.80
992.93	1814.71
993.09	1611.75
993.26	1979.77
993.42	2089.13
993.59	1621.99
993.75	1572.84
993.92	1781.94
994.08	1795.86
994.25	1714.97
994.41	1609.70
994.58	1948.23
994.74	2046.94
994.91	1611.75
995.07	1739.54
995.24	1850.54
995.40	1871.64
995.56	1786.03
995.73	1703.50
995.89	2093.23
996.06	1850.13
996.22	1629.98
996.39	1569.15
996.55	1886.59
996.72	1898.88
996.88	1563.42
997.05	1636.53
997.21	2100.19
997.37	1919.56
997.54	1697.36
997.70	1671.76
997.87	1918.95
998.03	1871.64
998.20	1581.03
998.36	1558.30
998.52	1933.28
998.69	1944.14
998.85	1566.49
999.02	1668.68
999.18	2001.68
999.35	2001.07
999.51	1697.77
999.67	1666.84
999.84	1736.88
1000.00	1944.96
1000.17	1710.26
1000.33	1627.73
1000.49	1806.10
1000.66	1856.69
1000.82	1629.98
1000.99	1716.81
1001.15	2035.27
1001.31	1819.01
1001.48	1675.85
1001.64	1703.50
1001.81	1861.81
1001.97	2119.24
1002.13	1634.69
1002.30	1667.46
1002.46	2016.02
1002.63	1838.05
1002.79	1708.42
1002.95	1641.04
1003.12	2016.43
1003.28	1943.52
1003.45	1659.88
1003.61	1578.16
1003.77	1881.47
1003.94	1709.85
1004.10	1662.54
1004.26	1731.76
1004.43	1947.21
1004.59	2091.39
1004.75	1631.21
1004.92	1615.23
1005.08	1805.69
1005.25	1896.01
1005.41	1640.01
1005.57	1733.81
1005.74	2010.90
1005.90	1823.92
1006.06	1775.38
1006.23	1641.45
1006.39	1951.10
1006.55	2237.41
1006.72	1807.95
1006.88	1590.66
1007.04	1747.33
1007.21	1848.09
1007.37	1655.17
1007.53	1651.69
1007.70	2076.23
1007.86	1965.44
1008.02	1712.31
1008.19	1606.84
1008.35	1882.29
1008.51	1783.17
1008.68	1653.73
1008.84	1578.78
1009.00	1751.42
1009.17	2000.87
1009.33	1780.91
1009.49	1720.09
1009.65	1781.32
1009.82	1918.54
1009.98	1710.05
1010.14	1552.36
1010.31	1970.15
1010.47	1942.50
1010.63	1716.20
1010.80	1725.00
1010.96	1937.79
1011.12	1866.72
1011.28	1677.70
1011.45	1646.98
1011.61	2184.77
1011.77	1753.47
1011.94	1643.49
1012.10	1581.85
1012.26	1772.31
1012.42	1801.39
1012.59	1717.02
1012.75	1694.69
1012.91	1844.81
1013.07	1964.41
1013.24	1571.20
1013.40	1648.82
1013.56	1902.97
1013.72	1849.52
1013.89	1702.07
1014.05	1704.52
1014.21	2107.56
1014.37	2180.27
1014.54	1710.05
1014.70	1627.73
1014.86	1844.61
1015.02	1763.51
1015.19	1644.11
1015.35	1589.02
1015.51	1836.41
1015.67	1794.84
1015.84	1662.13
1016.00	1646.98
1016.16	2009.88
1016.32	1971.17
1016.49	1640.22
1016.65	1605.20
1016.81	1857.92
1016.97	1935.74
1017.14	1761.66
1017.30	1646.16
1017.46	1804.26
1017.62	1911.37
1017.78	1715.79
1017.95	1601.10
1018.11	1967.28
1018.27	2159.17
1018.43	1756.54
1018.59	1717.84
1018.76	1956.01
1018.92	2205.66
1019.08	1634.69
1019.24	1651.07
1019.40	2009.47
1019.57	1910.55
1019.73	1717.84
1019.89	1677.29
1020.05	1916.28
1020.21	2140.74
1020.38	1633.26
1020.54	1786.65
1020.70	1956.01
1020.86	1947.00
1021.02	1656.19
1021.18	1622.81
1021.35	1790.54
1021.51	1939.43
1021.67	1781.12
1021.83	1676.06
1021.99	1881.67
1022.15	1911.16
1022.32	1703.50
1022.48	1692.85
1022.64	2050.43
1022.80	2062.10
1022.96	1703.09
1023.12	1585.95
1023.29	1998.41
1023.45	1925.91
1023.61	1626.70
1023.77	1815.73
1023.93	1896.62
1024.09	1773.75
1024.25	1610.11
1024.42	1590.04
1024.58	1808.97
1024.74	1922.02
1024.90	1646.57
1025.06	1711.28
1025.22	1811.43
1025.38	2097.53
1025.54	1604.38
1025.71	1739.14
1025.87	1939.43
1026.03	1950.28
1026.19	1647.59
1026.35	1768.42
1026.51	1951.10
1026.67	1875.94
1026.83	1693.06
1026.99	1764.53
1027.16	1905.02
1027.32	2027.69
1027.48	1665.82
1027.64	1635.92
1027.80	1946.39
1027.96	1872.05
1028.12	1661.72
1028.28	1627.73
1028.44	1901.95
1028.60	2071.73
1028.77	1785.21
1028.93	1682.00
1029.09	1831.91
1029.25	1739.34
1029.41	1714.35
1029.57	1757.98
1029.73	1901.74
1029.89	2053.50
1030.05	1769.85
1030.21	1723.16
1030.37	2145.25
1030.53	1930.82
1030.69	1672.17
1030.85	1604.58
1031.02	1765.35
1031.18	1887.41
1031.34	1663.57
1031.50	1728.69
1031.66	1789.92
1031.82	2044.08
1031.98	1705.55
1032.14	1647.80
1032.30	1763.51
1032.46	1998.20
1032.62	1789.72
1032.78	1609.91
1032.94	1809.38
1033.10	1819.62
1033.26	1718.45
1033.42	1744.46
1033.58	2133.37
1033.74	1821.67
1033.90	1640.63
1034.06	1835.59
1034.22	2155.69
1034.38	2010.49
1034.54	1687.73
1034.70	1716.81
1034.86	2098.14
>>>>>End Processed Spectral Data<<<<<
