SpectraSuite Data File
++++++++++++++++++++++++++++++++++++
Date: Thu Mar 30 14:23:49 PDT 2017
User: UCSD _CER
Dark Spectrum Present: No
Reference Spectrum Present: No
Number of Sampled Component Spectra: 1
Spectrometers: USB4C00073
Integration Time (usec): 380000 (USB4C00073)
Spectra Averaged: 10 (USB4C00073)
Boxcar Smoothing: 0 (USB4C00073)
Correct for Electrical Dark: No (USB4C00073)
Strobe/Lamp Enabled: No (USB4C00073)
Correct for Detector Non-linearity: No (USB4C00073)
Correct for Stray Light: No (USB4C00073)
Number of Pixels in Processed Spectrum: 3648
>>>>>Begin Processed Spectral Data<<<<<
345.37	1207.48
345.58	1207.48
345.80	1207.48
346.01	1238.82
346.22	1237.38
346.43	2021.96
346.65	1909.73
346.86	2421.11
347.07	2346.15
347.28	1837.64
347.50	1795.25
347.71	2106.34
347.92	1863.65
348.13	1812.04
348.35	1791.15
348.56	2136.24
348.77	1928.98
348.98	1840.10
349.20	1657.01
349.41	2150.37
349.62	2277.75
349.83	1900.52
350.05	1794.43
350.26	2193.78
350.47	2359.06
350.68	1808.97
350.90	1730.12
351.11	2379.74
351.32	2342.47
351.53	1854.23
351.75	1779.68
351.96	2154.26
352.17	2086.47
352.38	1879.83
352.60	1901.74
352.81	2133.57
353.02	2408.00
353.23	1806.92
353.44	1807.54
353.66	2018.27
353.87	2083.81
354.08	1925.30
354.29	1834.78
354.51	2047.76
354.72	2107.56
354.93	1846.04
355.14	1902.15
355.35	1947.00
355.57	2357.62
355.78	1925.91
355.99	1975.88
356.20	2197.47
356.42	2142.58
356.63	1972.60
356.84	1866.31
357.05	2290.24
357.26	2519.82
357.48	1942.50
357.69	1887.20
357.90	2177.40
358.11	2026.87
358.32	1817.57
358.54	1889.05
358.75	2032.20
358.96	2237.41
359.17	1825.56
359.38	1875.53
359.60	2249.08
359.81	2116.78
360.02	1877.99
360.23	1824.74
360.44	2007.42
360.66	2314.20
360.87	1803.24
361.08	1817.16
361.29	2157.94
361.50	2120.47
361.72	1813.48
361.93	1897.24
362.14	2144.63
362.35	1884.34
362.56	1995.75
362.77	1754.90
362.99	2258.50
363.20	2145.66
363.41	1930.21
363.62	1738.73
363.83	2206.48
364.05	2292.09
364.26	1800.16
364.47	1850.95
364.68	2336.53
364.89	2020.12
365.10	1761.46
365.32	1864.06
365.53	1989.60
365.74	2021.14
365.95	1830.88
366.16	1714.56
366.37	2104.08
366.59	2086.06
366.80	1868.57
367.01	1738.32
367.22	2480.70
367.43	2625.91
367.64	1909.73
367.86	1857.30
368.07	2208.32
368.28	2314.82
368.49	1758.18
368.70	1882.29
368.91	2063.94
369.12	2072.34
369.34	1764.33
369.55	1722.34
369.76	2105.72
369.97	2029.95
370.18	1737.91
370.39	1788.29
370.60	1884.34
370.82	1931.44
371.03	1854.44
371.24	1777.23
371.45	2214.47
371.66	2210.37
371.87	1796.07
372.08	1814.30
372.30	1881.47
372.51	2228.39
372.72	1905.63
372.93	1783.58
373.14	2352.50
373.35	1967.89
373.56	1756.34
373.78	1833.34
373.99	2258.30
374.20	2577.16
374.41	1806.92
374.62	1806.10
374.83	2368.68
375.04	2065.17
375.25	1852.80
375.47	1831.29
375.68	2039.78
375.89	2260.34
376.10	1859.76
376.31	1934.51
376.52	2209.14
376.73	2169.82
376.94	1909.73
377.15	1805.08
377.37	2099.78
377.58	2080.33
377.79	1732.38
378.00	1775.59
378.21	2149.55
378.42	2224.71
378.63	1883.11
378.84	1916.69
379.05	2274.68
379.27	2124.56
379.48	1897.44
379.69	1777.84
379.90	2310.31
380.11	1791.97
380.32	1820.44
380.53	1954.79
380.74	2348.82
380.95	2110.23
381.16	1898.26
381.37	1861.81
381.59	2328.95
381.80	2278.98
382.01	1803.24
382.22	1751.63
382.43	2197.68
382.64	2167.57
382.85	1801.80
383.06	1949.05
383.27	2274.27
383.48	2113.30
383.69	1879.83
383.91	1794.02
384.12	2218.77
384.33	2183.54
384.54	1826.58
384.75	1748.35
384.96	2608.09
385.17	2256.25
385.38	1811.22
385.59	1794.43
385.80	2225.73
386.01	2350.66
386.22	1930.42
386.43	1830.47
386.64	2486.03
386.86	2101.63
387.07	1937.17
387.28	1738.32
387.49	2032.61
387.70	2316.25
387.91	1934.92
388.12	1851.16
388.33	2189.28
388.54	2053.70
388.75	1771.90
388.96	1930.01
389.17	2044.28
389.38	2096.51
389.59	1919.77
389.80	1938.61
390.01	2114.94
390.22	2038.96
390.43	1940.66
390.64	1692.44
390.86	2190.92
391.07	2267.10
391.28	1846.45
391.49	1870.21
391.70	1893.76
391.91	1977.93
392.12	1843.38
392.33	1903.18
392.54	2101.42
392.75	2062.30
392.96	1895.80
393.17	1820.03
393.38	2531.49
393.59	2333.25
393.80	1825.76
394.01	2034.25
394.22	2304.99
394.43	2750.42
394.64	2022.78
394.85	2173.30
395.06	2297.00
395.27	2285.53
395.48	1929.19
395.69	1762.89
395.90	2074.18
396.11	2094.66
396.32	1812.86
396.53	1941.06
396.74	2058.21
396.95	2299.87
397.16	1829.25
397.37	1733.20
397.58	2233.92
397.79	2128.66
398.00	1905.23
398.21	1865.09
398.42	2172.49
398.63	2501.59
398.84	1826.99
399.05	1785.62
399.26	2346.56
399.47	2190.10
399.68	1701.45
399.89	1806.51
400.10	1933.90
400.31	2051.04
400.52	1889.66
400.73	1843.38
400.94	1854.44
401.15	2194.81
401.36	1858.74
401.57	1886.59
401.78	2337.35
401.99	2253.38
402.20	1800.37
402.41	1971.37
402.62	2373.80
402.83	2070.70
403.04	1817.16
403.25	2056.78
403.46	2290.24
403.67	2609.52
403.88	2198.08
404.09	2215.90
404.30	2431.96
404.51	2339.39
404.72	2030.77
404.93	2163.06
405.14	2096.10
405.35	2145.45
405.56	1907.27
405.77	1791.15
405.98	2140.33
406.19	2070.29
406.40	1776.82
406.61	1823.10
406.82	1995.34
407.03	2517.16
407.24	1744.05
407.45	1854.85
407.66	2171.05
407.87	2248.67
408.08	1929.19
408.29	1915.67
408.49	2218.56
408.70	2115.35
408.91	1826.79
409.12	1987.76
409.33	1969.74
409.54	2332.64
409.75	1789.72
409.96	1882.29
410.17	2253.58
410.38	2055.96
410.59	1819.83
410.80	1985.51
411.01	2108.38
411.22	2071.93
411.43	1933.90
411.64	1825.35
411.85	1978.34
412.06	1955.20
412.27	1670.12
412.47	1801.60
412.68	2117.80
412.89	2210.37
413.10	1845.22
413.31	1776.61
413.52	2455.10
413.73	2431.55
413.94	1833.55
414.15	2012.95
414.36	2027.08
414.57	2044.08
414.78	2029.33
414.99	2951.33
415.19	4037.98
415.40	4374.46
415.61	4583.97
415.82	4329.82
416.03	3978.18
416.24	3458.40
416.45	2806.74
416.66	2255.02
416.87	2081.56
417.08	2360.49
417.29	2010.49
417.50	2186.00
417.70	2592.73
417.91	2627.54
418.12	2588.02
418.33	2792.41
418.54	3175.58
418.75	3419.90
418.96	3530.70
419.17	4375.89
419.38	5496.75
419.59	5628.43
419.79	5396.60
420.00	5028.17
420.21	4727.74
420.42	3537.46
420.63	2743.05
420.84	2397.97
421.05	2280.41
421.26	2167.57
421.47	1765.76
421.67	2236.79
421.88	1985.30
422.09	1913.62
422.30	2032.40
422.51	1848.70
422.72	2412.92
422.93	2250.51
423.14	1892.53
423.35	1723.16
423.55	1859.15
423.76	1999.84
423.97	1896.01
424.18	1772.31
424.39	2203.20
424.60	2426.84
424.81	2097.73
425.02	2397.56
425.22	2853.43
425.43	2899.92
425.64	3129.09
425.85	3223.71
426.06	3695.35
426.27	3546.26
426.48	3584.56
426.68	3490.15
426.89	3648.66
427.10	3664.43
427.31	2819.64
427.52	2300.48
427.73	2573.48
427.94	2414.56
428.14	2111.46
428.35	1918.33
428.56	2386.50
428.77	2299.87
428.98	2007.21
429.19	2389.98
429.40	2776.64
429.60	2950.92
429.81	2856.71
430.02	2768.24
430.23	2591.09
430.44	2562.21
430.65	2066.81
430.85	2018.89
431.06	2229.21
431.27	1887.82
431.48	1883.31
431.69	1916.49
431.90	2116.99
432.10	2141.77
432.31	1985.51
432.52	2361.92
432.73	3426.05
432.94	3500.18
433.15	3160.43
433.35	2999.25
433.56	3243.98
433.77	2783.80
433.98	2626.93
434.19	2385.47
434.40	2513.47
434.60	2348.00
434.81	2065.58
435.02	2016.63
435.23	2184.36
435.44	2099.17
435.64	1779.48
435.85	1833.75
436.06	2108.18
436.27	2044.90
436.48	1770.67
436.68	1831.91
436.89	2434.42
437.10	2243.96
437.31	1908.50
437.52	1972.40
437.73	2173.30
437.93	2129.89
438.14	1934.10
438.35	1719.68
438.56	2044.28
438.77	2075.41
438.97	2028.92
439.18	1850.54
439.39	2290.86
439.60	1935.54
439.80	1785.83
440.01	1867.34
440.22	2012.13
440.43	2225.53
440.64	1831.70
440.84	1894.58
441.05	1924.68
441.26	2609.11
441.47	1973.42
441.68	1869.80
441.88	2088.11
442.09	2034.25
442.30	2014.79
442.51	1961.34
442.71	2080.94
442.92	2146.27
443.13	1882.08
443.34	1823.10
443.55	1990.83
443.75	2225.94
443.96	1853.41
444.17	1785.62
444.38	2302.33
444.58	1982.84
444.79	1991.44
445.00	1954.38
445.21	2096.71
445.41	2086.88
445.62	1724.18
445.83	2000.66
446.04	2166.34
446.24	1894.78
446.45	1708.01
446.66	1873.69
446.87	2181.09
447.07	2031.18
447.28	2098.35
447.49	1892.53
447.70	2281.44
447.90	2278.37
448.11	1912.39
448.32	1989.40
448.53	2338.78
448.73	2388.55
448.94	1857.30
449.15	2016.63
449.36	2148.11
449.56	2205.87
449.77	1892.94
449.98	1836.21
450.19	2246.83
450.39	2419.06
450.60	2367.25
450.81	2379.33
451.02	2534.36
451.22	2676.29
451.43	2106.34
451.64	2140.33
451.84	2295.77
452.05	2551.15
452.26	2126.20
452.47	2011.51
452.67	2095.89
452.88	2433.81
453.09	1840.92
453.30	1827.40
453.50	2262.39
453.71	2406.57
453.92	1892.32
454.12	2025.85
454.33	2021.55
454.54	2105.93
454.75	1870.82
454.95	1866.72
455.16	2171.26
455.37	2215.70
455.57	2003.53
455.78	1889.87
455.99	2115.96
456.19	2128.66
456.40	1827.40
456.61	1908.91
456.82	2109.41
457.02	2217.34
457.23	1952.74
457.44	2068.24
457.64	2068.86
457.85	2278.16
458.06	2018.07
458.26	2025.24
458.47	2174.53
458.68	2365.20
458.89	2015.41
459.09	2193.99
459.30	2652.94
459.51	2314.00
459.71	1931.85
459.92	1908.09
460.13	2298.23
460.33	2547.88
460.54	1971.37
460.75	1937.79
460.95	1962.36
461.16	2179.24
461.37	1919.36
461.57	1912.60
461.78	2175.35
461.99	2004.96
462.19	2260.75
462.40	1965.23
462.61	2927.78
462.81	2430.94
463.02	1921.81
463.23	1936.35
463.43	2313.18
463.64	2112.07
463.85	3260.16
464.05	2016.43
464.26	2793.02
464.47	2451.62
464.67	2180.47
464.88	2040.19
465.09	2029.33
465.29	2194.19
465.50	2034.45
465.71	1928.98
465.91	2047.97
466.12	2158.97
466.33	1997.38
466.53	1826.79
466.74	2392.64
466.94	2080.12
467.15	1949.05
467.36	2131.12
467.56	1990.22
467.77	2173.71
467.98	1969.53
468.18	1905.02
468.39	2055.55
468.60	2444.05
468.80	1897.03
469.01	1832.52
469.21	2218.77
469.42	2475.18
469.63	2149.75
469.83	2086.27
470.04	2518.59
470.25	2675.47
470.45	2208.12
470.66	2015.41
470.86	2285.94
471.07	2176.17
471.28	2083.81
471.48	2057.59
471.69	2214.67
471.90	2780.32
472.10	1924.07
472.31	1894.58
472.51	2031.99
472.72	2035.89
472.93	1879.83
473.13	2047.97
473.34	2192.96
473.54	2120.06
473.75	1975.06
473.96	2131.53
474.16	2170.23
474.37	2325.26
474.57	2188.05
474.78	2046.74
474.99	2381.99
475.19	2313.59
475.40	2038.75
475.60	1880.65
475.81	2433.81
476.02	2231.06
476.22	2182.11
476.43	2286.56
476.63	2336.12
476.84	2558.73
477.05	1931.64
477.25	1951.10
477.46	2730.35
477.66	2209.55
477.87	1870.00
478.08	1950.49
478.28	2300.28
478.49	2106.13
478.69	1917.10
478.90	1951.71
479.10	2269.56
479.31	2477.43
479.52	2062.51
479.72	2103.06
479.93	2278.37
480.13	2091.18
480.34	1914.24
480.54	1994.72
480.75	2013.97
480.96	2353.73
481.16	1894.17
481.37	2019.50
481.57	2268.94
481.78	2287.58
481.98	2130.30
482.19	2052.06
482.40	2472.10
482.60	2292.29
482.81	2172.89
483.01	2021.14
483.22	2456.95
483.42	2451.42
483.63	2169.00
483.83	2042.23
484.04	2091.59
484.24	2293.32
484.45	2106.34
484.66	1882.90
484.86	2223.89
485.07	2045.10
485.27	2051.04
485.48	1935.54
485.68	2418.65
485.89	2096.10
486.09	2130.09
486.30	1942.29
486.50	2225.94
486.71	2278.16
486.91	2295.36
487.12	2363.56
487.33	2816.37
487.53	2860.81
487.74	2449.58
487.94	2407.39
488.15	2695.74
488.35	2782.78
488.56	2539.69
488.76	2468.01
488.97	2518.39
489.17	2556.89
489.38	2271.81
489.58	2104.29
489.79	2359.46
489.99	2317.69
490.20	2036.91
490.40	2186.21
490.61	2293.72
490.81	2107.56
491.02	2053.91
491.22	2065.38
491.43	2348.82
491.63	2224.91
491.84	2216.93
492.04	1941.06
492.25	2295.77
492.45	2124.36
492.66	1954.99
492.86	1882.90
493.07	2149.55
493.27	2557.09
493.48	1865.49
493.68	1973.22
493.89	2165.52
494.09	2331.61
494.30	1997.38
494.50	2225.53
494.71	2318.51
494.91	2115.76
495.12	2217.13
495.32	2305.81
495.53	2408.00
495.73	2063.33
495.94	2121.29
496.14	1869.18
496.35	2491.76
496.55	2150.57
496.76	1956.63
496.96	2033.43
497.17	2213.04
497.37	2324.44
497.58	2042.64
497.78	1941.88
497.98	2184.16
498.19	2209.76
498.39	2085.24
498.60	2145.66
498.80	2027.28
499.01	2386.29
499.21	1902.15
499.42	2062.71
499.62	2130.30
499.83	2574.50
500.03	1889.87
500.24	2109.82
500.44	2423.77
500.64	2345.13
500.85	1951.92
501.05	2099.37
501.26	1922.02
501.46	2402.06
501.67	1936.56
501.87	1870.82
502.08	2008.85
502.28	2127.84
502.48	2116.99
502.69	2178.83
502.89	2060.46
503.10	2159.38
503.30	2173.51
503.51	2094.66
503.71	1991.85
503.92	2345.54
504.12	2202.39
504.32	2164.09
504.53	2556.27
504.73	2561.80
504.94	2463.91
505.14	2680.79
505.35	2826.81
505.55	2821.69
505.75	2573.27
505.96	2722.36
506.16	2896.65
506.37	2391.21
506.57	2233.92
506.78	2349.22
506.98	2542.55
507.18	2161.84
507.39	2056.37
507.59	2126.82
507.80	2209.55
508.00	2353.32
508.20	2381.99
508.41	2188.05
508.61	2540.10
508.82	2417.01
509.02	2198.29
509.22	1948.44
509.43	2008.85
509.63	2076.64
509.84	2033.84
510.04	1873.07
510.24	2455.92
510.45	2317.48
510.65	1898.67
510.86	2064.76
511.06	2091.80
511.26	2438.93
511.47	2321.58
511.67	2090.98
511.88	2366.84
512.08	2404.52
512.28	1965.85
512.49	2098.76
512.69	2234.74
512.90	2237.82
513.10	2010.90
513.30	2077.66
513.51	2306.22
513.71	2459.20
513.91	2064.35
514.12	2147.30
514.32	2486.44
514.53	2389.57
514.73	2465.55
514.93	2439.13
515.14	2675.67
515.34	3108.61
515.54	2847.50
515.75	3047.17
515.95	3350.27
516.15	3429.94
516.36	2668.91
516.56	2508.97
516.77	2173.92
516.97	2533.75
517.17	2280.41
517.38	2345.13
517.58	2707.82
517.78	2636.55
517.99	2891.94
518.19	3073.80
518.39	3621.83
518.60	3382.43
518.80	2956.24
519.00	2762.10
519.21	2588.84
519.41	2790.56
519.61	2150.16
519.82	2296.59
520.02	2344.11
520.22	2364.58
520.43	2217.75
520.63	2313.39
520.83	2299.25
521.04	2218.36
521.24	2722.16
521.44	2909.14
521.65	3117.62
521.85	3475.40
522.05	3062.33
522.26	2660.93
522.46	2990.65
522.66	2707.41
522.87	2273.65
523.07	2426.02
523.27	2319.94
523.48	2647.41
523.68	2258.50
523.88	2355.78
524.09	2619.35
524.29	2515.32
524.49	2353.94
524.70	2695.54
524.90	3066.22
525.10	2977.54
525.31	2463.50
525.51	2268.33
525.71	2553.82
525.91	2400.63
526.12	2082.78
526.32	1951.71
526.52	2133.78
526.73	2132.14
526.93	2121.29
527.13	1949.26
527.34	2229.83
527.54	2239.86
527.74	2177.61
527.94	2063.53
528.15	2177.81
528.35	2284.71
528.55	2210.17
528.76	2085.86
528.96	1945.16
529.16	2366.22
529.36	2122.51
529.57	1944.96
529.77	2371.34
529.97	1984.07
530.18	2102.04
530.38	2014.18
530.58	2258.91
530.78	2225.32
530.99	2066.20
531.19	2139.51
531.39	2112.68
531.60	2252.97
531.80	2088.31
532.00	2226.76
532.20	2261.37
532.41	2096.51
532.61	2003.32
532.81	1963.18
533.01	2128.45
533.22	2212.42
533.42	2133.16
533.62	1867.75
533.82	2394.69
534.03	2141.36
534.23	2162.86
534.43	1985.51
534.63	2171.87
534.84	2200.34
535.04	2097.12
535.24	2038.96
535.44	2633.89
535.65	2067.63
535.85	1972.60
536.05	1947.21
536.25	2174.12
536.46	2108.79
536.66	2280.82
536.86	2223.07
537.06	2490.94
537.27	2545.42
537.47	2139.72
537.67	2094.05
537.87	2462.89
538.08	2224.30
538.28	1976.90
538.48	2016.23
538.68	2292.29
538.88	2402.47
539.09	2004.14
539.29	2088.52
539.49	2378.51
539.69	2260.34
539.90	2131.73
540.10	1977.72
540.30	2507.74
540.50	2230.65
540.70	2070.09
540.91	2166.96
541.11	2585.77
541.31	2851.18
541.51	2548.70
541.72	2654.78
541.92	2817.80
542.12	2553.20
542.32	2377.90
542.52	2234.33
542.73	2212.42
542.93	2408.41
543.13	2176.38
543.33	2410.05
543.53	2658.26
543.74	2687.14
543.94	2432.17
544.14	2708.64
544.34	3086.29
544.54	2953.99
544.75	3080.76
544.95	3292.93
545.15	3249.92
545.35	3219.20
545.55	2809.61
545.75	2521.87
545.96	2955.01
546.16	2321.78
546.36	2302.94
546.56	2317.89
546.76	2617.10
546.97	2683.66
547.17	2213.85
547.37	2223.89
547.57	2154.67
547.77	2340.62
547.97	2159.79
548.18	2172.49
548.38	2396.53
548.58	3340.44
548.78	3668.32
548.98	4265.30
549.18	5017.52
549.39	5282.33
549.59	4504.10
549.79	3922.47
549.99	3968.35
550.19	3659.31
550.39	3321.19
550.60	2897.47
550.80	2827.63
551.00	2788.72
551.20	2402.47
551.40	2263.01
551.60	2461.04
551.80	2434.42
552.01	2365.61
552.21	2282.87
552.41	2438.31
552.61	2666.05
552.81	2282.46
553.01	2076.23
553.21	2399.60
553.42	2155.08
553.62	2088.31
553.82	2016.23
554.02	2502.62
554.22	2364.38
554.42	1940.04
554.62	2223.68
554.83	2976.31
555.03	3544.42
555.23	3581.49
555.43	4208.78
555.63	4385.73
555.83	4059.89
556.03	3441.61
556.23	3131.34
556.44	3361.54
556.64	3484.21
556.84	2856.51
557.04	3102.67
557.24	3085.26
557.44	2871.46
557.64	2607.47
557.84	2346.36
558.04	2404.52
558.25	2534.36
558.45	2180.88
558.65	2308.06
558.85	2475.58
559.05	2229.21
559.25	2433.40
559.45	2575.53
559.65	3464.96
559.85	4253.02
560.05	3574.93
560.26	3865.34
560.46	3920.84
560.66	3487.08
560.86	3039.60
561.06	2786.47
561.26	3118.44
561.46	2825.58
561.66	2471.08
561.86	2565.08
562.06	2418.86
562.26	2408.82
562.47	2258.30
562.67	2078.48
562.87	2401.24
563.07	2106.34
563.27	2274.68
563.47	2253.58
563.67	2299.46
563.87	2539.28
564.07	2429.51
564.27	2625.91
564.47	2912.83
564.67	3093.05
564.87	2902.59
565.08	2826.20
565.28	2713.35
565.48	2808.58
565.68	2546.24
565.88	2478.25
566.08	2746.33
566.28	2344.11
566.48	2024.42
566.68	2124.97
566.88	2148.73
567.08	2376.67
567.28	2160.40
567.48	2224.09
567.68	2477.02
567.88	2272.22
568.08	2428.69
568.28	2542.35
568.48	2507.94
568.68	2722.16
568.89	2375.44
569.09	2108.18
569.29	2467.80
569.49	2472.72
569.69	2070.29
569.89	2051.45
570.09	1909.32
570.29	2103.67
570.49	1912.39
570.69	2040.39
570.89	2335.09
571.09	2519.21
571.29	1894.99
571.49	2178.83
571.69	2214.26
571.89	2235.77
572.09	1995.95
572.29	2051.45
572.49	2247.24
572.69	2282.26
572.89	2215.49
573.09	2064.35
573.29	2556.89
573.49	2654.37
573.69	2543.99
573.89	2513.47
574.09	2370.52
574.29	2583.92
574.49	2212.63
574.69	2015.82
574.89	2071.52
575.09	2047.97
575.29	1958.88
575.49	2039.57
575.69	2203.61
575.89	1964.82
576.09	2039.98
576.29	2127.23
576.49	2109.61
576.69	2313.80
576.89	2195.01
577.09	2258.30
577.29	2094.66
577.49	2620.17
577.69	2096.10
577.89	2268.74
578.09	2240.89
578.29	1974.86
578.49	2086.47
578.69	1982.64
578.89	2381.58
579.09	2207.92
579.29	2021.75
579.49	2261.78
579.69	2214.06
579.89	2623.86
580.09	1962.57
580.29	1939.02
580.49	2118.01
580.69	2027.90
580.89	2008.85
581.09	1965.03
581.29	2070.70
581.49	2107.16
581.69	1897.03
581.89	1964.82
582.09	1984.69
582.28	2026.47
582.48	2252.56
582.68	2375.85
582.88	2664.61
583.08	2443.64
583.28	2351.89
583.48	2251.33
583.68	2192.76
583.88	2277.55
584.08	2147.70
584.28	2115.35
584.48	2524.12
584.68	2263.21
584.88	2044.49
585.08	2321.37
585.28	2425.61
585.48	2497.29
585.68	2258.09
585.87	2315.84
586.07	2355.57
586.27	2226.35
586.47	2158.56
586.67	2021.55
586.87	2203.00
587.07	2141.36
587.27	2067.83
587.47	2319.73
587.67	2844.83
587.87	3568.79
588.07	3336.14
588.27	3416.63
588.46	3912.23
588.66	3899.33
588.86	3192.78
589.06	3016.66
589.26	3034.48
589.46	2847.29
589.66	2360.69
589.86	2233.11
590.06	2483.57
590.26	2863.67
590.46	2741.82
590.66	2950.51
590.85	2959.93
591.05	3101.03
591.25	2607.06
591.45	2606.04
591.65	2772.74
591.85	2807.77
592.05	2683.04
592.25	2894.60
592.45	3161.45
592.64	2961.98
592.84	2706.60
593.04	2504.05
593.24	3099.60
593.44	2566.51
593.64	2519.00
593.84	2574.50
594.04	2514.50
594.24	2789.13
594.43	2284.30
594.63	2256.86
594.83	2491.15
595.03	2418.86
595.23	2030.15
595.43	1976.70
595.63	2100.60
595.83	2415.37
596.02	1922.63
596.22	2160.81
596.42	2375.23
596.62	2320.76
596.82	2213.24
597.02	2240.48
597.22	2545.22
597.41	2324.24
597.61	2138.90
597.81	2394.49
598.01	2589.66
598.21	2419.06
598.41	2295.57
598.61	2299.05
598.80	2479.07
599.00	2568.77
599.20	2506.30
599.40	2346.15
599.60	2465.75
599.80	2619.15
599.99	2427.87
600.19	2269.35
600.39	2438.93
600.59	2496.27
600.79	2348.82
600.99	2261.57
601.19	2697.99
601.38	2735.88
601.58	2375.23
601.78	2187.44
601.98	3084.45
602.18	4757.84
602.37	6037.82
602.57	6627.84
602.77	7736.82
602.97	8069.61
603.17	7136.97
603.37	6834.28
603.56	6847.38
603.76	6501.69
603.96	6146.36
604.16	5574.16
604.36	5194.88
604.56	4614.48
604.75	3838.10
604.95	3687.78
605.15	3710.30
605.35	3473.15
605.55	3060.89
605.74	2920.40
605.94	3040.41
606.14	2709.05
606.34	2438.93
606.54	2370.52
606.73	2323.22
606.93	2429.51
607.13	2092.41
607.33	2195.01
607.53	2506.10
607.72	2409.64
607.92	2186.82
608.12	2313.80
608.32	2255.63
608.51	2449.78
608.71	2163.68
608.91	2460.02
609.11	2703.32
609.31	2620.79
609.50	2819.85
609.70	3145.68
609.90	3228.62
610.10	3265.69
610.29	2929.82
610.49	2682.63
610.69	2912.42
610.89	2674.03
611.09	2451.83
611.28	2547.06
611.48	2621.60
611.68	2375.64
611.88	2287.79
612.07	2168.80
612.27	2535.18
612.47	2259.11
612.67	2204.02
612.86	2261.37
613.06	2275.09
613.26	2000.66
613.46	2217.34
613.65	2435.24
613.85	3126.63
614.05	2842.17
614.25	2705.98
614.44	2619.15
614.64	2669.12
614.84	2616.89
615.04	2503.44
615.23	2496.06
615.43	2707.01
615.63	2647.61
615.83	2374.62
616.02	2414.96
616.22	3008.06
616.42	2855.28
616.62	2974.88
616.81	3139.33
617.01	3224.12
617.21	3001.09
617.41	2562.83
617.60	2582.69
617.80	2667.07
618.00	2579.42
618.19	2397.35
618.39	2210.37
618.59	2378.92
618.79	2238.23
618.98	1923.66
619.18	2032.81
619.38	2537.02
619.57	2114.73
619.77	1970.35
619.97	2014.18
620.17	2192.76
620.36	2292.91
620.56	2724.00
620.76	2594.78
620.95	2756.98
621.15	2806.74
621.35	2577.78
621.54	2552.79
621.74	2600.51
621.94	2389.16
622.14	2196.65
622.33	2078.48
622.53	2293.72
622.73	2222.46
622.92	1954.17
623.12	2048.38
623.32	2485.01
623.51	2320.35
623.71	1893.14
623.91	2230.44
624.10	2049.40
624.30	2215.29
624.50	1959.91
624.69	1908.30
624.89	2837.67
625.09	2121.49
625.29	1814.71
625.48	1885.36
625.68	2199.93
625.88	2313.80
626.07	2034.86
626.27	1939.63
626.47	2031.58
626.66	1883.93
626.86	2020.32
627.06	1985.10
627.25	2122.72
627.45	2419.06
627.64	2000.46
627.84	2149.75
628.04	1979.57
628.23	2499.55
628.43	1889.05
628.63	2067.22
628.82	2330.38
629.02	2792.20
629.22	2453.67
629.41	2585.56
629.61	2606.86
629.81	3063.15
630.00	2613.62
630.20	2615.87
630.40	2899.10
630.59	2875.35
630.79	2506.10
630.98	2405.13
631.18	2420.90
631.38	2387.73
631.57	2343.90
631.77	2019.30
631.97	2259.32
632.16	2293.72
632.36	2047.97
632.56	2049.81
632.75	2169.00
632.95	2283.89
633.14	1850.34
633.34	2142.99
633.54	1831.29
633.73	2044.90
633.93	1920.18
634.12	1816.55
634.32	2579.42
634.52	2114.94
634.71	1822.49
634.91	1999.84
635.11	1924.89
635.30	2009.67
635.50	2028.51
635.69	1976.29
635.89	2599.69
636.09	2491.35
636.28	2169.21
636.48	2157.94
636.67	2480.70
636.87	2414.76
637.07	2214.67
637.26	2123.13
637.46	2431.76
637.65	2618.53
637.85	2387.93
638.04	2298.64
638.24	2439.54
638.44	2464.53
638.63	2225.73
638.83	2152.21
639.02	2350.45
639.22	2346.36
639.42	2059.44
639.61	2032.61
639.81	2192.56
640.00	2130.30
640.20	2153.44
640.39	2241.09
640.59	3235.18
640.79	3400.86
640.98	3522.51
641.18	3652.55
641.37	3826.63
641.57	3360.72
641.76	3126.63
641.96	2765.17
642.15	2964.03
642.35	2743.05
642.55	2609.93
642.74	2319.73
642.94	2593.34
643.13	2583.72
643.33	2092.00
643.52	1987.14
643.72	2067.42
643.91	2110.02
644.11	1883.31
644.31	1930.82
644.50	2008.44
644.70	2328.34
644.89	2003.12
645.09	2081.56
645.28	2145.86
645.48	2230.44
645.67	1941.27
645.87	1879.42
646.06	2128.04
646.26	2273.86
646.45	1850.95
646.65	1812.86
646.84	2504.87
647.04	2113.50
647.24	1908.71
647.43	1982.02
647.63	2209.76
647.82	2414.15
648.02	1908.71
648.21	1968.71
648.41	2392.03
648.60	2089.54
648.80	2125.18
648.99	2021.35
649.19	2072.34
649.38	1880.24
649.58	2006.60
649.77	2052.27
649.97	2344.92
650.16	2204.84
650.36	1779.89
650.55	2186.41
650.75	2192.15
650.94	2393.05
651.14	2006.19
651.33	2037.73
651.53	2376.46
651.72	2008.44
651.92	1956.83
652.11	1793.41
652.31	2212.83
652.50	2182.32
652.70	2060.87
652.89	1958.88
653.09	2498.93
653.28	2182.73
653.48	1929.80
653.67	1961.34
653.87	2783.60
654.06	2232.70
654.25	2283.28
654.45	1989.40
654.64	2129.27
654.84	2148.73
655.03	1813.89
655.23	2127.63
655.42	2277.55
655.62	2435.24
655.81	2091.18
656.01	1907.48
656.20	2285.94
656.40	2415.17
656.59	2042.64
656.79	2139.10
656.98	2183.95
657.17	2293.11
657.37	1985.71
657.56	1969.12
657.76	2178.42
657.95	2298.84
658.15	1626.09
658.34	2016.23
658.54	2144.22
658.73	1949.26
658.92	2023.19
659.12	2043.87
659.31	2347.79
659.51	2163.06
659.70	2299.25
659.90	2191.74
660.09	2566.31
660.29	2382.81
660.48	2086.27
660.67	2304.78
660.87	2199.52
661.06	2308.27
661.26	2162.86
661.45	2205.46
661.65	2270.17
661.84	2070.50
662.03	1960.73
662.23	1991.65
662.42	2505.28
662.62	1960.52
662.81	1882.90
663.00	1935.33
663.20	2128.66
663.39	2173.30
663.59	2067.63
663.78	1925.91
663.97	2078.48
664.17	2286.56
664.36	1845.63
664.56	1914.44
664.75	2268.94
664.94	2280.82
665.14	2156.31
665.33	2177.20
665.53	2358.65
665.72	2332.23
665.91	2346.36
666.11	2209.35
666.30	2331.00
666.50	2251.95
666.69	2181.09
666.88	2090.16
667.08	2256.04
667.27	2192.76
667.47	2089.95
667.66	2037.73
667.85	2351.07
668.05	2164.09
668.24	1950.69
668.43	2251.74
668.63	2094.66
668.82	2392.23
669.02	2128.04
669.21	2052.68
669.40	2013.15
669.60	2545.42
669.79	1906.04
669.98	2641.27
670.18	2057.80
670.37	1980.59
670.56	2031.18
670.76	2105.72
670.95	2173.71
671.15	2401.65
671.34	2148.93
671.53	2130.09
671.73	2181.91
671.92	2129.68
672.11	1996.77
672.31	2028.92
672.50	2240.89
672.69	1972.60
672.89	1813.07
673.08	2009.88
673.27	2301.30
673.47	2182.73
673.66	2026.47
673.85	1931.44
674.05	2486.44
674.24	3309.52
674.43	3584.56
674.63	4267.97
674.82	5059.92
675.01	4402.93
675.21	4181.13
675.40	3720.75
675.59	3664.64
675.79	3899.33
675.98	3312.79
676.17	3331.23
676.37	3229.24
676.56	2896.24
676.75	2656.63
676.95	2492.79
677.14	2400.83
677.33	2542.55
677.52	2022.78
677.72	2080.33
677.91	2260.75
678.10	1941.47
678.30	1933.49
678.49	1932.67
678.68	2538.87
678.88	1852.18
679.07	2150.78
679.26	1944.75
679.45	2457.97
679.65	2354.96
679.84	1804.87
680.03	1850.95
680.23	2089.34
680.42	2596.21
680.61	1924.48
680.81	1977.72
681.00	2161.63
681.19	2249.28
681.38	2150.57
681.58	2133.57
681.77	2134.39
681.96	2369.09
682.15	2027.28
682.35	2195.42
682.54	2343.49
682.73	2029.54
682.93	1976.70
683.12	1950.08
683.31	2338.17
683.50	2650.07
683.70	1936.76
683.89	2065.17
684.08	2014.38
684.27	2312.16
684.47	1912.60
684.66	2005.78
684.85	2554.43
685.04	2409.44
685.24	1932.26
685.43	1984.28
685.62	1887.61
685.81	2335.30
686.01	2675.26
686.20	2949.89
686.39	3242.55
686.58	4084.67
686.78	3770.31
686.97	3546.47
687.16	3447.96
687.35	3260.37
687.55	3029.36
687.74	3041.85
687.93	2892.76
688.12	2952.97
688.32	2818.00
688.51	2533.54
688.70	2705.78
688.89	2318.30
689.08	2142.18
689.28	2155.49
689.47	2317.69
689.66	2297.41
689.85	2185.80
690.05	2026.87
690.24	2073.16
690.43	2228.19
690.62	2017.45
690.81	1977.11
691.01	2149.75
691.20	2089.13
691.39	1880.44
691.58	2056.78
691.77	2474.56
691.97	2192.76
692.16	2100.81
692.35	2038.96
692.54	2171.05
692.73	2574.91
692.93	2513.27
693.12	2669.53
693.31	2889.07
693.50	2828.04
693.69	2600.92
693.89	2405.54
694.08	2797.12
694.27	2792.00
694.46	2395.30
694.65	2409.64
694.85	2650.48
695.04	2649.66
695.23	2626.52
695.42	3913.67
695.61	5083.47
695.80	5854.94
696.00	6361.81
696.19	6700.54
696.38	5949.96
696.57	5060.53
696.76	4726.30
696.95	4340.46
697.15	4461.30
697.34	4180.31
697.53	3499.98
697.72	3420.52
697.91	3147.32
698.10	3194.42
698.30	2554.23
698.49	2370.73
698.68	2482.75
698.87	2309.08
699.06	2061.08
699.25	2127.43
699.45	2402.47
699.64	2233.92
699.83	2230.24
700.02	1998.20
700.21	2245.60
700.40	2034.86
700.59	1972.81
700.79	2016.43
700.98	2235.15
701.17	2054.11
701.36	1926.73
701.55	1972.60
701.74	2601.94
701.93	2846.88
702.12	3446.73
702.32	3838.92
702.51	4528.67
702.70	4571.27
702.89	3945.00
703.08	3405.98
703.27	3682.86
703.46	3439.77
703.65	2985.53
703.85	2840.94
704.04	2843.81
704.23	3016.66
704.42	2472.92
704.61	2365.20
704.80	2694.72
704.99	2190.10
705.18	2177.20
705.37	2292.50
705.57	3401.68
705.76	4948.10
705.95	5486.30
706.14	6572.75
706.33	7304.08
706.52	7279.30
706.71	5635.40
706.90	4980.66
707.09	4958.54
707.28	4566.56
707.47	4080.78
707.67	3954.22
707.86	3646.82
708.05	3687.16
708.24	3060.48
708.43	2808.58
708.62	2576.96
708.81	2329.36
709.00	2101.42
709.19	2031.18
709.38	2412.30
709.57	2102.65
709.76	2257.48
709.96	2237.61
710.15	2743.87
710.34	2503.64
710.53	2487.67
710.72	2248.87
710.91	2530.47
711.10	2434.22
711.29	2271.20
711.48	2181.09
711.67	2210.37
711.86	2465.55
712.05	2137.87
712.24	2163.06
712.43	2462.48
712.62	2533.95
712.81	2127.43
713.00	2262.80
713.19	2040.39
713.39	2329.36
713.58	2035.68
713.77	2294.75
713.96	2534.98
714.15	2452.44
714.34	2331.82
714.53	2156.72
714.72	2757.39
714.91	2343.90
715.10	2447.32
715.29	2301.71
715.48	3066.01
715.67	2634.30
715.86	2327.31
716.05	2253.18
716.24	2339.39
716.43	2257.89
716.62	2070.09
716.81	2030.36
717.00	2218.36
717.19	2505.69
717.38	2077.25
717.57	2046.54
717.76	1934.72
717.95	2312.36
718.14	1998.41
718.33	2036.09
718.52	1894.78
718.71	1910.35
718.90	1867.95
719.09	1917.92
719.28	2142.38
719.47	2389.77
719.66	2383.43
719.85	2516.95
720.04	2609.11
720.23	2759.02
720.42	2547.26
720.61	2557.71
720.80	2265.05
720.99	2541.73
721.18	2261.98
721.37	2179.24
721.56	2314.20
721.75	2475.79
721.94	2095.28
722.13	2132.55
722.32	2205.46
722.51	2354.34
722.70	2115.14
722.89	2115.14
723.08	2102.65
723.27	2317.89
723.46	2068.04
723.65	2053.50
723.84	2054.32
724.03	2390.18
724.22	1865.09
724.41	1985.51
724.60	2113.30
724.79	2268.53
724.98	2025.03
725.16	1937.99
725.35	2257.68
725.54	2003.32
725.73	2053.50
725.92	2176.99
726.11	2476.81
726.30	2965.87
726.49	2763.73
726.68	3012.56
726.87	3354.37
727.06	3418.06
727.25	2701.27
727.44	2773.97
727.63	2754.52
727.82	2691.44
728.01	2586.58
728.20	2600.72
728.38	2825.38
728.57	2482.55
728.76	2274.06
728.95	2362.33
729.14	2101.22
729.33	2078.28
729.52	1800.78
729.71	1944.34
729.90	2070.91
730.09	2261.78
730.28	2272.43
730.47	2404.52
730.66	2904.43
730.84	2797.53
731.03	2570.00
731.22	2548.08
731.41	2601.13
731.60	2598.05
731.79	2162.86
731.98	2221.43
732.17	2525.56
732.36	2436.88
732.55	2124.15
732.73	2015.00
732.92	2504.67
733.11	2298.84
733.30	2014.18
733.49	1936.56
733.68	2337.96
733.87	2302.74
734.06	2157.74
734.25	2503.85
734.43	2916.92
734.62	3287.40
734.81	3223.30
735.00	3229.03
735.19	3112.30
735.38	3000.68
735.57	2604.40
735.76	2808.58
735.94	3214.49
736.13	4317.94
736.32	4442.45
736.51	4773.00
736.70	5596.07
736.89	5695.40
737.08	5313.45
737.27	6391.30
737.45	8610.48
737.64	9320.92
737.83	10329.75
738.02	10752.25
738.21	10153.42
738.40	8367.18
738.59	7423.89
738.77	6808.27
738.96	6361.81
739.15	5948.94
739.34	5347.86
739.53	4860.44
739.72	4704.18
739.90	4265.51
740.09	3447.14
740.28	3197.08
740.47	3092.64
740.66	2905.04
740.85	2396.53
741.03	2349.02
741.22	2251.33
741.41	2404.32
741.60	2157.94
741.79	2347.38
741.98	2709.46
742.16	2854.87
742.35	2487.67
742.54	2723.39
742.73	3285.35
742.92	2970.78
743.10	2826.81
743.29	2871.46
743.48	3289.65
743.67	2658.88
743.86	2386.50
744.05	2376.46
744.23	2428.07
744.42	2391.82
744.61	2366.84
744.80	2160.81
744.99	2274.68
745.17	2014.38
745.36	1964.82
745.55	2162.86
745.74	2163.47
745.93	2059.85
746.11	1948.23
746.30	1910.75
746.49	2349.22
746.68	2015.61
746.86	2038.14
747.05	1985.92
747.24	2318.30
747.43	2399.40
747.62	2074.80
747.80	2199.31
747.99	2654.37
748.18	2589.45
748.37	2295.36
748.56	2306.01
748.74	2570.41
748.93	2506.10
749.12	2942.73
749.31	4518.84
749.49	5880.74
749.68	6801.30
749.87	7635.85
750.06	7865.02
750.24	8146.00
750.43	9051.20
750.62	10074.98
750.81	10956.22
750.99	11659.50
751.18	11585.36
751.37	9520.39
751.56	8118.35
751.74	8249.83
751.93	7657.36
752.12	6200.23
752.31	5603.65
752.49	5198.97
752.68	4949.53
752.87	4109.45
753.06	3704.98
753.24	3437.72
753.43	3313.20
753.62	2606.25
753.81	2447.73
753.99	2754.31
754.18	2495.86
754.37	2107.77
754.55	2143.20
754.74	2562.62
754.93	1960.11
755.12	2030.36
755.30	1931.03
755.49	2378.72
755.68	2244.98
755.86	2110.43
756.05	1898.06
756.24	2410.46
756.43	1982.64
756.61	1923.86
756.80	2068.24
756.99	2406.36
757.17	2176.38
757.36	1988.78
757.55	2023.60
757.74	2280.21
757.92	2176.79
758.11	1927.55
758.30	1849.32
758.48	2116.58
758.67	2006.39
758.86	2071.11
759.04	1973.83
759.23	2132.75
759.42	2217.54
759.60	1979.36
759.79	2017.86
759.98	2110.43
760.16	2011.11
760.35	1948.85
760.54	1900.31
760.73	2219.18
760.91	1962.77
761.10	2001.07
761.29	2119.85
761.47	2218.77
761.66	2598.46
761.85	2161.63
762.03	2575.73
762.22	4501.23
762.41	10301.08
762.59	16595.31
762.78	19916.29
762.97	24223.37
763.15	25902.71
763.34	23172.36
763.52	17018.42
763.71	16012.04
763.90	14688.44
764.08	13542.40
764.27	12429.12
764.46	11624.68
764.64	10111.44
764.83	8998.77
765.02	7888.78
765.20	6951.42
765.39	5781.21
765.58	4301.76
765.76	3639.24
765.95	3292.52
766.13	2867.77
766.32	2452.24
766.51	2362.95
766.69	2647.61
766.88	2455.72
767.07	2038.55
767.25	1892.53
767.44	2409.44
767.62	2468.01
767.81	1989.81
768.00	2101.01
768.18	2254.40
768.37	2175.76
768.56	1908.91
768.74	2045.51
768.93	2028.31
769.11	2285.74
769.30	2095.28
769.49	2018.89
769.67	2169.21
769.86	2134.60
770.04	2022.16
770.23	1957.04
770.42	2398.17
770.60	2162.65
770.79	1917.51
770.97	2122.92
771.16	3205.28
771.35	4905.50
771.53	6368.16
771.72	7375.76
771.90	8690.96
772.09	9176.54
772.27	8003.87
772.46	6208.42
772.65	6330.48
772.83	5801.08
773.02	5420.97
773.20	4917.58
773.39	4890.14
773.58	4571.07
773.76	3896.87
773.95	3585.17
774.13	3493.02
774.32	3116.80
774.50	2591.09
774.69	2472.92
774.87	2328.13
775.06	2673.62
775.25	2007.62
775.43	2019.09
775.62	2205.87
775.80	2309.70
775.99	2055.34
776.17	1997.59
776.36	2222.66
776.54	2457.77
776.73	2069.88
776.92	2175.97
777.10	2440.97
777.29	2307.65
777.47	2007.83
777.66	2034.66
777.84	2233.31
778.03	2180.88
778.21	1979.36
778.40	2061.89
778.58	2255.22
778.77	2355.57
778.95	1896.83
779.14	1966.87
779.32	2469.65
779.51	2319.32
779.70	1932.05
779.88	1828.63
780.07	2070.91
780.25	2594.16
780.44	1988.17
780.62	2088.11
780.81	2245.60
780.99	2210.17
781.18	1942.09
781.36	1914.65
781.55	2108.79
781.73	2369.09
781.92	1868.16
782.10	1886.59
782.29	2223.07
782.47	2394.69
782.66	1945.78
782.84	1840.92
783.03	2012.54
783.21	2352.71
783.40	1901.13
783.58	1915.67
783.77	2018.48
783.95	2100.19
784.14	1905.63
784.32	2018.48
784.51	2386.70
784.69	2053.50
784.88	1970.97
785.06	2096.92
785.24	2019.30
785.43	2402.06
785.61	2144.22
785.80	1995.95
785.98	2348.41
786.17	2235.97
786.35	1968.71
786.54	2163.68
786.72	2364.18
786.91	2369.50
787.09	2037.73
787.28	1893.76
787.46	2200.34
787.65	2333.66
787.83	1892.94
788.01	2071.32
788.20	2108.79
788.38	2334.48
788.57	2189.28
788.75	2182.93
788.94	2657.44
789.12	2520.23
789.31	2164.91
789.49	2240.07
789.67	2193.78
789.86	2333.46
790.04	2046.13
790.23	2017.25
790.41	2683.04
790.60	2250.72
790.78	2127.23
790.96	2117.60
791.15	2362.33
791.33	2206.48
791.52	2064.97
791.70	1940.04
791.89	2214.67
792.07	2340.42
792.25	2060.05
792.44	1886.59
792.62	2372.16
792.81	2099.99
792.99	2022.98
793.17	1996.56
793.36	2128.45
793.54	2908.32
793.73	3865.95
793.91	5229.90
794.10	6349.73
794.28	7319.03
794.46	7352.62
794.65	7093.96
794.83	5671.03
795.01	5362.61
795.20	5112.55
795.38	4829.11
795.57	4723.23
795.75	4514.13
795.93	4004.19
796.12	3748.81
796.30	3693.10
796.49	3505.71
796.67	2935.97
796.85	2841.97
797.04	2740.18
797.22	2651.91
797.40	2185.80
797.59	2244.57
797.77	2331.00
797.96	2118.21
798.14	2004.76
798.32	2028.51
798.51	2332.84
798.69	2512.24
798.87	2037.11
799.06	2051.04
799.24	2071.52
799.42	2761.89
799.61	3414.99
799.79	4026.10
799.98	4991.51
800.16	5337.42
800.34	6690.30
800.53	8500.09
800.71	9210.33
800.89	10766.17
801.08	10926.94
801.26	10857.92
801.44	9144.79
801.63	7561.51
801.81	7331.93
801.99	6634.80
802.18	6342.97
802.36	6009.15
802.54	5481.39
802.73	4712.79
802.91	4501.44
803.09	4161.68
803.28	3741.43
803.46	3408.43
803.64	3409.87
803.83	2689.19
804.01	2431.76
804.19	2256.86
804.38	2614.23
804.56	2518.18
804.74	2311.75
804.92	2300.28
805.11	2208.32
805.29	2525.96
805.47	2091.80
805.66	2047.97
805.84	2096.10
806.02	2453.47
806.21	2076.44
806.39	2291.68
806.57	2431.96
806.76	2412.10
806.94	2191.33
807.12	2148.73
807.30	2256.04
807.49	2453.26
807.67	2333.25
807.85	2402.27
808.04	2483.98
808.22	2750.22
808.40	2057.39
808.58	1986.73
808.77	2392.23
808.95	2694.31
809.13	3065.40
809.31	5729.19
809.50	8582.63
809.68	10141.95
809.86	11420.29
810.05	12388.16
810.23	13645.00
810.41	17696.09
810.59	28077.65
810.78	34268.25
810.96	39802.48
811.14	42759.95
811.32	41991.55
811.51	33540.20
811.69	27063.50
811.87	26611.51
812.05	23089.62
812.24	21576.37
812.42	20011.93
812.60	17853.58
812.78	14964.51
812.97	12754.34
813.15	11442.41
813.33	9833.12
813.51	8301.44
813.70	6537.32
813.88	5367.52
814.06	4424.43
814.24	3502.64
814.42	2810.63
814.61	2801.83
814.79	2862.45
814.97	2147.70
815.15	2155.49
815.34	2346.15
815.52	2403.29
815.70	1993.08
815.88	2042.64
816.06	2072.54
816.25	2136.44
816.43	2008.44
816.61	2133.78
816.79	2492.58
816.98	2026.06
817.16	2048.99
817.34	2053.50
817.52	2359.87
817.70	2559.14
817.89	2153.03
818.07	1991.04
818.25	2204.02
818.43	2225.53
818.61	2033.84
818.80	2016.84
818.98	2487.87
819.16	2199.93
819.34	1923.25
819.52	2256.45
819.70	2042.64
819.89	2144.02
820.07	1875.53
820.25	1857.10
820.43	2191.53
820.61	2293.52
820.80	1962.77
820.98	1842.15
821.16	1896.83
821.34	1916.49
821.52	1926.11
821.70	2070.50
821.89	2144.22
822.07	2074.39
822.25	2022.57
822.43	1910.35
822.61	2395.71
822.79	2151.39
822.98	1966.05
823.16	1786.85
823.34	2161.63
823.52	2327.72
823.70	2020.73
823.88	1769.85
824.06	2198.49
824.25	2122.31
824.43	2120.88
824.61	1970.97
824.79	2248.46
824.97	2353.12
825.15	2408.21
825.33	3114.55
825.52	4290.29
825.70	4779.14
825.88	5113.37
826.06	5542.21
826.24	5830.77
826.42	5243.62
826.60	4253.43
826.78	4289.88
826.97	3956.68
827.15	4111.30
827.33	3489.53
827.51	3418.67
827.69	3260.57
827.87	3181.31
828.05	2893.37
828.23	2597.85
828.41	2859.17
828.60	2785.03
828.78	2203.61
828.96	2326.70
829.14	2179.86
829.32	2214.26
829.50	2054.32
829.68	2025.03
829.86	2107.77
830.04	2271.61
830.22	2102.44
830.41	1905.84
830.59	2109.00
830.77	2216.11
830.95	1920.38
831.13	1937.58
831.31	1969.53
831.49	2295.36
831.67	2117.19
831.85	2099.58
832.03	2094.66
832.21	2254.40
832.39	1896.01
832.57	1951.10
832.76	2316.66
832.94	2160.20
833.12	1826.17
833.30	1966.46
833.48	2342.47
833.66	2222.05
833.84	1938.61
834.02	1990.22
834.20	2317.89
834.38	2297.62
834.56	1792.59
834.74	1904.20
834.92	1936.56
835.10	2465.34
835.28	1999.43
835.46	1998.61
835.64	2122.31
835.82	2002.09
836.01	2223.89
836.19	2137.46
836.37	2024.62
836.55	1957.24
836.73	1880.85
836.91	1862.83
837.09	2232.08
837.27	2377.28
837.45	1841.12
837.63	1898.26
837.81	1990.42
837.99	2228.80
838.17	2132.96
838.35	2078.48
838.53	2710.28
838.71	2480.91
838.89	2187.85
839.07	2169.82
839.25	2387.11
839.43	2568.56
839.61	2805.92
839.79	4573.11
839.97	6785.74
840.15	7905.16
840.33	8759.16
840.51	9344.06
840.69	9135.78
840.87	7452.15
841.05	6577.05
841.23	7145.36
841.41	9137.63
841.59	12809.23
841.77	14284.58
841.95	15741.30
842.13	16839.01
842.31	15997.09
842.49	12743.08
842.67	10666.44
842.85	10588.61
843.03	9202.34
843.21	8538.60
843.39	7906.18
843.57	7257.18
843.75	6500.46
843.93	5468.28
844.11	4932.53
844.29	4638.65
844.47	4188.92
844.65	3944.80
844.83	3445.30
845.01	3135.24
845.19	3054.55
845.36	2530.67
845.54	2378.72
845.72	2327.31
845.90	2372.78
846.08	1992.88
846.26	2080.74
846.44	2266.08
846.62	2235.97
846.80	2068.65
846.98	1908.09
847.16	2041.01
847.34	2152.82
847.52	1904.20
847.70	1810.40
847.88	2096.71
848.06	2333.46
848.24	2061.28
848.41	1838.26
848.59	2293.52
848.77	2195.83
848.95	1923.45
849.13	1916.69
849.31	2221.02
849.49	2146.89
849.67	1859.15
849.85	1836.41
850.03	2176.38
850.21	2167.98
850.39	1863.04
850.57	2043.05
850.74	2369.50
850.92	2509.17
851.10	2701.07
851.28	3384.88
851.46	4019.75
851.64	4726.92
851.82	4388.39
852.00	4481.98
852.18	4314.46
852.36	3766.62
852.53	3450.83
852.71	3316.48
852.89	3428.50
853.07	3256.48
853.25	2854.05
853.43	2654.58
853.61	2862.24
853.79	2736.09
853.97	2312.98
854.14	2292.09
854.32	2652.12
854.50	2472.92
854.68	2145.66
854.86	2051.04
855.04	2056.57
855.22	2297.21
855.40	1839.08
855.57	1919.15
855.75	2276.52
855.93	2228.39
856.11	1800.78
856.29	1915.67
856.47	1978.34
856.65	2158.97
856.82	1887.41
857.00	1825.35
857.18	2086.06
857.36	2027.08
857.54	2025.44
857.72	2105.93
857.89	2225.32
858.07	2091.80
858.25	2110.64
858.43	1803.44
858.61	2042.64
858.79	2088.31
858.97	1846.24
859.14	1997.59
859.32	2064.15
859.50	2088.93
859.68	2052.47
859.86	1976.49
860.03	2224.09
860.21	2341.65
860.39	2049.40
860.57	2201.57
860.75	2273.45
860.93	2507.74
861.10	2245.19
861.28	1991.85
861.46	2302.12
861.64	2304.58
861.82	2042.85
861.99	2126.20
862.17	2342.88
862.35	2322.60
862.53	2000.25
862.71	1983.05
862.88	2191.74
863.06	2252.77
863.24	1947.62
863.42	1882.49
863.60	2064.97
863.77	2187.44
863.95	1780.30
864.13	1918.13
864.31	2050.43
864.49	2215.49
864.66	1831.91
864.84	1837.03
865.02	2149.55
865.20	2570.61
865.37	1981.41
865.55	1847.27
865.73	1972.19
865.91	2471.90
866.09	2344.11
866.26	2351.89
866.44	2657.85
866.62	2490.33
866.80	2266.49
866.97	2202.18
867.15	2350.45
867.33	2403.91
867.51	2254.20
867.68	2196.86
867.86	2233.31
868.04	2159.99
868.22	1865.49
868.39	1998.82
868.57	2229.62
868.75	2404.11
868.93	1851.57
869.10	1941.68
869.28	2441.38
869.46	2359.87
869.64	1957.24
869.81	1910.75
869.99	2133.57
870.17	2120.88
870.35	1865.09
870.52	1916.08
870.70	2251.13
870.88	1982.43
871.05	1838.87
871.23	1730.53
871.41	2078.69
871.59	2089.95
871.76	1912.60
871.94	1824.33
872.12	2064.35
872.29	1843.38
872.47	1836.82
872.65	1828.02
872.83	2136.44
873.00	2340.21
873.18	1912.60
873.36	1871.02
873.53	2236.38
873.71	1882.08
873.89	1826.99
874.06	1897.24
874.24	2153.85
874.42	2329.77
874.60	2025.03
874.77	1970.56
874.95	1988.58
875.13	2304.37
875.30	1931.44
875.48	1917.51
875.66	2429.51
875.83	2060.05
876.01	1975.47
876.19	2078.69
876.36	1947.21
876.54	2156.72
876.72	1873.89
876.89	2042.64
877.07	2248.26
877.25	1838.05
877.42	1937.17
877.60	1908.71
877.78	2407.59
877.95	2015.41
878.13	1840.92
878.31	2013.77
878.48	2263.21
878.66	2201.98
878.84	1891.30
879.01	1903.38
879.19	2174.94
879.37	2224.50
879.54	1906.04
879.72	1812.25
879.90	1812.25
880.07	2255.02
880.25	1668.68
880.42	2041.42
880.60	2121.29
880.78	2181.91
880.95	1857.92
881.13	1944.14
881.31	2099.78
881.48	2006.60
881.66	1855.25
881.83	1982.84
882.01	1956.42
882.19	1875.53
882.36	1891.09
882.54	1853.82
882.72	2197.88
882.89	2085.24
883.07	1822.90
883.24	1856.07
883.42	2188.66
883.60	2107.36
883.77	1832.32
883.95	1959.91
884.12	2324.24
884.30	2272.63
884.48	2195.22
884.65	2116.99
884.83	2320.14
885.00	2310.93
885.18	1890.28
885.36	2004.96
885.53	2287.99
885.71	2379.13
885.88	1853.00
886.06	1900.11
886.23	2241.30
886.41	2048.79
886.59	1863.45
886.76	1822.49
886.94	2181.09
887.11	2557.91
887.29	1912.80
887.47	1802.83
887.64	2300.48
887.82	2318.10
887.99	1739.95
888.17	1929.19
888.34	2019.91
888.52	1877.99
888.69	1858.12
888.87	1810.20
889.05	2018.89
889.22	1998.82
889.40	1855.46
889.57	2095.69
889.75	2369.91
889.92	1999.43
890.10	1773.75
890.27	1925.30
890.45	1960.11
890.62	1784.80
890.80	1807.95
890.98	1703.50
891.15	2325.47
891.33	2221.64
891.50	1817.16
891.68	1746.51
891.85	2180.68
892.03	2209.35
892.20	1835.18
892.38	1788.70
892.55	2203.82
892.73	2218.97
892.90	1731.76
893.08	1828.02
893.25	2033.02
893.43	2037.52
893.60	1936.15
893.78	1685.27
893.95	2139.92
894.13	2034.04
894.30	1828.84
894.48	1880.65
894.65	2190.10
894.83	2105.11
895.00	1689.16
895.18	1704.32
895.35	2226.55
895.53	2222.46
895.70	1803.85
895.88	2001.28
896.05	2189.89
896.23	1903.18
896.40	1906.86
896.58	1947.62
896.75	2231.47
896.93	2350.25
897.10	1890.48
897.28	1781.12
897.45	2116.78
897.63	2196.45
897.80	1964.82
897.98	1836.41
898.15	2134.39
898.33	2026.47
898.50	1936.76
898.67	1893.14
898.85	2045.72
899.02	2162.65
899.20	2107.77
899.37	1913.42
899.55	2099.58
899.72	2314.00
899.90	1857.71
900.07	1847.06
900.25	2159.99
900.42	2265.05
900.59	1845.83
900.77	1954.38
900.94	2129.27
901.12	2109.61
901.29	1872.05
901.47	2012.33
901.64	2142.38
901.82	2075.00
901.99	1669.91
902.16	1812.45
902.34	2241.30
902.51	2118.01
902.69	1820.85
902.86	1902.97
903.03	2696.15
903.21	2064.35
903.38	1849.32
903.56	1825.97
903.73	2235.97
903.91	2005.99
904.08	1824.54
904.25	1688.55
904.43	1936.56
904.60	2210.78
904.78	1866.72
904.95	1808.77
905.12	2020.94
905.30	2431.35
905.47	1993.08
905.65	2079.51
905.82	2145.86
905.99	2306.83
906.17	2015.82
906.34	1987.55
906.52	2129.07
906.69	2375.64
906.86	2127.02
907.04	2116.58
907.21	2447.73
907.38	2390.59
907.56	1931.23
907.73	1899.49
907.91	2376.26
908.08	2330.18
908.25	1926.32
908.43	1796.68
908.60	2204.84
908.77	2143.20
908.95	1902.56
909.12	1836.62
909.30	2220.61
909.47	1888.84
909.64	1934.10
909.82	2086.68
909.99	2036.09
910.16	2105.11
910.34	1835.80
910.51	1848.70
910.68	2139.92
910.86	2099.99
911.03	1872.87
911.20	2365.40
911.38	3903.84
911.55	5739.43
911.72	6445.16
911.90	6999.14
912.07	7771.22
912.24	7625.00
912.42	5851.87
912.59	4423.41
912.76	4388.18
912.94	3761.30
913.11	3306.24
913.28	2980.00
913.46	2907.09
913.63	3014.00
913.80	3002.12
913.98	2579.21
914.15	2909.55
914.32	2894.19
914.49	2538.66
914.67	2334.89
914.84	2610.75
915.01	2716.22
915.19	2391.00
915.36	2205.87
915.53	2556.27
915.71	2373.39
915.88	2108.59
916.05	1932.46
916.22	2312.16
916.40	2154.46
916.57	1797.50
916.74	2039.57
916.92	2364.58
917.09	1940.04
917.26	1833.34
917.43	1796.27
917.61	2040.80
917.78	1874.30
917.95	1803.44
918.13	1807.13
918.30	2437.90
918.47	2132.96
918.64	1897.65
918.82	1886.18
918.99	2242.12
919.16	2578.39
919.33	2149.55
919.51	2123.33
919.68	2273.04
919.85	2477.84
920.02	1896.83
920.20	1974.86
920.37	2454.08
920.54	2302.12
920.71	1874.92
920.89	1910.96
921.06	2438.93
921.23	2020.94
921.40	1969.94
921.58	2503.03
921.75	3489.33
921.92	3025.67
922.09	3078.92
922.27	3075.43
922.44	3097.55
922.61	2862.45
922.78	2303.96
922.96	2240.27
923.13	2332.43
923.30	2519.00
923.47	1987.55
923.64	2036.50
923.82	2358.85
923.99	2285.33
924.16	2102.85
924.33	1931.44
924.50	2232.29
924.68	2454.49
924.85	1939.43
925.02	1980.18
925.19	2322.40
925.36	2227.78
925.54	2007.62
925.71	2009.26
925.88	2687.55
926.05	2076.44
926.22	1845.22
926.40	1978.54
926.57	2143.81
926.74	2188.25
926.91	1854.03
927.08	2019.30
927.26	2276.11
927.43	2105.72
927.60	1826.99
927.77	1889.66
927.94	2354.55
928.11	2292.91
928.29	1741.39
928.46	1944.55
928.63	1981.41
928.80	2047.15
928.97	1989.19
929.14	1870.21
929.32	2471.49
929.49	2120.47
929.66	1839.69
929.83	1763.51
930.00	2006.60
930.17	2140.95
930.35	1765.96
930.52	1838.46
930.69	2344.51
930.86	1897.03
931.03	1890.89
931.20	1657.63
931.37	2246.83
931.55	2054.11
931.72	1896.62
931.89	1757.57
932.06	1890.68
932.23	2383.43
932.40	1959.50
932.57	1987.76
932.74	2305.19
932.92	2269.76
933.09	2025.44
933.26	1636.53
933.43	2004.55
933.60	2109.61
933.77	1914.24
933.94	1966.66
934.11	2020.53
934.29	2104.49
934.46	1829.25
934.63	1952.53
934.80	1894.17
934.97	2094.46
935.14	1945.16
935.31	1782.76
935.48	2016.43
935.65	2161.22
935.82	1936.35
936.00	1805.28
936.17	2349.63
936.34	2058.82
936.51	1952.53
936.68	1796.48
936.85	2144.02
937.02	2089.13
937.19	1998.20
937.36	1934.92
937.53	2171.67
937.70	2219.38
937.87	1842.76
938.05	1979.98
938.22	2114.73
938.39	1894.78
938.56	1861.40
938.73	1791.77
938.90	2064.56
939.07	1970.76
939.24	1945.57
939.41	1730.33
939.58	2160.40
939.75	2192.56
939.92	1840.51
940.09	2137.06
940.26	2047.15
940.43	2272.63
940.60	1877.99
940.77	1859.97
940.95	2123.95
941.12	2190.51
941.29	1877.58
941.46	1859.76
941.63	2269.76
941.80	2321.99
941.97	1738.73
942.14	1716.40
942.31	2167.16
942.48	2053.29
942.65	1970.15
942.82	1882.90
942.99	2178.01
943.16	2085.86
943.33	1757.77
943.50	1844.20
943.67	2211.60
943.84	2252.56
944.01	1814.71
944.18	1797.09
944.35	2313.39
944.52	1939.22
944.69	1907.48
944.86	1756.34
945.03	2190.10
945.20	2527.40
945.37	1720.50
945.54	1952.12
945.71	2332.43
945.88	2399.81
946.05	1858.94
946.22	1811.22
946.39	2358.85
946.56	2062.92
946.73	1746.71
946.90	1806.92
947.07	2026.06
947.24	2060.05
947.41	1724.39
947.58	1964.21
947.75	2208.32
947.92	2136.44
948.09	1661.93
948.26	1728.28
948.43	2112.48
948.60	2396.74
948.77	1805.49
948.94	1837.03
949.11	2193.99
949.27	2130.71
949.44	1826.17
949.61	1753.06
949.78	2128.04
949.95	2260.34
950.12	1723.78
950.29	1718.86
950.46	1970.15
950.63	2236.79
950.80	1798.53
950.97	1827.81
951.14	2234.95
951.31	2044.08
951.48	1777.02
951.65	1736.27
951.82	2379.13
951.99	2107.77
952.15	1758.59
952.32	1823.51
952.49	1933.49
952.66	1977.72
952.83	1822.08
953.00	1771.90
953.17	2036.91
953.34	2214.47
953.51	1888.02
953.68	1851.57
953.85	2246.83
954.02	2260.34
954.18	1884.54
954.35	1837.03
954.52	1921.61
954.69	2102.04
954.86	1718.45
955.03	1896.62
955.20	2162.66
955.37	2056.37
955.54	1809.18
955.71	1798.94
955.87	2123.54
956.04	2394.08
956.21	1823.31
956.38	1778.05
956.55	2080.94
956.72	2505.28
956.89	1876.14
957.06	1796.07
957.23	1970.56
957.39	2283.49
957.56	1835.39
957.73	1747.74
957.90	1713.13
958.07	2387.32
958.24	1866.72
958.41	1821.87
958.57	2183.54
958.74	2049.20
958.91	1751.22
959.08	1791.56
959.25	2204.23
959.42	2017.25
959.59	1869.59
959.75	1862.63
959.92	2260.75
960.09	2227.37
960.26	1776.82
960.43	1908.50
960.60	2097.12
960.76	2025.65
960.93	1720.91
961.10	1867.54
961.27	2234.54
961.44	2016.84
961.61	1723.37
961.77	1738.11
961.94	2079.92
962.11	2231.26
962.28	1804.87
962.45	1723.16
962.62	2034.86
962.78	2223.27
962.95	1719.88
963.12	1805.28
963.29	2174.33
963.46	2551.56
963.62	1899.90
963.79	1802.01
963.96	2518.59
964.13	2000.05
964.30	1913.42
964.46	1825.76
964.63	1899.29
964.80	2606.45
964.97	1806.31
965.14	2223.07
965.30	2434.63
965.47	2523.30
965.64	2319.94
965.81	2252.97
965.98	2607.06
966.14	2301.51
966.31	1972.60
966.48	1962.57
966.65	2425.20
966.81	2291.88
966.98	1960.11
967.15	1946.80
967.32	2169.41
967.49	2036.91
967.65	1783.99
967.82	1747.12
967.99	2108.38
968.16	1884.54
968.32	2045.31
968.49	1846.45
968.66	2074.59
968.83	2415.99
968.99	1994.72
969.16	1802.01
969.33	2310.72
969.50	2212.01
969.66	1963.18
969.83	2102.65
970.00	2229.62
970.17	2170.23
970.33	1850.75
970.50	1768.63
970.67	2327.31
970.84	2333.25
971.00	1772.11
971.17	1733.61
971.34	2194.60
971.50	2080.74
971.67	1934.92
971.84	1835.59
972.01	1862.63
972.17	1709.64
972.34	1709.03
972.51	1986.12
972.67	2265.46
972.84	2104.70
973.01	1745.07
973.18	1801.80
973.34	2235.15
973.51	1918.54
973.68	1845.42
973.84	1850.75
974.01	2008.65
974.18	2366.43
974.34	1904.00
974.51	1928.98
974.68	1927.55
974.85	2428.07
975.01	1914.44
975.18	1809.18
975.35	2052.88
975.51	1908.50
975.68	1713.13
975.85	1972.81
976.01	1970.56
976.18	2303.76
976.35	1804.47
976.51	1848.70
976.68	2348.20
976.85	2283.08
977.01	1850.95
977.18	1930.42
977.35	2168.18
977.51	1895.60
977.68	1665.20
977.85	1763.71
978.01	2283.69
978.18	2229.83
978.35	1950.90
978.51	1943.52
978.68	2273.45
978.85	2389.37
979.01	1894.37
979.18	1889.46
979.34	2068.45
979.51	2114.12
979.68	1796.27
979.84	1884.75
980.01	2546.44
980.18	2109.61
980.34	1812.45
980.51	1895.60
980.67	2220.61
980.84	2191.53
981.01	1839.90
981.17	1901.13
981.34	1827.20
981.51	2211.81
981.67	1755.72
981.84	1902.97
982.00	2185.18
982.17	2038.75
982.34	1686.09
982.50	1575.50
982.67	2349.84
982.83	1975.06
983.00	1718.25
983.17	1603.56
983.33	2258.09
983.50	1843.17
983.66	1705.14
983.83	1611.96
984.00	2025.44
984.16	2068.65
984.33	1596.39
984.49	1613.59
984.66	1918.95
984.83	2204.84
984.99	1670.73
985.16	1597.42
985.32	2151.19
985.49	2209.96
985.65	1734.63
985.82	1617.90
985.99	2335.91
986.15	2114.73
986.32	1739.54
986.48	1672.58
986.65	1969.12
986.81	2188.46
986.98	1593.93
987.14	1681.59
987.31	2076.44
987.48	1830.47
987.64	1547.45
987.81	1577.76
987.97	2414.15
988.14	1929.60
988.30	1632.44
988.47	1505.87
988.63	2108.18
988.80	1902.36
988.96	1718.86
989.13	1721.93
989.30	2013.15
989.46	2202.18
989.63	1572.02
989.79	1585.13
989.96	2053.50
990.12	2315.43
990.29	1645.34
990.45	1714.15
990.62	2055.55
990.78	2268.74
990.95	1728.28
991.11	1647.59
991.28	1977.52
991.44	2125.38
991.61	1566.90
991.77	1714.76
991.94	2095.28
992.10	2272.43
992.27	1701.45
992.43	1671.35
992.60	2144.22
992.76	1983.66
992.93	1843.79
993.09	1586.36
993.26	2251.33
993.42	2376.46
993.59	1658.45
993.75	1555.02
993.92	1956.63
994.08	1954.79
994.25	1718.45
994.41	1599.05
994.58	2180.27
994.74	2297.82
994.91	1597.83
995.07	1731.97
995.24	2038.96
995.40	2044.28
995.56	1781.12
995.73	1737.91
995.89	2369.30
996.06	2044.49
996.22	1612.57
996.39	1555.64
996.55	2029.54
996.72	2127.23
996.88	1575.50
997.05	1621.38
997.21	2417.01
997.37	2146.48
997.54	1753.68
997.70	1692.65
997.87	2113.09
998.03	2043.67
998.20	1541.10
998.36	1567.31
998.52	2185.18
998.69	2235.77
998.85	1573.25
999.02	1672.99
999.18	2226.96
999.35	2196.04
999.51	1690.80
999.67	1655.37
999.84	1896.21
1000.00	2205.66
1000.17	1749.58
1000.33	1615.85
1000.49	1959.91
1000.66	2018.07
1000.82	1659.67
1000.99	1706.57
1001.15	2252.36
1001.31	2031.18
1001.48	1685.27
1001.64	1739.34
1001.81	2024.42
1001.97	2413.74
1002.13	1675.65
1002.30	1671.55
1002.46	2303.15
1002.63	2014.18
1002.79	1749.58
1002.95	1601.92
1003.12	2221.02
1003.28	2113.30
1003.45	1651.28
1003.61	1617.49
1003.77	2106.54
1003.94	1854.23
1004.10	1664.38
1004.26	1754.49
1004.43	2177.40
1004.59	2404.52
1004.75	1679.33
1004.92	1648.41
1005.08	1993.90
1005.25	2157.33
1005.41	1679.13
1005.57	1750.40
1005.74	2262.60
1005.90	2039.57
1006.06	1821.05
1006.23	1667.87
1006.39	2208.32
1006.55	2549.72
1006.72	1787.26
1006.88	1591.27
1007.04	1939.22
1007.21	2041.21
1007.37	1684.86
1007.53	1656.40
1007.70	2324.24
1007.86	2232.90
1008.02	1761.05
1008.19	1614.21
1008.35	2097.73
1008.51	1930.21
1008.68	1642.88
1008.84	1596.39
1009.00	1933.08
1009.17	2248.06
1009.33	1835.80
1009.49	1762.69
1009.65	1964.41
1009.82	2131.53
1009.98	1743.03
1010.14	1556.46
1010.31	2195.83
1010.47	2141.77
1010.63	1725.21
1010.80	1699.20
1010.96	2134.60
1011.12	2043.87
1011.28	1684.25
1011.45	1637.15
1011.61	2536.61
1011.77	1918.54
1011.94	1610.11
1012.10	1601.10
1012.26	1886.79
1012.42	1977.11
1012.59	1720.09
1012.75	1715.99
1012.91	2014.38
1013.07	2200.34
1013.24	1617.08
1013.40	1622.40
1013.56	2090.36
1013.72	2046.54
1013.89	1737.09
1014.05	1750.19
1014.21	2395.71
1014.37	2482.96
1014.54	1707.19
1014.70	1589.84
1014.86	2030.56
1015.02	1872.25
1015.19	1646.77
1015.35	1608.47
1015.51	2039.98
1015.67	1978.13
1015.84	1645.34
1016.00	1646.77
1016.16	2265.67
1016.32	2231.26
1016.49	1650.66
1016.65	1585.74
1016.81	2041.42
1016.97	2169.00
1017.14	1776.82
1017.30	1695.72
1017.46	1978.34
1017.62	2078.69
1017.78	1720.29
1017.95	1622.81
1018.11	2187.23
1018.27	2455.92
1018.43	1819.42
1018.59	1718.45
1018.76	2191.12
1018.92	2510.20
1019.08	1632.85
1019.24	1666.43
1019.40	2298.64
1019.57	2097.94
1019.73	1749.78
1019.89	1680.36
1020.05	2076.85
1020.21	2419.06
1020.38	1638.58
1020.54	1813.68
1020.70	2142.79
1020.86	2188.46
1021.02	1650.05
1021.18	1657.83
1021.35	1982.23
1021.51	2156.31
1021.67	1818.19
1021.83	1689.57
1021.99	2061.49
1022.15	2120.67
1022.32	1736.06
1022.48	1704.93
1022.64	2296.18
1022.80	2337.96
1022.96	1732.99
1023.12	1587.99
1023.29	2264.44
1023.45	2114.73
1023.61	1647.18
1023.77	1862.22
1023.93	2107.97
1024.09	1919.77
1024.25	1636.12
1024.42	1601.92
1024.58	2003.53
1024.74	2121.90
1024.90	1651.48
1025.06	1724.80
1025.22	1981.61
1025.38	2359.87
1025.54	1595.16
1025.71	1761.66
1025.87	2197.47
1026.03	2185.59
1026.19	1638.78
1026.35	1838.67
1026.51	2183.54
1026.67	2077.66
1026.83	1694.90
1026.99	1811.43
1027.16	2153.03
1027.32	2041.82
1027.48	1657.42
1027.64	1617.08
1027.80	2189.07
1027.96	2060.67
1028.12	1672.78
1028.28	1652.30
1028.44	2136.03
1028.60	2323.83
1028.77	1811.63
1028.93	1717.84
1029.09	1965.23
1029.25	1899.08
1029.41	1718.25
1029.57	1782.96
1029.73	2110.02
1029.89	2320.96
1030.05	1778.46
1030.21	1757.77
1030.37	2473.33
1030.53	2146.07
1030.69	1704.32
1030.85	1592.50
1031.02	1908.50
1031.18	2062.71
1031.34	1662.54
1031.50	1742.21
1031.66	1938.40
1031.82	2315.84
1031.98	1697.97
1032.14	1615.85
1032.30	1918.54
1032.46	2215.90
1032.62	1796.07
1032.78	1598.44
1032.94	1972.40
1033.10	2016.84
1033.26	1739.14
1033.42	1791.97
1033.58	2432.37
1033.74	1979.16
1033.90	1670.53
1034.06	1874.92
1034.22	2460.02
1034.38	2227.58
1034.54	1709.23
1034.70	1704.93
1034.86	2407.39
>>>>>End Processed Spectral Data<<<<<
